Timestamp,EEG.Counter,EEG.Interpolated,EEG.Cz,EEG.Fz,EEG.Fp1,EEG.F7,EEG.F3,EEG.FC1,EEG.C3,EEG.FC5,EEG.FT9,EEG.T7,EEG.CP5,EEG.CP1,EEG.P3,EEG.P7,EEG.PO9,EEG.O1,EEG.Pz,EEG.Oz,EEG.O2,EEG.PO10,EEG.P8,EEG.P4,EEG.CP2,EEG.CP6,EEG.T8,EEG.FT10,EEG.FC6,EEG.C4,EEG.FC2,EEG.F4,EEG.F8,EEG.Fp2,EEG.RawCq,EEG.Battery,EEG.BatteryPercent,EEG.FwBufferSize,EEG.FwClockTime,MarkerIndex,MarkerType,MarkerValueInt,EEG.MarkerHardware,CQ.Cz,CQ.Fz,CQ.Fp1,CQ.F7,CQ.F3,CQ.FC1,CQ.C3,CQ.FC5,CQ.FT9,CQ.T7,CQ.CP5,CQ.CP1,CQ.P3,CQ.P7,CQ.PO9,CQ.O1,CQ.Pz,CQ.Oz,CQ.O2,CQ.PO10,CQ.P8,CQ.P4,CQ.CP2,CQ.CP6,CQ.T8,CQ.FT10,CQ.FC6,CQ.C4,CQ.FC2,CQ.F4,CQ.F8,CQ.Fp2,CQ.Overall,EQ.SampleRateQuality,EQ.OVERALL,EQ.Cz,EQ.Fz,EQ.Fp1,EQ.F7,EQ.F3,EQ.FC1,EQ.C3,EQ.FC5,EQ.FT9,EQ.T7,EQ.CP5,EQ.CP1,EQ.P3,EQ.P7,EQ.PO9,EQ.O1,EQ.Pz,EQ.Oz,EQ.O2,EQ.PO10,EQ.P8,EQ.P4,EQ.CP2,EQ.CP6,EQ.T8,EQ.FT10,EQ.FC6,EQ.C4,EQ.FC2,EQ.F4,EQ.F8,EQ.Fp2,MOT.CounterMems,MOT.InterpolatedMems,MOT.Q0,MOT.Q1,MOT.Q2,MOT.Q3,MOT.AccX,MOT.AccY,MOT.AccZ,MOT.MagX,MOT.MagY,MOT.MagZ,POW.Cz.Theta,POW.Cz.Alpha,POW.Cz.BetaL,POW.Cz.BetaH,POW.Cz.Gamma,POW.Fz.Theta,POW.Fz.Alpha,POW.Fz.BetaL,POW.Fz.BetaH,POW.Fz.Gamma,POW.Fp1.Theta,POW.Fp1.Alpha,POW.Fp1.BetaL,POW.Fp1.BetaH,POW.Fp1.Gamma,POW.F7.Theta,POW.F7.Alpha,POW.F7.BetaL,POW.F7.BetaH,POW.F7.Gamma,POW.F3.Theta,POW.F3.Alpha,POW.F3.BetaL,POW.F3.BetaH,POW.F3.Gamma,POW.FC1.Theta,POW.FC1.Alpha,POW.FC1.BetaL,POW.FC1.BetaH,POW.FC1.Gamma,POW.C3.Theta,POW.C3.Alpha,POW.C3.BetaL,POW.C3.BetaH,POW.C3.Gamma,POW.FC5.Theta,POW.FC5.Alpha,POW.FC5.BetaL,POW.FC5.BetaH,POW.FC5.Gamma,POW.FT9.Theta,POW.FT9.Alpha,POW.FT9.BetaL,POW.FT9.BetaH,POW.FT9.Gamma,POW.T7.Theta,POW.T7.Alpha,POW.T7.BetaL,POW.T7.BetaH,POW.T7.Gamma,POW.CP5.Theta,POW.CP5.Alpha,POW.CP5.BetaL,POW.CP5.BetaH,POW.CP5.Gamma,POW.CP1.Theta,POW.CP1.Alpha,POW.CP1.BetaL,POW.CP1.BetaH,POW.CP1.Gamma,POW.P3.Theta,POW.P3.Alpha,POW.P3.BetaL,POW.P3.BetaH,POW.P3.Gamma,POW.P7.Theta,POW.P7.Alpha,POW.P7.BetaL,POW.P7.BetaH,POW.P7.Gamma,POW.PO9.Theta,POW.PO9.Alpha,POW.PO9.BetaL,POW.PO9.BetaH,POW.PO9.Gamma,POW.O1.Theta,POW.O1.Alpha,POW.O1.BetaL,POW.O1.BetaH,POW.O1.Gamma,POW.Pz.Theta,POW.Pz.Alpha,POW.Pz.BetaL,POW.Pz.BetaH,POW.Pz.Gamma,POW.Oz.Theta,POW.Oz.Alpha,POW.Oz.BetaL,POW.Oz.BetaH,POW.Oz.Gamma,POW.O2.Theta,POW.O2.Alpha,POW.O2.BetaL,POW.O2.BetaH,POW.O2.Gamma,POW.PO10.Theta,POW.PO10.Alpha,POW.PO10.BetaL,POW.PO10.BetaH,POW.PO10.Gamma,POW.P8.Theta,POW.P8.Alpha,POW.P8.BetaL,POW.P8.BetaH,POW.P8.Gamma,POW.P4.Theta,POW.P4.Alpha,POW.P4.BetaL,POW.P4.BetaH,POW.P4.Gamma,POW.CP2.Theta,POW.CP2.Alpha,POW.CP2.BetaL,POW.CP2.BetaH,POW.CP2.Gamma,POW.CP6.Theta,POW.CP6.Alpha,POW.CP6.BetaL,POW.CP6.BetaH,POW.CP6.Gamma,POW.T8.Theta,POW.T8.Alpha,POW.T8.BetaL,POW.T8.BetaH,POW.T8.Gamma,POW.FT10.Theta,POW.FT10.Alpha,POW.FT10.BetaL,POW.FT10.BetaH,POW.FT10.Gamma,POW.FC6.Theta,POW.FC6.Alpha,POW.FC6.BetaL,POW.FC6.BetaH,POW.FC6.Gamma,POW.C4.Theta,POW.C4.Alpha,POW.C4.BetaL,POW.C4.BetaH,POW.C4.Gamma,POW.FC2.Theta,POW.FC2.Alpha,POW.FC2.BetaL,POW.FC2.BetaH,POW.FC2.Gamma,POW.F4.Theta,POW.F4.Alpha,POW.F4.BetaL,POW.F4.BetaH,POW.F4.Gamma,POW.F8.Theta,POW.F8.Alpha,POW.F8.BetaL,POW.F8.BetaH,POW.F8.Gamma,POW.Fp2.Theta,POW.Fp2.Alpha,POW.Fp2.BetaL,POW.Fp2.BetaH,POW.Fp2.Gamma
1763975387.650748,58911.0,0.0,4351.153809,4346.025879,4453.077148,4493.974121,4363.589844,4486.538574,4514.871582,4370.769043,4540.256348,4323.589844,4466.538574,4480.384766,4555.384766,4391.922852,4375.897461,4525.512695,4528.205078,4537.307617,4512.05127,4352.94873,4387.307617,4541.025879,4499.230957,4473.846191,4353.846191,4526.025879,4335.0,4513.461426,4464.102539,4337.94873,4464.615234,4439.358887,2966.0,0.0,14.0,2560.0,59450.0,1.0,1.0,5.0,0.0,4.0,4.0,4.0,4.0,4.0,4.0,4.0,4.0,4.0,4.0,4.0,4.0,4.0,4.0,4.0,4.0,4.0,4.0,4.0,4.0,4.0,4.0,4.0,4.0,4.0,4.0,4.0,4.0,4.0,4.0,4.0,4.0,100.0,,,,,,,,,,,,,,,,,,,,,,,,,,,,,,,,,,,,,,,,,,,,,,,,,,,,,,,,,,,,,,,,,,,,,,,,,,,,,,,,,,,,,,,,,,,,,,,,,,,,,,,,,,,,,,,,,,,,,,,,,,,,,,,,,,,,,,,,,,,,,,,,,,,,,,,,,,,,,,,,,,,,,,,,,,,,,,,,,,,,,,,,,,,,,,,,,,,,,,,,,,,,,,
1763975387.654654,58912.0,0.0,4361.794922,4360.897461,4466.538574,4502.94873,4373.846191,4495.256348,4519.871582,4379.358887,4545.128418,4306.666504,4467.820313,4485.384766,4555.256348,4385.897461,4362.05127,4527.307617,4528.333496,4532.94873,4497.05127,4361.153809,4397.436035,4541.922852,4505.897461,4483.461426,4377.436035,4544.230957,4348.974121,4523.974121,4477.307617,4353.333496,4483.717773,4457.94873,2878.0,0.0,14.0,2560.0,59458.0,,,,0.0,4.0,4.0,4.0,4.0,4.0,4.0,4.0,4.0,4.0,4.0,4.0,4.0,4.0,4.0,4.0,4.0,4.0,4.0,4.0,4.0,4.0,4.0,4.0,4.0,4.0,4.0,4.0,4.0,4.0,4.0,4.0,4.0,100.0,,,,,,,,,,,,,,,,,,,,,,,,,,,,,,,,,,,,,,,,,,,,,,,,,,,,,,,,,,,,,,,,,,,,,,,,,,,,,,,,,,,,,,,,,,,,,,,,,,,,,,,,,,,,,,,,,,,,,,,,,,,,,,,,,,,,,,,,,,,,,,,,,,,,,,,,,,,,,,,,,,,,,,,,,,,,,,,,,,,,,,,,,,,,,,,,,,,,,,,,,,,,,,
1763975387.65856,58913.0,0.0,4388.205078,4395.769043,4500.641113,4530.0,4399.102539,4515.384766,4541.025879,4405.769043,4568.974121,4343.461426,4487.692383,4506.410156,4572.307617,4395.256348,4374.230957,4530.769043,4545.0,4544.230957,4512.05127,4388.846191,4423.846191,4562.179688,4532.307617,4511.794922,4413.846191,4582.436035,4384.743652,4553.974121,4507.94873,4391.282227,4525.512695,4500.897461,2905.0,0.0,14.0,2560.0,59458.0,,,,0.0,4.0,4.0,4.0,4.0,4.0,4.0,4.0,4.0,4.0,4.0,4.0,4.0,4.0,4.0,4.0,4.0,4.0,4.0,4.0,4.0,4.0,4.0,4.0,4.0,4.0,4.0,4.0,4.0,4.0,4.0,4.0,4.0,100.0,,,,,,,,,,,,,,,,,,,,,,,,,,,,,,,,,,,31112.0,0.0,0.482993,0.297485,0.211121,0.796021,0.898059,-0.457575,0.050787,35.333332,-20.5,-27.166666,,,,,,,,,,,,,,,,,,,,,,,,,,,,,,,,,,,,,,,,,,,,,,,,,,,,,,,,,,,,,,,,,,,,,,,,,,,,,,,,,,,,,,,,,,,,,,,,,,,,,,,,,,,,,,,,,,,,,,,,,,,,,,,,,,,,,,,,,,,,,,,,,,,,,,,,,,,,,,,,
1763975387.662466,58914.0,0.0,4418.333496,4434.102539,4539.871582,4563.717773,4427.820313,4538.205078,4568.333496,4438.461426,4601.922852,4415.256348,4516.794922,4533.333496,4597.179688,4415.384766,4406.922852,4532.563965,4568.846191,4565.769043,4548.205078,4425.128418,4451.538574,4589.615234,4564.871582,4544.102539,4447.820313,4622.820313,4424.871582,4589.230957,4542.179688,4434.487305,4569.358887,4546.666504,2315.0,0.0,14.0,2048.0,59466.0,,,,0.0,4.0,4.0,4.0,4.0,4.0,4.0,4.0,4.0,4.0,4.0,4.0,4.0,4.0,4.0,4.0,4.0,4.0,4.0,4.0,4.0,4.0,4.0,4.0,4.0,4.0,4.0,4.0,4.0,4.0,4.0,4.0,4.0,100.0,,,,,,,,,,,,,,,,,,,,,,,,,,,,,,,,,,,,,,,,,,,,,,,,,,,,,,,,,,,,,,,,,,,,,,,,,,,,,,,,,,,,,,,,,,,,,,,,,,,,,,,,,,,,,,,,,,,,,,,,,,,,,,,,,,,,,,,,,,,,,,,,,,,,,,,,,,,,,,,,,,,,,,,,,,,,,,,,,,,,,,,,,,,,,,,,,,,,,,,,,,,,,,
1763975387.666372,58915.0,0.0,4434.743652,4454.358887,4563.333496,4585.897461,4443.846191,4549.487305,4585.256348,4459.230957,4625.769043,4476.666504,4536.922852,4549.871582,4613.333496,4432.692383,4438.846191,4530.0,4583.461426,4583.205078,4577.179688,4450.384766,4461.538574,4603.974121,4582.94873,4559.871582,4461.410156,4642.436035,4446.025879,4608.461426,4560.512695,4458.974121,4590.0,4568.589844,3002.0,0.0,14.0,2048.0,59466.0,,,,0.0,4.0,4.0,4.0,4.0,4.0,4.0,4.0,4.0,4.0,4.0,4.0,4.0,4.0,4.0,4.0,4.0,4.0,4.0,4.0,4.0,4.0,4.0,4.0,4.0,4.0,4.0,4.0,4.0,4.0,4.0,4.0,4.0,100.0,,,,,,,,,,,,,,,,,,,,,,,,,,,,,,,,,,,,,,,,,,,,,,,,,,,,,,,,,,,,,,,,,,,,,,,,,,,,,,,,,,,,,,,,,,,,,,,,,,,,,,,,,,,,,,,,,,,,,,,,,,,,,,,,,,,,,,,,,,,,,,,,,,,,,,,,,,,,,,,,,,,,,,,,,,,,,,,,,,,,,,,,,,,,,,,,,,,,,,,,,,,,,,
1763975387.670278,58916.0,0.0,4427.94873,4445.769043,4558.974121,4584.615234,4438.974121,4541.025879,4581.538574,4456.153809,4627.307617,4491.025879,4536.025879,4546.025879,4609.871582,4436.025879,4448.974121,4524.102539,4578.077148,4583.205078,4573.974121,4451.025879,4444.615234,4592.179688,4574.230957,4547.820313,4446.666504,4629.487305,4435.512695,4599.487305,4552.436035,4451.794922,4576.282227,4555.256348,2910.0,0.0,14.0,1024.0,59474.0,,,,0.0,4.0,4.0,4.0,4.0,4.0,4.0,4.0,4.0,4.0,4.0,4.0,4.0,4.0,4.0,4.0,4.0,4.0,4.0,4.0,4.0,4.0,4.0,4.0,4.0,4.0,4.0,4.0,4.0,4.0,4.0,4.0,4.0,100.0,,,,,,,,,,,,,,,,,,,,,,,,,,,,,,,,,,,,,,,,,,,,,,,,,,,,,,,,,,,,,,,,,,,,,,,,,,,,,,,,,,,,,,,,,,,,,,,,,,,,,,,,,,,,,,,,,,,,,,,,,,,,,,,,,,,,,,,,,,,,,,,,,,,,,,,,,,,,,,,,,,,,,,,,,,,,,,,,,,,,,,,,,,,,,,,,,,,,,,,,,,,,,,
1763975387.674184,58917.0,0.0,4405.384766,4417.94873,4534.743652,4565.0,4419.871582,4518.717773,4562.179688,4435.0,4610.128418,4460.641113,4518.333496,4527.05127,4592.179688,4426.282227,4433.333496,4519.230957,4556.922852,4565.512695,4538.077148,4430.769043,4410.897461,4560.641113,4546.025879,4516.153809,4413.974121,4594.102539,4403.077148,4570.128418,4526.666504,4422.436035,4540.641113,4520.0,2458.0,0.0,14.0,1024.0,59474.0,,,,0.0,4.0,4.0,4.0,4.0,4.0,4.0,4.0,4.0,4.0,4.0,4.0,4.0,4.0,4.0,4.0,4.0,4.0,4.0,4.0,4.0,4.0,4.0,4.0,4.0,4.0,4.0,4.0,4.0,4.0,4.0,4.0,4.0,100.0,,,,,,,,,,,,,,,,,,,,,,,,,,,,,,,,,,,31113.0,0.0,0.482784,0.297607,0.211426,0.796021,0.889269,-0.440972,0.067879,37.333332,-20.833334,-25.166666,,,,,,,,,,,,,,,,,,,,,,,,,,,,,,,,,,,,,,,,,,,,,,,,,,,,,,,,,,,,,,,,,,,,,,,,,,,,,,,,,,,,,,,,,,,,,,,,,,,,,,,,,,,,,,,,,,,,,,,,,,,,,,,,,,,,,,,,,,,,,,,,,,,,,,,,,,,,,,,,
1763975387.67809,58918.0,0.0,4386.538574,4394.871582,4512.820313,4546.025879,4404.230957,4499.358887,4545.384766,4415.641113,4592.179688,4420.512695,4502.179688,4510.897461,4577.05127,4415.0,4407.94873,4519.102539,4536.410156,4542.05127,4493.717773,4409.358887,4383.846191,4531.666504,4521.025879,4488.077148,4386.922852,4562.692383,4374.615234,4543.846191,4505.897461,4396.538574,4511.922852,4492.179688,3019.0,0.0,14.0,256.0,59481.0,,,,0.0,4.0,4.0,4.0,4.0,4.0,4.0,4.0,4.0,4.0,4.0,4.0,4.0,4.0,4.0,4.0,4.0,4.0,4.0,4.0,4.0,4.0,4.0,4.0,4.0,4.0,4.0,4.0,4.0,4.0,4.0,4.0,4.0,100.0,,,,,,,,,,,,,,,,,,,,,,,,,,,,,,,,,,,,,,,,,,,,,,,,,,,,,,,,,,,,,,,,,,,,,,,,,,,,,,,,,,,,,,,,,,,,,,,,,,,,,,,,,,,,,,,,,,,,,,,,,,,,,,,,,,,,,,,,,,,,,,,,,,,,,,,,,,,,,,,,,,,,,,,,,,,,,,,,,,,,,,,,,,,,,,,,,,,,,,,,,,,,,,
1763975387.681996,58919.0,0.0,4387.05127,4395.128418,4511.282227,4543.974121,4406.025879,4497.307617,4546.538574,4415.512695,4590.0,4404.615234,4502.436035,4511.794922,4577.820313,4412.563965,4393.717773,4521.153809,4531.794922,4526.153809,4469.102539,4404.615234,4380.512695,4524.102539,4518.205078,4482.563965,4384.102539,4556.922852,4371.538574,4541.025879,4507.436035,4394.871582,4511.538574,4493.974121,3004.0,0.0,14.0,256.0,59481.0,,,,0.0,4.0,4.0,4.0,4.0,4.0,4.0,4.0,4.0,4.0,4.0,4.0,4.0,4.0,4.0,4.0,4.0,4.0,4.0,4.0,4.0,4.0,4.0,4.0,4.0,4.0,4.0,4.0,4.0,4.0,4.0,4.0,4.0,100.0,,,,,,,,,,,,,,,,,,,,,,,,,,,,,,,,,,,,,,,,,,,,,,,,,,,,,,,,,,,,,,,,,,,,,,,,,,,,,,,,,,,,,,,,,,,,,,,,,,,,,,,,,,,,,,,,,,,,,,,,,,,,,,,,,,,,,,,,,,,,,,,,,,,,,,,,,,,,,,,,,,,,,,,,,,,,,,,,,,,,,,,,,,,,,,,,,,,,,,,,,,,,,,
1763975387.685902,58920.0,0.0,4404.487305,4416.025879,4528.461426,4557.820313,4422.94873,4511.153809,4564.487305,4433.717773,4602.563965,4416.666504,4517.94873,4527.563965,4591.666504,4417.94873,4397.563965,4517.179688,4543.974121,4521.153809,4473.077148,4415.769043,4397.436035,4538.589844,4536.410156,4498.974121,4403.846191,4576.153809,4392.820313,4561.153809,4528.205078,4415.641113,4536.666504,4521.538574,2696.0,0.0,14.0,512.0,59489.0,,,,0.0,4.0,4.0,4.0,4.0,4.0,4.0,4.0,4.0,4.0,4.0,4.0,4.0,4.0,4.0,4.0,4.0,4.0,4.0,4.0,4.0,4.0,4.0,4.0,4.0,4.0,4.0,4.0,4.0,4.0,4.0,4.0,4.0,100.0,,,,,,,,,,,,,,,,,,,,,,,,,,,,,,,,,,,,,,,,,,,,,,,3.057774,16.703117,16.143234,12.257529,6.822556,3.580293,7.191906,15.453937,12.021864,6.596888,3.911187,5.392938,18.648605,14.961136,7.947917,2.625445,4.582634,16.301889,13.93292,7.50842,1.638671,3.938236,10.700905,8.902744,4.922534,1.948172,7.314572,8.818885,7.707692,4.183667,3.166463,10.966537,13.686416,12.125829,6.269928,1.861891,6.0246,14.312107,12.924555,7.436453,2.159976,4.367541,11.533395,12.952823,6.970249,1.829506,4.20551,16.972448,27.583654,8.729547,1.957799,9.050016,13.176208,10.633493,6.434896,2.671848,22.791807,14.514063,11.606229,6.622716,2.521753,24.693563,17.112284,12.735619,7.816093,0.895258,5.014977,8.291686,8.125237,5.723027,1.62332,3.956694,8.707899,10.98285,7.192117,1.518574,19.894094,19.226667,11.44809,12.098569,2.752369,43.832439,14.692227,12.564584,6.763697,1.89046,17.718323,20.132236,16.262024,10.010353,1.622679,18.876495,19.060453,16.453728,10.446158,2.567338,12.095737,17.769382,15.106711,8.539834,2.689345,15.831671,25.389795,18.457253,7.979205,2.055955,42.766827,20.09589,16.641874,8.340192,2.952939,35.656799,19.694323,15.231706,7.955615,2.160297,24.482714,21.560307,16.961697,7.54285,2.236476,17.237726,23.182499,23.423203,9.228175,2.747682,11.04865,21.297129,18.18222,8.02494,3.188181,13.22248,20.297434,15.694583,7.783528,2.638545,21.132164,20.384396,15.20458,7.613219,3.180772,13.184464,17.115829,12.840194,6.655854,3.417997,9.143923,18.795879,14.532983,7.411407,3.819247,10.228721,20.713753,16.871672,8.094523,3.309198,6.621163,18.152428,15.008791,7.362966
1763975387.689808,58921.0,0.0,4421.025879,4436.282227,4545.256348,4570.0,4438.333496,4525.897461,4581.410156,4451.282227,4613.205078,4432.307617,4532.179688,4541.410156,4601.794922,4420.897461,4408.717773,4500.512695,4558.717773,4518.589844,4489.615234,4425.641113,4413.461426,4557.179688,4556.153809,4518.205078,4424.871582,4598.974121,4416.666504,4584.102539,4547.692383,4437.563965,4562.563965,4548.717773,2877.0,0.0,14.0,512.0,59489.0,,,,0.0,4.0,4.0,4.0,4.0,4.0,4.0,4.0,4.0,4.0,4.0,4.0,4.0,4.0,4.0,4.0,4.0,4.0,4.0,4.0,4.0,4.0,4.0,4.0,4.0,4.0,4.0,4.0,4.0,4.0,4.0,4.0,4.0,100.0,,,,,,,,,,,,,,,,,,,,,,,,,,,,,,,,,,,31114.0,0.0,0.482759,0.297485,0.211426,0.796082,0.89464,-0.456599,0.062996,36.166668,-21.666666,-25.5,,,,,,,,,,,,,,,,,,,,,,,,,,,,,,,,,,,,,,,,,,,,,,,,,,,,,,,,,,,,,,,,,,,,,,,,,,,,,,,,,,,,,,,,,,,,,,,,,,,,,,,,,,,,,,,,,,,,,,,,,,,,,,,,,,,,,,,,,,,,,,,,,,,,,,,,,,,,,,,,
1763975387.693714,58922.0,0.0,4418.974121,4434.615234,4542.179688,4563.205078,4435.897461,4525.0,4578.846191,4448.846191,4606.153809,4426.025879,4528.717773,4536.922852,4593.333496,4411.538574,4410.384766,4472.436035,4559.487305,4507.94873,4494.230957,4416.410156,4408.717773,4560.384766,4557.179688,4519.871582,4424.358887,4601.538574,4420.384766,4587.94873,4546.538574,4438.461426,4564.743652,4550.128418,2721.0,0.0,14.0,768.0,59497.0,,,,0.0,4.0,4.0,4.0,4.0,4.0,4.0,4.0,4.0,4.0,4.0,4.0,4.0,4.0,4.0,4.0,4.0,4.0,4.0,4.0,4.0,4.0,4.0,4.0,4.0,4.0,4.0,4.0,4.0,4.0,4.0,4.0,4.0,100.0,,,,,,,,,,,,,,,,,,,,,,,,,,,,,,,,,,,,,,,,,,,,,,,,,,,,,,,,,,,,,,,,,,,,,,,,,,,,,,,,,,,,,,,,,,,,,,,,,,,,,,,,,,,,,,,,,,,,,,,,,,,,,,,,,,,,,,,,,,,,,,,,,,,,,,,,,,,,,,,,,,,,,,,,,,,,,,,,,,,,,,,,,,,,,,,,,,,,,,,,,,,,,,
1763975387.69762,58923.0,0.0,4396.025879,4407.436035,4515.897461,4535.769043,4413.589844,4504.358887,4553.333496,4422.179688,4580.641113,4394.358887,4505.641113,4512.436035,4566.922852,4390.641113,4395.641113,4443.461426,4542.179688,4487.179688,4476.794922,4386.282227,4380.769043,4543.333496,4535.641113,4499.230957,4396.666504,4578.077148,4398.461426,4566.666504,4521.666504,4413.974121,4538.461426,4521.282227,3017.0,0.0,14.0,768.0,59497.0,,,,0.0,4.0,4.0,4.0,4.0,4.0,4.0,4.0,4.0,4.0,4.0,4.0,4.0,4.0,4.0,4.0,4.0,4.0,4.0,4.0,4.0,4.0,4.0,4.0,4.0,4.0,4.0,4.0,4.0,4.0,4.0,4.0,4.0,100.0,,,,,,,,,,,,,,,,,,,,,,,,,,,,,,,,,,,,,,,,,,,,,,,,,,,,,,,,,,,,,,,,,,,,,,,,,,,,,,,,,,,,,,,,,,,,,,,,,,,,,,,,,,,,,,,,,,,,,,,,,,,,,,,,,,,,,,,,,,,,,,,,,,,,,,,,,,,,,,,,,,,,,,,,,,,,,,,,,,,,,,,,,,,,,,,,,,,,,,,,,,,,,,
1763975387.701526,58924.0,0.0,4365.897461,4370.128418,4481.025879,4501.666504,4383.589844,4474.871582,4518.589844,4385.512695,4550.641113,4356.922852,4476.025879,4481.794922,4537.436035,4368.846191,4370.769043,4425.0,4517.179688,4465.0,4448.974121,4349.871582,4345.641113,4518.589844,4504.743652,4469.487305,4357.307617,4542.05127,4364.102539,4533.461426,4487.436035,4378.461426,4500.0,4479.358887,2986.0,0.0,14.0,1024.0,59505.0,,,,0.0,4.0,4.0,4.0,4.0,4.0,4.0,4.0,4.0,4.0,4.0,4.0,4.0,4.0,4.0,4.0,4.0,4.0,4.0,4.0,4.0,4.0,4.0,4.0,4.0,4.0,4.0,4.0,4.0,4.0,4.0,4.0,4.0,100.0,,,,,,,,,,,,,,,,,,,,,,,,,,,,,,,,,,,,,,,,,,,,,,,,,,,,,,,,,,,,,,,,,,,,,,,,,,,,,,,,,,,,,,,,,,,,,,,,,,,,,,,,,,,,,,,,,,,,,,,,,,,,,,,,,,,,,,,,,,,,,,,,,,,,,,,,,,,,,,,,,,,,,,,,,,,,,,,,,,,,,,,,,,,,,,,,,,,,,,,,,,,,,,
1763975387.705432,58925.0,0.0,4345.384766,4342.692383,4455.641113,4478.333496,4361.282227,4452.94873,4493.846191,4357.820313,4532.05127,4338.717773,4456.538574,4461.410156,4521.282227,4356.794922,4348.717773,4422.692383,4500.128418,4452.692383,4431.794922,4325.256348,4322.436035,4503.205078,4482.692383,4448.846191,4330.0,4514.230957,4337.05127,4507.692383,4462.179688,4351.538574,4471.410156,4448.077148,2760.0,0.0,14.0,1024.0,59505.0,,,,0.0,4.0,4.0,4.0,4.0,4.0,4.0,4.0,4.0,4.0,4.0,4.0,4.0,4.0,4.0,4.0,4.0,4.0,4.0,4.0,4.0,4.0,4.0,4.0,4.0,4.0,4.0,4.0,4.0,4.0,4.0,4.0,4.0,100.0,,,,,,,,,,,,,,,,,,,,,,,,,,,,,,,,,,,31115.0,0.0,0.482521,0.297424,0.211365,0.796265,0.89464,-0.456599,0.062996,35.666668,-19.166666,-23.5,,,,,,,,,,,,,,,,,,,,,,,,,,,,,,,,,,,,,,,,,,,,,,,,,,,,,,,,,,,,,,,,,,,,,,,,,,,,,,,,,,,,,,,,,,,,,,,,,,,,,,,,,,,,,,,,,,,,,,,,,,,,,,,,,,,,,,,,,,,,,,,,,,,,,,,,,,,,,,,,
1763975387.709338,58926.0,0.0,4343.205078,4337.179688,4449.871582,4474.487305,4355.0,4450.256348,4490.128418,4350.0,4531.282227,4352.307617,4455.897461,4460.384766,4525.897461,4359.358887,4340.256348,4434.102539,4500.769043,4457.436035,4439.102539,4322.307617,4322.179688,4507.179688,4480.769043,4447.94873,4330.512695,4507.563965,4329.871582,4501.666504,4456.282227,4344.743652,4465.769043,4441.538574,2763.0,0.0,14.0,1280.0,59513.0,,,,0.0,4.0,4.0,4.0,4.0,4.0,4.0,4.0,4.0,4.0,4.0,4.0,4.0,4.0,4.0,4.0,4.0,4.0,4.0,4.0,4.0,4.0,4.0,4.0,4.0,4.0,4.0,4.0,4.0,4.0,4.0,4.0,4.0,100.0,,,,,,,,,,,,,,,,,,,,,,,,,,,,,,,,,,,,,,,,,,,,,,,,,,,,,,,,,,,,,,,,,,,,,,,,,,,,,,,,,,,,,,,,,,,,,,,,,,,,,,,,,,,,,,,,,,,,,,,,,,,,,,,,,,,,,,,,,,,,,,,,,,,,,,,,,,,,,,,,,,,,,,,,,,,,,,,,,,,,,,,,,,,,,,,,,,,,,,,,,,,,,,
1763975387.713244,58927.0,0.0,4358.717773,4354.358887,4464.487305,4489.871582,4365.384766,4468.717773,4507.05127,4363.077148,4547.179688,4389.871582,4474.230957,4478.717773,4549.358887,4375.384766,4350.769043,4455.128418,4520.512695,4481.282227,4472.05127,4341.025879,4345.0,4531.410156,4500.897461,4468.589844,4359.102539,4524.743652,4345.256348,4518.205078,4471.025879,4359.358887,4484.615234,4461.025879,2880.0,0.0,14.0,1280.0,59513.0,,,,0.0,4.0,4.0,4.0,4.0,4.0,4.0,4.0,4.0,4.0,4.0,4.0,4.0,4.0,4.0,4.0,4.0,4.0,4.0,4.0,4.0,4.0,4.0,4.0,4.0,4.0,4.0,4.0,4.0,4.0,4.0,4.0,4.0,100.0,,,,,,,,,,,,,,,,,,,,,,,,,,,,,,,,,,,,,,,,,,,,,,,,,,,,,,,,,,,,,,,,,,,,,,,,,,,,,,,,,,,,,,,,,,,,,,,,,,,,,,,,,,,,,,,,,,,,,,,,,,,,,,,,,,,,,,,,,,,,,,,,,,,,,,,,,,,,,,,,,,,,,,,,,,,,,,,,,,,,,,,,,,,,,,,,,,,,,,,,,,,,,,
1763975387.71715,58928.0,0.0,4387.307617,4388.461426,4495.641113,4520.256348,4388.974121,4502.436035,4538.589844,4392.820313,4575.641113,4432.179688,4506.794922,4512.05127,4585.384766,4402.179688,4380.384766,4485.0,4555.384766,4522.179688,4520.769043,4377.820313,4385.384766,4571.282227,4538.589844,4506.153809,4404.487305,4561.282227,4379.743652,4553.077148,4502.436035,4391.282227,4522.179688,4499.230957,2984.0,0.0,14.0,1536.0,59520.0,,,,0.0,4.0,4.0,4.0,4.0,4.0,4.0,4.0,4.0,4.0,4.0,4.0,4.0,4.0,4.0,4.0,4.0,4.0,4.0,4.0,4.0,4.0,4.0,4.0,4.0,4.0,4.0,4.0,4.0,4.0,4.0,4.0,4.0,100.0,,,,,,,,,,,,,,,,,,,,,,,,,,,,,,,,,,,,,,,,,,,,,,,,,,,,,,,,,,,,,,,,,,,,,,,,,,,,,,,,,,,,,,,,,,,,,,,,,,,,,,,,,,,,,,,,,,,,,,,,,,,,,,,,,,,,,,,,,,,,,,,,,,,,,,,,,,,,,,,,,,,,,,,,,,,,,,,,,,,,,,,,,,,,,,,,,,,,,,,,,,,,,,
1763975387.721056,58929.0,0.0,4421.922852,4429.102539,4535.769043,4558.589844,4419.871582,4540.769043,4575.769043,4432.05127,4611.025879,4460.384766,4545.641113,4551.794922,4625.641113,4434.871582,4422.563965,4522.179688,4596.922852,4571.153809,4567.692383,4425.128418,4433.205078,4617.05127,4583.333496,4550.897461,4450.128418,4607.820313,4423.974121,4596.794922,4542.436035,4431.922852,4567.820313,4544.615234,3073.0,0.0,14.0,1536.0,59520.0,,,,0.0,4.0,4.0,4.0,4.0,4.0,4.0,4.0,4.0,4.0,4.0,4.0,4.0,4.0,4.0,4.0,4.0,4.0,4.0,4.0,4.0,4.0,4.0,4.0,4.0,4.0,4.0,4.0,4.0,4.0,4.0,4.0,4.0,100.0,,,,,,,,,,,,,,,,,,,,,,,,,,,,,,,,,,,31116.0,0.0,0.482523,0.29718,0.211243,0.796387,0.89757,-0.446832,0.046881,35.833332,-20.666666,-25.333334,,,,,,,,,,,,,,,,,,,,,,,,,,,,,,,,,,,,,,,,,,,,,,,,,,,,,,,,,,,,,,,,,,,,,,,,,,,,,,,,,,,,,,,,,,,,,,,,,,,,,,,,,,,,,,,,,,,,,,,,,,,,,,,,,,,,,,,,,,,,,,,,,,,,,,,,,,,,,,,,
1763975387.724962,58930.0,0.0,4450.897461,4461.153809,4571.794922,4592.436035,4446.794922,4570.128418,4606.025879,4467.94873,4642.563965,4465.0,4577.692383,4583.589844,4656.666504,4463.205078,4463.077148,4557.692383,4630.384766,4611.282227,4594.358887,4468.589844,4472.436035,4651.922852,4618.205078,4586.538574,4478.846191,4648.333496,4462.436035,4633.461426,4576.666504,4466.666504,4605.256348,4580.897461,2855.0,0.0,14.0,1792.0,59528.0,,,,0.0,4.0,4.0,4.0,4.0,4.0,4.0,4.0,4.0,4.0,4.0,4.0,4.0,4.0,4.0,4.0,4.0,4.0,4.0,4.0,4.0,4.0,4.0,4.0,4.0,4.0,4.0,4.0,4.0,4.0,4.0,4.0,4.0,100.0,,,,,,,,,,,,,,,,,,,,,,,,,,,,,,,,,,,,,,,,,,,,,,,,,,,,,,,,,,,,,,,,,,,,,,,,,,,,,,,,,,,,,,,,,,,,,,,,,,,,,,,,,,,,,,,,,,,,,,,,,,,,,,,,,,,,,,,,,,,,,,,,,,,,,,,,,,,,,,,,,,,,,,,,,,,,,,,,,,,,,,,,,,,,,,,,,,,,,,,,,,,,,,
1763975387.728868,58931.0,0.0,4459.743652,4468.846191,4586.538574,4605.512695,4456.153809,4578.077148,4615.641113,4483.717773,4655.512695,4446.666504,4588.077148,4591.922852,4663.846191,4473.846191,4483.717773,4577.692383,4640.0,4625.512695,4592.179688,4487.692383,4486.025879,4659.358887,4625.897461,4595.769043,4478.461426,4664.102539,4476.666504,4644.487305,4587.692383,4478.333496,4616.666504,4591.025879,3050.0,0.0,14.0,1792.0,59528.0,,,,0.0,4.0,4.0,4.0,4.0,4.0,4.0,4.0,4.0,4.0,4.0,4.0,4.0,4.0,4.0,4.0,4.0,4.0,4.0,4.0,4.0,4.0,4.0,4.0,4.0,4.0,4.0,4.0,4.0,4.0,4.0,4.0,4.0,100.0,,,,,,,,,,,,,,,,,,,,,,,,,,,,,,,,,,,,,,,,,,,,,,,,,,,,,,,,,,,,,,,,,,,,,,,,,,,,,,,,,,,,,,,,,,,,,,,,,,,,,,,,,,,,,,,,,,,,,,,,,,,,,,,,,,,,,,,,,,,,,,,,,,,,,,,,,,,,,,,,,,,,,,,,,,,,,,,,,,,,,,,,,,,,,,,,,,,,,,,,,,,,,,
1763975387.732774,58932.0,0.0,4440.128418,4445.256348,4569.230957,4587.307617,4440.128418,4560.769043,4596.538574,4467.563965,4639.230957,4413.077148,4568.461426,4569.743652,4640.641113,4458.205078,4473.077148,4572.436035,4619.230957,4609.487305,4570.769043,4466.794922,4467.05127,4634.615234,4599.871582,4572.307617,4448.461426,4643.461426,4456.282227,4620.897461,4566.410156,4456.666504,4592.820313,4566.794922,3029.0,0.0,14.0,2048.0,59536.0,,,,0.0,4.0,4.0,4.0,4.0,4.0,4.0,4.0,4.0,4.0,4.0,4.0,4.0,4.0,4.0,4.0,4.0,4.0,4.0,4.0,4.0,4.0,4.0,4.0,4.0,4.0,4.0,4.0,4.0,4.0,4.0,4.0,4.0,100.0,,,,,,,,,,,,,,,,,,,,,,,,,,,,,,,,,,,,,,,,,,,,,,,,,,,,,,,,,,,,,,,,,,,,,,,,,,,,,,,,,,,,,,,,,,,,,,,,,,,,,,,,,,,,,,,,,,,,,,,,,,,,,,,,,,,,,,,,,,,,,,,,,,,,,,,,,,,,,,,,,,,,,,,,,,,,,,,,,,,,,,,,,,,,,,,,,,,,,,,,,,,,,,
1763975387.73668,58933.0,0.0,4398.205078,4399.615234,4525.0,4542.307617,4403.589844,4527.179688,4554.358887,4422.94873,4596.666504,4375.769043,4525.256348,4525.641113,4595.769043,4421.282227,4434.615234,4545.0,4577.692383,4575.769043,4552.436035,4409.487305,4426.153809,4590.897461,4551.922852,4527.179688,4401.922852,4592.563965,4408.077148,4571.922852,4520.384766,4409.358887,4541.794922,4516.025879,2958.0,0.0,14.0,2048.0,59536.0,,,,0.0,4.0,4.0,4.0,4.0,4.0,4.0,4.0,4.0,4.0,4.0,4.0,4.0,4.0,4.0,4.0,4.0,4.0,4.0,4.0,4.0,4.0,4.0,4.0,4.0,4.0,4.0,4.0,4.0,4.0,4.0,4.0,4.0,100.0,,,,,,,,,,,,,,,,,,,,,,,,,,,,,,,,,,,31117.0,0.0,0.482614,0.297119,0.211121,0.796387,0.902454,-0.441948,0.038579,35.666668,-20.5,-26.0,,,,,,,,,,,,,,,,,,,,,,,,,,,,,,,,,,,,,,,,,,,,,,,,,,,,,,,,,,,,,,,,,,,,,,,,,,,,,,,,,,,,,,,,,,,,,,,,,,,,,,,,,,,,,,,,,,,,,,,,,,,,,,,,,,,,,,,,,,,,,,,,,,,,,,,,,,,,,,,,
1763975387.740586,58934.0,0.0,4354.230957,4354.743652,4474.743652,4491.282227,4364.358887,4495.641113,4508.846191,4371.025879,4546.922852,4347.179688,4478.974121,4481.153809,4550.384766,4380.641113,4387.307617,4510.384766,4536.794922,4545.769043,4553.974121,4342.94873,4386.922852,4552.692383,4506.410156,4484.487305,4360.384766,4535.769043,4355.641113,4522.563965,4472.94873,4360.0,4488.846191,4463.077148,3030.0,0.0,14.0,2304.0,59544.0,,,,0.0,4.0,4.0,4.0,4.0,4.0,4.0,4.0,4.0,4.0,4.0,4.0,4.0,4.0,4.0,4.0,4.0,4.0,4.0,4.0,4.0,4.0,4.0,4.0,4.0,4.0,4.0,4.0,4.0,4.0,4.0,4.0,4.0,100.0,,,,,,,,,,,,,,,,,,,,,,,,,,,,,,,,,,,,,,,,,,,,,,,,,,,,,,,,,,,,,,,,,,,,,,,,,,,,,,,,,,,,,,,,,,,,,,,,,,,,,,,,,,,,,,,,,,,,,,,,,,,,,,,,,,,,,,,,,,,,,,,,,,,,,,,,,,,,,,,,,,,,,,,,,,,,,,,,,,,,,,,,,,,,,,,,,,,,,,,,,,,,,,
1763975387.744492,58935.0,0.0,4331.666504,4334.487305,4444.871582,4461.025879,4343.717773,4483.205078,4482.94873,4339.102539,4515.769043,4338.974121,4453.205078,4458.974121,4527.05127,4358.205078,4355.769043,4487.563965,4517.05127,4535.897461,4571.922852,4306.282227,4372.692383,4540.256348,4486.666504,4467.436035,4344.102539,4504.487305,4328.077148,4500.128418,4449.871582,4335.897461,4462.436035,4436.282227,2961.0,0.0,14.0,2304.0,59544.0,,,,0.0,4.0,4.0,4.0,4.0,4.0,4.0,4.0,4.0,4.0,4.0,4.0,4.0,4.0,4.0,4.0,4.0,4.0,4.0,4.0,4.0,4.0,4.0,4.0,4.0,4.0,4.0,4.0,4.0,4.0,4.0,4.0,4.0,100.0,,,,,,,,,,,,,,,,,,,,,,,,,,,,,,,,,,,,,,,,,,,,,,,,,,,,,,,,,,,,,,,,,,,,,,,,,,,,,,,,,,,,,,,,,,,,,,,,,,,,,,,,,,,,,,,,,,,,,,,,,,,,,,,,,,,,,,,,,,,,,,,,,,,,,,,,,,,,,,,,,,,,,,,,,,,,,,,,,,,,,,,,,,,,,,,,,,,,,,,,,,,,,,
1763975387.748398,58936.0,0.0,4343.461426,4349.871582,4451.922852,4468.717773,4353.077148,4495.641113,4490.641113,4343.974121,4520.384766,4357.820313,4461.153809,4470.0,4536.282227,4366.666504,4356.282227,4490.0,4526.410156,4548.717773,4586.794922,4325.641113,4391.794922,4556.794922,4501.153809,4484.487305,4360.512695,4517.307617,4341.922852,4516.282227,4464.102539,4351.282227,4477.94873,4451.025879,2926.0,0.0,14.0,2560.0,59552.0,,,,0.0,4.0,4.0,4.0,4.0,4.0,4.0,4.0,4.0,4.0,4.0,4.0,4.0,4.0,4.0,4.0,4.0,4.0,4.0,4.0,4.0,4.0,4.0,4.0,4.0,4.0,4.0,4.0,4.0,4.0,4.0,4.0,4.0,100.0,,,,,,,,,,,,,,,,,,,,,,,,,,,,,,,,,,,,,,,,,,,,,,,,,,,,,,,,,,,,,,,,,,,,,,,,,,,,,,,,,,,,,,,,,,,,,,,,,,,,,,,,,,,,,,,,,,,,,,,,,,,,,,,,,,,,,,,,,,,,,,,,,,,,,,,,,,,,,,,,,,,,,,,,,,,,,,,,,,,,,,,,,,,,,,,,,,,,,,,,,,,,,,
1763975387.752304,58937.0,0.0,4382.820313,4391.666504,4491.538574,4510.0,4386.922852,4524.358887,4526.922852,4381.153809,4558.333496,4400.512695,4497.05127,4506.666504,4571.666504,4401.153809,4387.820313,4518.589844,4556.282227,4573.589844,4580.897461,4394.358887,4432.05127,4587.692383,4539.358887,4523.974121,4400.897461,4567.94873,4389.615234,4560.128418,4506.666504,4397.307617,4526.666504,4499.230957,2883.0,0.0,14.0,2560.0,59552.0,,,,0.0,4.0,4.0,4.0,4.0,4.0,4.0,4.0,4.0,4.0,4.0,4.0,4.0,4.0,4.0,4.0,4.0,4.0,4.0,4.0,4.0,4.0,4.0,4.0,4.0,4.0,4.0,4.0,4.0,4.0,4.0,4.0,4.0,100.0,,,,,,,,,,,,,,,,,,,,,,,,,,,,,,,,,,,31118.0,0.0,0.482494,0.297424,0.211426,0.796265,0.896105,-0.44146,0.058113,37.0,-21.666666,-24.333334,,,,,,,,,,,,,,,,,,,,,,,,,,,,,,,,,,,,,,,,,,,,,,,,,,,,,,,,,,,,,,,,,,,,,,,,,,,,,,,,,,,,,,,,,,,,,,,,,,,,,,,,,,,,,,,,,,,,,,,,,,,,,,,,,,,,,,,,,,,,,,,,,,,,,,,,,,,,,,,,
1763975387.75621,58938.0,0.0,4427.563965,4436.153809,4540.641113,4561.025879,4425.641113,4551.538574,4571.153809,4427.563965,4608.205078,4450.128418,4539.358887,4548.077148,4613.205078,4442.436035,4432.436035,4560.512695,4587.436035,4595.769043,4554.743652,4474.358887,4469.102539,4611.538574,4578.461426,4561.666504,4444.358887,4627.563965,4444.102539,4605.128418,4552.563965,4447.563965,4580.897461,4553.717773,2838.0,0.0,14.0,2560.0,59559.0,,,,0.0,4.0,4.0,4.0,4.0,4.0,4.0,4.0,4.0,4.0,4.0,4.0,4.0,4.0,4.0,4.0,4.0,4.0,4.0,4.0,4.0,4.0,4.0,4.0,4.0,4.0,4.0,4.0,4.0,4.0,4.0,4.0,4.0,100.0,,,,,,,,,,,,,,,,,,,,,,,,,,,,,,,,,,,,,,,,,,,,,,,,,,,,,,,,,,,,,,,,,,,,,,,,,,,,,,,,,,,,,,,,,,,,,,,,,,,,,,,,,,,,,,,,,,,,,,,,,,,,,,,,,,,,,,,,,,,,,,,,,,,,,,,,,,,,,,,,,,,,,,,,,,,,,,,,,,,,,,,,,,,,,,,,,,,,,,,,,,,,,,
1763975387.760116,58939.0,0.0,4452.94873,4459.230957,4571.666504,4592.820313,4448.077148,4561.794922,4599.487305,4456.282227,4642.05127,4483.077148,4564.871582,4572.692383,4639.487305,4468.205078,4465.897461,4593.974121,4602.436035,4603.717773,4525.256348,4520.256348,4481.153809,4613.205078,4596.794922,4576.153809,4470.128418,4662.820313,4474.358887,4625.641113,4575.897461,4474.358887,4610.897461,4584.743652,3032.0,0.0,14.0,2560.0,59559.0,,,,0.0,4.0,4.0,4.0,4.0,4.0,4.0,4.0,4.0,4.0,4.0,4.0,4.0,4.0,4.0,4.0,4.0,4.0,4.0,4.0,4.0,4.0,4.0,4.0,4.0,4.0,4.0,4.0,4.0,4.0,4.0,4.0,4.0,100.0,,,,,,,,,,,,,,,,,,,,,,,,,,,,,,,,,,,,,,,,,,,,,,,,,,,,,,,,,,,,,,,,,,,,,,,,,,,,,,,,,,,,,,,,,,,,,,,,,,,,,,,,,,,,,,,,,,,,,,,,,,,,,,,,,,,,,,,,,,,,,,,,,,,,,,,,,,,,,,,,,,,,,,,,,,,,,,,,,,,,,,,,,,,,,,,,,,,,,,,,,,,,,,
1763975387.764022,58940.0,0.0,4447.307617,4450.769043,4569.871582,4590.256348,4443.717773,4550.512695,4597.94873,4453.205078,4642.307617,4482.05127,4561.282227,4569.615234,4638.205078,4465.512695,4471.538574,4598.589844,4594.487305,4593.205078,4509.102539,4510.0,4462.94873,4592.436035,4586.538574,4561.025879,4468.717773,4657.179688,4465.641113,4612.179688,4566.538574,4465.641113,4603.077148,4578.846191,2986.0,0.0,14.0,2560.0,59567.0,,,,0.0,4.0,4.0,4.0,4.0,4.0,4.0,4.0,4.0,4.0,4.0,4.0,4.0,4.0,4.0,4.0,4.0,4.0,4.0,4.0,4.0,4.0,4.0,4.0,4.0,4.0,4.0,4.0,4.0,4.0,4.0,4.0,4.0,100.0,,,,,,,,,,,,,,,,,,,,,,,,,,,,,,,,,,,,,,,,,,,,,,,,,,,,,,,,,,,,,,,,,,,,,,,,,,,,,,,,,,,,,,,,,,,,,,,,,,,,,,,,,,,,,,,,,,,,,,,,,,,,,,,,,,,,,,,,,,,,,,,,,,,,,,,,,,,,,,,,,,,,,,,,,,,,,,,,,,,,,,,,,,,,,,,,,,,,,,,,,,,,,,
1763975387.767928,58941.0,0.0,4416.666504,4418.589844,4540.897461,4559.615234,4417.94873,4525.0,4570.128418,4423.974121,4612.179688,4447.820313,4533.717773,4543.589844,4611.794922,4436.410156,4448.974121,4566.282227,4569.102539,4566.153809,4507.692383,4456.922852,4425.897461,4560.384766,4555.641113,4526.025879,4444.358887,4619.230957,4426.282227,4575.128418,4533.205078,4430.769043,4566.538574,4544.743652,2856.0,0.0,14.0,2560.0,59567.0,,,,0.0,4.0,4.0,4.0,4.0,4.0,4.0,4.0,4.0,4.0,4.0,4.0,4.0,4.0,4.0,4.0,4.0,4.0,4.0,4.0,4.0,4.0,4.0,4.0,4.0,4.0,4.0,4.0,4.0,4.0,4.0,4.0,4.0,100.0,,,,,,,,,,,,,,,,,,,,,,,,,,,,,,,,,,,31119.0,0.0,0.482494,0.297424,0.211426,0.796265,0.887315,-0.444879,0.060066,36.5,-22.0,-25.5,,,,,,,,,,,,,,,,,,,,,,,,,,,,,,,,,,,,,,,,,,,,,,,,,,,,,,,,,,,,,,,,,,,,,,,,,,,,,,,,,,,,,,,,,,,,,,,,,,,,,,,,,,,,,,,,,,,,,,,,,,,,,,,,,,,,,,,,,,,,,,,,,,,,,,,,,,,,,,,,
1763975387.771834,58942.0,0.0,4379.230957,4381.922852,4504.487305,4521.922852,4386.794922,4498.077148,4532.563965,4387.563965,4571.025879,4397.307617,4497.820313,4509.230957,4573.589844,4395.128418,4412.563965,4508.589844,4539.102539,4529.358887,4506.282227,4396.282227,4388.974121,4530.641113,4520.384766,4488.846191,4410.0,4573.846191,4380.384766,4535.769043,4496.153809,4391.410156,4524.230957,4505.128418,3022.0,0.0,14.0,2560.0,59575.0,,,,0.0,4.0,4.0,4.0,4.0,4.0,4.0,4.0,4.0,4.0,4.0,4.0,4.0,4.0,4.0,4.0,4.0,4.0,4.0,4.0,4.0,4.0,4.0,4.0,4.0,4.0,4.0,4.0,4.0,4.0,4.0,4.0,4.0,100.0,,,,,,,,,,,,,,,,,,,,,,,,,,,,,,,,,,,,,,,,,,,,,,,,,,,,,,,,,,,,,,,,,,,,,,,,,,,,,,,,,,,,,,,,,,,,,,,,,,,,,,,,,,,,,,,,,,,,,,,,,,,,,,,,,,,,,,,,,,,,,,,,,,,,,,,,,,,,,,,,,,,,,,,,,,,,,,,,,,,,,,,,,,,,,,,,,,,,,,,,,,,,,,
1763975387.77574,58943.0,0.0,4352.436035,4357.820313,4480.0,4497.692383,4365.769043,4479.615234,4503.461426,4362.05127,4540.641113,4352.179688,4469.743652,4481.410156,4539.487305,4360.641113,4381.025879,4452.436035,4515.641113,4493.205078,4490.256348,4358.589844,4365.256348,4510.897461,4494.743652,4463.461426,4378.846191,4543.846191,4350.641113,4511.153809,4472.563965,4366.922852,4497.307617,4480.512695,2943.0,0.0,14.0,2560.0,59575.0,,,,0.0,4.0,4.0,4.0,4.0,4.0,4.0,4.0,4.0,4.0,4.0,4.0,4.0,4.0,4.0,4.0,4.0,4.0,4.0,4.0,4.0,4.0,4.0,4.0,4.0,4.0,4.0,4.0,4.0,4.0,4.0,4.0,4.0,100.0,,,,,,,,,,,,,,,,,,,,,,,,,,,,,,,,,,,,,,,,,,,,,,,,,,,,,,,,,,,,,,,,,,,,,,,,,,,,,,,,,,,,,,,,,,,,,,,,,,,,,,,,,,,,,,,,,,,,,,,,,,,,,,,,,,,,,,,,,,,,,,,,,,,,,,,,,,,,,,,,,,,,,,,,,,,,,,,,,,,,,,,,,,,,,,,,,,,,,,,,,,,,,,
1763975387.779646,58944.0,0.0,4343.077148,4351.666504,4474.358887,4492.692383,4360.512695,4471.153809,4491.153809,4353.846191,4531.538574,4326.410156,4456.153809,4467.05127,4519.230957,4345.512695,4366.282227,4422.563965,4503.333496,4467.692383,4458.205078,4351.153809,4356.538574,4501.282227,4482.94873,4453.077148,4358.589844,4536.794922,4345.128418,4505.0,4466.922852,4362.436035,4492.179688,4476.666504,2856.0,0.0,14.0,2561.0,59583.0,,,,0.0,4.0,4.0,4.0,4.0,4.0,4.0,4.0,4.0,4.0,4.0,4.0,4.0,4.0,4.0,4.0,4.0,4.0,4.0,4.0,4.0,4.0,4.0,4.0,4.0,4.0,4.0,4.0,4.0,4.0,4.0,4.0,4.0,100.0,,,,,,,,,,,,,,,,,,,,,,,,,,,,,,,,,,,,,,,,,,,,,,,,,,,,,,,,,,,,,,,,,,,,,,,,,,,,,,,,,,,,,,,,,,,,,,,,,,,,,,,,,,,,,,,,,,,,,,,,,,,,,,,,,,,,,,,,,,,,,,,,,,,,,,,,,,,,,,,,,,,,,,,,,,,,,,,,,,,,,,,,,,,,,,,,,,,,,,,,,,,,,,
1763975387.783552,58945.0,0.0,4345.769043,4356.538574,4480.769043,4498.589844,4365.0,4468.461426,4491.794922,4356.922852,4538.846191,4319.743652,4454.615234,4464.358887,4513.589844,4350.384766,4367.05127,4425.769043,4499.230957,4457.563965,4425.512695,4359.743652,4356.153809,4497.179688,4480.641113,4452.307617,4350.897461,4544.615234,4355.641113,4508.974121,4471.794922,4370.128418,4500.384766,4484.487305,2873.0,0.0,14.0,2561.0,59583.0,,,,0.0,4.0,4.0,4.0,4.0,4.0,4.0,4.0,4.0,4.0,4.0,4.0,4.0,4.0,4.0,4.0,4.0,4.0,4.0,4.0,4.0,4.0,4.0,4.0,4.0,4.0,4.0,4.0,4.0,4.0,4.0,4.0,4.0,100.0,,,,,,,,,,,,,,,,,,,,,,,,,,,,,,,,,,,31120.0,0.0,0.482556,0.297607,0.211487,0.796143,0.889269,-0.442925,0.056648,35.833332,-20.166666,-25.333334,,,,,,,,,,,,,,,,,,,,,,,,,,,,,,,,,,,,,,,,,,,,,,,,,,,,,,,,,,,,,,,,,,,,,,,,,,,,,,,,,,,,,,,,,,,,,,,,,,,,,,,,,,,,,,,,,,,,,,,,,,,,,,,,,,,,,,,,,,,,,,,,,,,,,,,,,,,,,,,,
1763975387.787458,58946.0,0.0,4351.922852,4363.077148,4488.846191,4503.846191,4370.512695,4467.692383,4497.05127,4362.436035,4551.410156,4324.230957,4458.846191,4467.820313,4517.820313,4365.769043,4374.102539,4448.077148,4499.230957,4461.666504,4412.307617,4366.153809,4358.589844,4496.666504,4482.436035,4455.512695,4354.358887,4554.743652,4368.077148,4513.846191,4478.077148,4378.717773,4510.128418,4492.563965,2291.0,0.0,14.0,2562.0,59591.0,,,,0.0,4.0,4.0,4.0,4.0,4.0,4.0,4.0,4.0,4.0,4.0,4.0,4.0,4.0,4.0,4.0,4.0,4.0,4.0,4.0,4.0,4.0,4.0,4.0,4.0,4.0,4.0,4.0,4.0,4.0,4.0,4.0,4.0,100.0,,,,,,,,,,,,,,,,,,,,,,,,,,,,,,,,,,,,,,,,,,,,,,,,,,,,,,,,,,,,,,,,,,,,,,,,,,,,,,,,,,,,,,,,,,,,,,,,,,,,,,,,,,,,,,,,,,,,,,,,,,,,,,,,,,,,,,,,,,,,,,,,,,,,,,,,,,,,,,,,,,,,,,,,,,,,,,,,,,,,,,,,,,,,,,,,,,,,,,,,,,,,,,
1763975387.791364,58947.0,0.0,4359.230957,4369.615234,4495.897461,4506.666504,4375.0,4470.384766,4503.333496,4368.717773,4563.717773,4335.256348,4466.922852,4476.025879,4528.846191,4382.05127,4380.512695,4469.102539,4503.461426,4476.153809,4430.384766,4366.666504,4365.897461,4503.589844,4489.358887,4464.487305,4369.487305,4563.589844,4376.538574,4519.358887,4484.102539,4385.641113,4517.94873,4498.846191,2981.0,0.0,14.0,2562.0,59591.0,,,,0.0,4.0,4.0,4.0,4.0,4.0,4.0,4.0,4.0,4.0,4.0,4.0,4.0,4.0,4.0,4.0,4.0,4.0,4.0,4.0,4.0,4.0,4.0,4.0,4.0,4.0,4.0,4.0,4.0,4.0,4.0,4.0,4.0,100.0,,,,,,,,,,,,,,,,,,,,,,,,,,,,,,,,,,,,,,,,,,,,,,,,,,,,,,,,,,,,,,,,,,,,,,,,,,,,,,,,,,,,,,,,,,,,,,,,,,,,,,,,,,,,,,,,,,,,,,,,,,,,,,,,,,,,,,,,,,,,,,,,,,,,,,,,,,,,,,,,,,,,,,,,,,,,,,,,,,,,,,,,,,,,,,,,,,,,,,,,,,,,,,
1763975387.79527,58948.0,0.0,4371.794922,4381.922852,4507.307617,4515.0,4383.333496,4481.410156,4514.358887,4380.769043,4578.589844,4357.820313,4481.794922,4491.282227,4547.05127,4395.512695,4387.307617,4478.589844,4516.666504,4498.077148,4473.461426,4372.307617,4384.230957,4523.589844,4506.282227,4484.871582,4398.205078,4576.922852,4385.897461,4533.333496,4495.897461,4397.563965,4530.0,4510.384766,2885.0,0.0,14.0,2563.0,59599.0,,,,0.0,4.0,4.0,4.0,4.0,4.0,4.0,4.0,4.0,4.0,4.0,4.0,4.0,4.0,4.0,4.0,4.0,4.0,4.0,4.0,4.0,4.0,4.0,4.0,4.0,4.0,4.0,4.0,4.0,4.0,4.0,4.0,4.0,100.0,,,,,,,,,,,,,,,,,,,,,,,,,,,,,,,,,,,,,,,,,,,,,,,,,,,,,,,,,,,,,,,,,,,,,,,,,,,,,,,,,,,,,,,,,,,,,,,,,,,,,,,,,,,,,,,,,,,,,,,,,,,,,,,,,,,,,,,,,,,,,,,,,,,,,,,,,,,,,,,,,,,,,,,,,,,,,,,,,,,,,,,,,,,,,,,,,,,,,,,,,,,,,,
1763975387.799176,58949.0,0.0,4393.333496,4403.717773,4527.820313,4535.512695,4399.871582,4501.922852,4534.230957,4401.282227,4599.487305,4397.692383,4504.615234,4514.102539,4571.410156,4407.436035,4399.358887,4482.05127,4540.384766,4523.974121,4521.794922,4392.692383,4414.358887,4556.410156,4534.358887,4517.436035,4436.282227,4599.615234,4403.974121,4560.256348,4518.333496,4420.0,4552.05127,4532.692383,2435.0,0.0,14.0,2563.0,59599.0,,,,0.0,4.0,4.0,4.0,4.0,4.0,4.0,4.0,4.0,4.0,4.0,4.0,4.0,4.0,4.0,4.0,4.0,4.0,4.0,4.0,4.0,4.0,4.0,4.0,4.0,4.0,4.0,4.0,4.0,4.0,4.0,4.0,4.0,100.0,,,,,,,,,,,,,,,,,,,,,,,,,,,,,,,,,,,31121.0,0.0,0.48276,0.297363,0.211365,0.796143,0.897082,-0.440483,0.058113,36.666668,-20.666666,-25.333334,,,,,,,,,,,,,,,,,,,,,,,,,,,,,,,,,,,,,,,,,,,,,,,,,,,,,,,,,,,,,,,,,,,,,,,,,,,,,,,,,,,,,,,,,,,,,,,,,,,,,,,,,,,,,,,,,,,,,,,,,,,,,,,,,,,,,,,,,,,,,,,,,,,,,,,,,,,,,,,,
1763975387.803082,58950.0,0.0,4418.333496,4429.358887,4552.563965,4562.692383,4420.641113,4525.0,4558.333496,4424.358887,4621.666504,4447.179688,4528.461426,4538.461426,4594.871582,4417.692383,4415.769043,4488.846191,4568.077148,4547.94873,4554.358887,4421.666504,4445.641113,4591.410156,4564.871582,4551.666504,4469.743652,4625.897461,4429.487305,4592.563965,4545.769043,4447.692383,4579.230957,4560.0,2993.0,0.0,14.0,2564.0,59606.0,,,,0.0,4.0,4.0,4.0,4.0,4.0,4.0,4.0,4.0,4.0,4.0,4.0,4.0,4.0,4.0,4.0,4.0,4.0,4.0,4.0,4.0,4.0,4.0,4.0,4.0,4.0,4.0,4.0,4.0,4.0,4.0,4.0,4.0,100.0,,,,,,,,,,,,,,,,,,,,,,,,,,,,,,,,,,,,,,,,,,,,,,,,,,,,,,,,,,,,,,,,,,,,,,,,,,,,,,,,,,,,,,,,,,,,,,,,,,,,,,,,,,,,,,,,,,,,,,,,,,,,,,,,,,,,,,,,,,,,,,,,,,,,,,,,,,,,,,,,,,,,,,,,,,,,,,,,,,,,,,,,,,,,,,,,,,,,,,,,,,,,,,
1763975387.806988,58951.0,0.0,4435.256348,4446.153809,4568.717773,4581.282227,4435.769043,4539.102539,4575.512695,4437.94873,4633.589844,4482.05127,4541.025879,4553.461426,4606.666504,4422.179688,4427.94873,4500.641113,4587.563965,4561.922852,4561.282227,4440.128418,4462.179688,4613.846191,4584.102539,4571.282227,4481.025879,4641.282227,4450.512695,4614.358887,4564.743652,4466.922852,4598.077148,4577.436035,2978.0,0.0,14.0,2564.0,59606.0,,,,0.0,4.0,4.0,4.0,4.0,4.0,4.0,4.0,4.0,4.0,4.0,4.0,4.0,4.0,4.0,4.0,4.0,4.0,4.0,4.0,4.0,4.0,4.0,4.0,4.0,4.0,4.0,4.0,4.0,4.0,4.0,4.0,4.0,100.0,,,,,,,,,,,,,,,,,,,,,,,,,,,,,,,,,,,,,,,,,,,,,,,,,,,,,,,,,,,,,,,,,,,,,,,,,,,,,,,,,,,,,,,,,,,,,,,,,,,,,,,,,,,,,,,,,,,,,,,,,,,,,,,,,,,,,,,,,,,,,,,,,,,,,,,,,,,,,,,,,,,,,,,,,,,,,,,,,,,,,,,,,,,,,,,,,,,,,,,,,,,,,,
1763975387.810894,58952.0,0.0,4435.0,4445.384766,4566.025879,4580.0,4436.922852,4537.563965,4576.538574,4435.0,4627.563965,4478.974121,4535.0,4552.05127,4601.538574,4417.307617,4426.410156,4509.871582,4590.384766,4560.256348,4546.538574,4435.256348,4455.0,4615.384766,4583.974121,4566.922852,4464.871582,4635.384766,4455.0,4615.0,4565.384766,4466.922852,4597.820313,4574.487305,2656.0,0.0,14.0,2565.0,59614.0,,,,0.0,4.0,4.0,4.0,4.0,4.0,4.0,4.0,4.0,4.0,4.0,4.0,4.0,4.0,4.0,4.0,4.0,4.0,4.0,4.0,4.0,4.0,4.0,4.0,4.0,4.0,4.0,4.0,4.0,4.0,4.0,4.0,4.0,100.0,1.0,8.333333,1.0,1.0,1.0,1.0,1.0,1.0,1.0,1.0,1.0,0.0,1.0,1.0,1.0,1.0,1.0,1.0,1.0,1.0,0.0,1.0,1.0,1.0,1.0,1.0,1.0,1.0,1.0,1.0,1.0,1.0,1.0,1.0,,,,,,,,,,,,,3.685056,17.5546,14.288473,10.803378,7.685202,4.925242,8.4193,12.906044,10.461669,7.493532,5.087082,6.500912,16.132288,12.957216,9.018587,3.083762,5.078669,14.373783,12.268207,8.530499,2.053149,4.604542,9.598256,7.592799,5.628182,1.924872,7.197667,7.582573,6.641965,4.712041,3.48005,10.664579,12.135604,10.39808,7.095709,2.167662,6.357552,12.600458,11.144956,8.503652,2.601674,4.344605,9.924195,11.225017,7.983431,2.155964,4.337602,12.905171,26.475956,9.786545,2.175421,8.180243,11.577433,9.321814,7.293943,3.311633,22.176874,12.954412,10.308178,7.476783,2.849989,22.908072,15.144351,11.57702,8.706973,0.772848,4.432509,7.616464,7.333327,6.341581,1.634906,4.375744,7.814424,10.144877,7.98614,1.549991,19.693235,18.082371,10.819851,11.657838,2.964689,42.795628,13.85768,11.336699,7.530422,1.643096,19.275084,19.468044,14.933794,10.605959,1.388315,21.026451,20.016603,14.645471,11.297791,3.100119,11.048466,16.374781,13.721678,9.04125,2.419911,16.377325,20.103716,15.196775,8.741828,2.169211,43.328747,19.297581,14.440094,9.336233,3.451603,35.703472,17.703548,13.427806,8.9887,2.198629,25.16301,18.499269,14.479399,8.392694,2.663116,17.949112,19.850613,20.734451,10.339321,3.397372,11.325621,18.055984,15.352639,8.984974,4.045269,13.650358,17.777063,13.398319,8.76203,3.012073,21.537378,18.008705,13.170896,8.649507,3.606158,14.02922,15.065652,11.202106,7.495543,4.354297,10.103611,16.121267,12.616477,8.423317,4.702174,10.452879,17.779793,14.546493,9.107596,4.781927,7.899343,15.656739,13.181186,8.433762
1763975387.8148,58953.0,0.0,4420.128418,4429.871582,4547.179688,4561.666504,4425.897461,4524.487305,4562.94873,4420.512695,4608.205078,4439.102539,4515.512695,4537.820313,4585.256348,4406.025879,4411.794922,4510.0,4578.974121,4546.794922,4523.974121,4412.692383,4431.282227,4600.897461,4569.358887,4544.743652,4433.846191,4612.820313,4441.538574,4597.820313,4550.128418,4450.128418,4580.769043,4555.128418,2835.0,0.0,14.0,2565.0,59614.0,,,,0.0,4.0,4.0,4.0,4.0,4.0,4.0,4.0,4.0,4.0,4.0,4.0,4.0,4.0,4.0,4.0,4.0,4.0,4.0,4.0,4.0,4.0,4.0,4.0,4.0,4.0,4.0,4.0,4.0,4.0,4.0,4.0,4.0,100.0,,,,,,,,,,,,,,,,,,,,,,,,,,,,,,,,,,,31122.0,0.0,0.482925,0.297302,0.211304,0.796082,0.897082,-0.440483,0.058113,35.833332,-21.0,-26.666666,,,,,,,,,,,,,,,,,,,,,,,,,,,,,,,,,,,,,,,,,,,,,,,,,,,,,,,,,,,,,,,,,,,,,,,,,,,,,,,,,,,,,,,,,,,,,,,,,,,,,,,,,,,,,,,,,,,,,,,,,,,,,,,,,,,,,,,,,,,,,,,,,,,,,,,,,,,,,,,,
1763975387.818706,58954.0,0.0,4403.589844,4412.563965,4526.538574,4542.307617,4412.820313,4511.666504,4546.922852,4407.820313,4590.769043,4392.307617,4497.94873,4523.205078,4572.563965,4397.563965,4396.922852,4506.794922,4565.897461,4535.384766,4511.282227,4391.794922,4409.102539,4585.256348,4554.871582,4522.563965,4409.871582,4590.384766,4421.282227,4578.205078,4532.179688,4430.256348,4560.641113,4535.0,2663.0,0.0,14.0,2566.0,59622.0,,,,0.0,4.0,4.0,4.0,4.0,4.0,4.0,4.0,4.0,4.0,4.0,4.0,4.0,4.0,4.0,4.0,4.0,4.0,4.0,4.0,4.0,4.0,4.0,4.0,4.0,4.0,4.0,4.0,4.0,4.0,4.0,4.0,4.0,100.0,,,,,,,,,,,,,,,,,,,,,,,,,,,,,,,,,,,,,,,,,,,,,,,,,,,,,,,,,,,,,,,,,,,,,,,,,,,,,,,,,,,,,,,,,,,,,,,,,,,,,,,,,,,,,,,,,,,,,,,,,,,,,,,,,,,,,,,,,,,,,,,,,,,,,,,,,,,,,,,,,,,,,,,,,,,,,,,,,,,,,,,,,,,,,,,,,,,,,,,,,,,,,,
1763975387.822612,58955.0,0.0,4398.461426,4405.769043,4517.94873,4536.153809,4407.563965,4508.461426,4540.897461,4407.05127,4587.307617,4373.333496,4495.897461,4520.128418,4575.128418,4401.282227,4395.897461,4514.102539,4564.615234,4540.641113,4520.128418,4386.538574,4404.358887,4582.563965,4552.307617,4516.794922,4406.025879,4582.436035,4408.461426,4570.897461,4524.230957,4420.384766,4550.897461,4527.94873,2976.0,0.0,14.0,2566.0,59622.0,,,,0.0,4.0,4.0,4.0,4.0,4.0,4.0,4.0,4.0,4.0,4.0,4.0,4.0,4.0,4.0,4.0,4.0,4.0,4.0,4.0,4.0,4.0,4.0,4.0,4.0,4.0,4.0,4.0,4.0,4.0,4.0,4.0,4.0,100.0,,,,,,,,,,,,,,,,,,,,,,,,,,,,,,,,,,,,,,,,,,,,,,,,,,,,,,,,,,,,,,,,,,,,,,,,,,,,,,,,,,,,,,,,,,,,,,,,,,,,,,,,,,,,,,,,,,,,,,,,,,,,,,,,,,,,,,,,,,,,,,,,,,,,,,,,,,,,,,,,,,,,,,,,,,,,,,,,,,,,,,,,,,,,,,,,,,,,,,,,,,,,,,
1763975387.826518,58956.0,0.0,4406.282227,4410.256348,4522.179688,4542.820313,4410.769043,4514.487305,4547.05127,4415.897461,4596.025879,4390.769043,4508.717773,4528.974121,4591.153809,4415.641113,4410.384766,4538.077148,4576.538574,4562.307617,4546.922852,4394.487305,4417.692383,4594.102539,4561.153809,4527.692383,4416.794922,4588.846191,4407.563965,4577.179688,4527.563965,4422.307617,4552.563965,4533.461426,2944.0,0.0,14.0,2567.0,59630.0,,,,0.0,4.0,4.0,4.0,4.0,4.0,4.0,4.0,4.0,4.0,4.0,4.0,4.0,4.0,4.0,4.0,4.0,4.0,4.0,4.0,4.0,4.0,4.0,4.0,4.0,4.0,4.0,4.0,4.0,4.0,4.0,4.0,4.0,100.0,,,,,,,,,,,,,,,,,,,,,,,,,,,,,,,,,,,,,,,,,,,,,,,,,,,,,,,,,,,,,,,,,,,,,,,,,,,,,,,,,,,,,,,,,,,,,,,,,,,,,,,,,,,,,,,,,,,,,,,,,,,,,,,,,,,,,,,,,,,,,,,,,,,,,,,,,,,,,,,,,,,,,,,,,,,,,,,,,,,,,,,,,,,,,,,,,,,,,,,,,,,,,,
1763975387.830424,58957.0,0.0,4415.256348,4415.256348,4526.922852,4548.717773,4413.846191,4519.615234,4554.487305,4421.794922,4602.179688,4417.436035,4521.666504,4538.205078,4604.615234,4427.94873,4426.153809,4563.333496,4589.358887,4581.666504,4571.025879,4401.922852,4434.487305,4606.153809,4567.820313,4539.487305,4424.487305,4595.641113,4411.153809,4584.871582,4532.179688,4425.512695,4554.615234,4539.102539,2717.0,0.0,14.0,2567.0,59630.0,,,,0.0,4.0,4.0,4.0,4.0,4.0,4.0,4.0,4.0,4.0,4.0,4.0,4.0,4.0,4.0,4.0,4.0,4.0,4.0,4.0,4.0,4.0,4.0,4.0,4.0,4.0,4.0,4.0,4.0,4.0,4.0,4.0,4.0,100.0,,,,,,,,,,,,,,,,,,,,,,,,,,,,,,,,,,,31123.0,0.0,0.483202,0.297058,0.211243,0.796021,0.900012,-0.447809,0.039556,37.0,-20.5,-24.666666,,,,,,,,,,,,,,,,,,,,,,,,,,,,,,,,,,,,,,,,,,,,,,,,,,,,,,,,,,,,,,,,,,,,,,,,,,,,,,,,,,,,,,,,,,,,,,,,,,,,,,,,,,,,,,,,,,,,,,,,,,,,,,,,,,,,,,,,,,,,,,,,,,,,,,,,,,,,,,,,
1763975387.83433,58958.0,0.0,4411.025879,4409.615234,4518.589844,4540.0,4407.436035,4513.461426,4550.256348,4413.461426,4592.307617,4416.410156,4517.692383,4533.974121,4598.205078,4424.358887,4425.256348,4563.974121,4586.922852,4576.538574,4569.230957,4398.846191,4437.692383,4601.410156,4559.358887,4535.128418,4415.256348,4588.717773,4407.563965,4580.128418,4526.538574,4418.974121,4546.153809,4532.692383,2722.0,0.0,14.0,2568.0,59638.0,,,,0.0,4.0,4.0,4.0,4.0,4.0,4.0,4.0,4.0,4.0,4.0,4.0,4.0,4.0,4.0,4.0,4.0,4.0,4.0,4.0,4.0,4.0,4.0,4.0,4.0,4.0,4.0,4.0,4.0,4.0,4.0,4.0,4.0,100.0,,,,,,,,,,,,,,,,,,,,,,,,,,,,,,,,,,,,,,,,,,,,,,,,,,,,,,,,,,,,,,,,,,,,,,,,,,,,,,,,,,,,,,,,,,,,,,,,,,,,,,,,,,,,,,,,,,,,,,,,,,,,,,,,,,,,,,,,,,,,,,,,,,,,,,,,,,,,,,,,,,,,,,,,,,,,,,,,,,,,,,,,,,,,,,,,,,,,,,,,,,,,,,
1763975387.838236,58959.0,0.0,4391.153809,4392.692383,4496.282227,4516.794922,4391.153809,4496.282227,4531.410156,4391.922852,4567.563965,4377.820313,4494.743652,4514.358887,4570.384766,4402.692383,4402.563965,4529.102539,4565.128418,4544.102539,4536.666504,4387.563965,4422.820313,4576.538574,4535.897461,4512.307617,4391.794922,4567.94873,4392.692383,4560.897461,4508.846191,4401.410156,4527.307617,4514.615234,2842.0,0.0,14.0,2568.0,59638.0,,,,0.0,4.0,4.0,4.0,4.0,4.0,4.0,4.0,4.0,4.0,4.0,4.0,4.0,4.0,4.0,4.0,4.0,4.0,4.0,4.0,4.0,4.0,4.0,4.0,4.0,4.0,4.0,4.0,4.0,4.0,4.0,4.0,4.0,100.0,,,,,,,,,,,,,,,,,,,,,,,,,,,,,,,,,,,,,,,,,,,,,,,,,,,,,,,,,,,,,,,,,,,,,,,,,,,,,,,,,,,,,,,,,,,,,,,,,,,,,,,,,,,,,,,,,,,,,,,,,,,,,,,,,,,,,,,,,,,,,,,,,,,,,,,,,,,,,,,,,,,,,,,,,,,,,,,,,,,,,,,,,,,,,,,,,,,,,,,,,,,,,,
1763975387.842142,58960.0,0.0,4368.461426,4375.641113,4473.077148,4494.102539,4374.871582,4479.615234,4510.0,4370.512695,4544.615234,4331.538574,4468.461426,4492.307617,4539.487305,4377.179688,4372.563965,4479.743652,4537.820313,4506.794922,4494.615234,4377.94873,4402.179688,4547.179688,4513.077148,4486.538574,4370.641113,4547.692383,4374.871582,4539.615234,4490.0,4384.358887,4510.128418,4497.179688,2938.0,0.0,14.0,2569.0,59645.0,,,,0.0,4.0,4.0,4.0,4.0,4.0,4.0,4.0,4.0,4.0,4.0,4.0,4.0,4.0,4.0,4.0,4.0,4.0,4.0,4.0,4.0,4.0,4.0,4.0,4.0,4.0,4.0,4.0,4.0,4.0,4.0,4.0,4.0,100.0,,,,,,,,,,,,,,,,,,,,,,,,,,,,,,,,,,,,,,,,,,,,,,,,,,,,,,,,,,,,,,,,,,,,,,,,,,,,,,,,,,,,,,,,,,,,,,,,,,,,,,,,,,,,,,,,,,,,,,,,,,,,,,,,,,,,,,,,,,,,,,,,,,,,,,,,,,,,,,,,,,,,,,,,,,,,,,,,,,,,,,,,,,,,,,,,,,,,,,,,,,,,,,
1763975387.846048,58961.0,0.0,4361.153809,4371.666504,4466.410156,4489.487305,4371.153809,4477.436035,4502.692383,4364.358887,4541.410156,4319.871582,4460.128418,4485.769043,4529.871582,4368.205078,4358.461426,4455.897461,4526.410156,4496.025879,4476.282227,4376.922852,4393.846191,4536.666504,4509.487305,4478.333496,4369.102539,4543.974121,4367.820313,4533.589844,4484.615234,4381.282227,4507.692383,4493.205078,3031.0,0.0,14.0,2569.0,59645.0,,,,0.0,4.0,4.0,4.0,4.0,4.0,4.0,4.0,4.0,4.0,4.0,4.0,4.0,4.0,4.0,4.0,4.0,4.0,4.0,4.0,4.0,4.0,4.0,4.0,4.0,4.0,4.0,4.0,4.0,4.0,4.0,4.0,4.0,100.0,,,,,,,,,,,,,,,,,,,,,,,,,,,,,,,,,,,31124.0,0.0,0.483046,0.297302,0.211487,0.795959,0.911732,-0.44732,0.057624,37.0,-20.5,-24.666666,,,,,,,,,,,,,,,,,,,,,,,,,,,,,,,,,,,,,,,,,,,,,,,,,,,,,,,,,,,,,,,,,,,,,,,,,,,,,,,,,,,,,,,,,,,,,,,,,,,,,,,,,,,,,,,,,,,,,,,,,,,,,,,,,,,,,,,,,,,,,,,,,,,,,,,,,,,,,,,,
1763975387.849954,58962.0,0.0,4377.05127,4384.487305,4482.05127,4507.563965,4383.717773,4494.487305,4516.538574,4378.461426,4561.410156,4356.666504,4478.205078,4502.179688,4551.794922,4385.769043,4372.179688,4483.589844,4541.922852,4525.512695,4499.487305,4382.307617,4406.794922,4555.897461,4530.384766,4496.025879,4390.128418,4559.871582,4378.077148,4549.487305,4498.461426,4396.153809,4522.05127,4504.615234,2811.0,0.0,14.0,2568.0,59653.0,,,,0.0,4.0,4.0,4.0,4.0,4.0,4.0,4.0,4.0,4.0,4.0,4.0,4.0,4.0,4.0,4.0,4.0,4.0,4.0,4.0,4.0,4.0,4.0,4.0,4.0,4.0,4.0,4.0,4.0,4.0,4.0,4.0,4.0,100.0,,,,,,,,,,,,,,,,,,,,,,,,,,,,,,,,,,,,,,,,,,,,,,,,,,,,,,,,,,,,,,,,,,,,,,,,,,,,,,,,,,,,,,,,,,,,,,,,,,,,,,,,,,,,,,,,,,,,,,,,,,,,,,,,,,,,,,,,,,,,,,,,,,,,,,,,,,,,,,,,,,,,,,,,,,,,,,,,,,,,,,,,,,,,,,,,,,,,,,,,,,,,,,
1763975387.85386,58963.0,0.0,4406.410156,4405.128418,4509.102539,4536.282227,4403.846191,4521.666504,4542.692383,4402.692383,4590.641113,4415.384766,4510.769043,4531.282227,4591.410156,4420.256348,4404.358887,4549.487305,4575.128418,4576.666504,4550.897461,4387.436035,4432.563965,4593.205078,4562.179688,4528.461426,4420.384766,4583.333496,4399.487305,4577.307617,4522.820313,4419.230957,4542.436035,4521.666504,3009.0,0.0,14.0,2568.0,59653.0,,,,0.0,4.0,4.0,4.0,4.0,4.0,4.0,4.0,4.0,4.0,4.0,4.0,4.0,4.0,4.0,4.0,4.0,4.0,4.0,4.0,4.0,4.0,4.0,4.0,4.0,4.0,4.0,4.0,4.0,4.0,4.0,4.0,4.0,100.0,,,,,,,,,,,,,,,,,,,,,,,,,,,,,,,,,,,,,,,,,,,,,,,,,,,,,,,,,,,,,,,,,,,,,,,,,,,,,,,,,,,,,,,,,,,,,,,,,,,,,,,,,,,,,,,,,,,,,,,,,,,,,,,,,,,,,,,,,,,,,,,,,,,,,,,,,,,,,,,,,,,,,,,,,,,,,,,,,,,,,,,,,,,,,,,,,,,,,,,,,,,,,,
1763975387.857766,58964.0,0.0,4429.230957,4419.615234,4529.358887,4557.05127,4417.307617,4543.461426,4563.205078,4420.897461,4609.743652,4453.589844,4535.384766,4553.589844,4621.794922,4449.230957,4431.153809,4607.692383,4602.94873,4613.205078,4594.358887,4389.230957,4454.102539,4622.94873,4583.077148,4554.358887,4441.666504,4598.846191,4417.692383,4597.820313,4541.538574,4435.384766,4554.615234,4531.922852,2990.0,0.0,14.0,2564.0,59661.0,,,,0.0,4.0,4.0,4.0,4.0,4.0,4.0,4.0,4.0,4.0,4.0,4.0,4.0,4.0,4.0,4.0,4.0,4.0,4.0,4.0,4.0,4.0,4.0,4.0,4.0,4.0,4.0,4.0,4.0,4.0,4.0,4.0,4.0,100.0,,,,,,,,,,,,,,,,,,,,,,,,,,,,,,,,,,,,,,,,,,,,,,,,,,,,,,,,,,,,,,,,,,,,,,,,,,,,,,,,,,,,,,,,,,,,,,,,,,,,,,,,,,,,,,,,,,,,,,,,,,,,,,,,,,,,,,,,,,,,,,,,,,,,,,,,,,,,,,,,,,,,,,,,,,,,,,,,,,,,,,,,,,,,,,,,,,,,,,,,,,,,,,
1763975387.861672,58965.0,0.0,4433.205078,4421.922852,4533.333496,4560.897461,4417.692383,4550.641113,4566.794922,4423.846191,4610.897461,4451.922852,4537.94873,4556.410156,4624.743652,4455.0,4436.025879,4616.922852,4607.436035,4610.641113,4600.0,4392.307617,4459.230957,4625.769043,4580.769043,4559.230957,4445.256348,4601.794922,4422.820313,4599.102539,4545.0,4437.05127,4554.743652,4532.307617,2914.0,0.0,14.0,2564.0,59661.0,,,,0.0,4.0,4.0,4.0,4.0,4.0,4.0,4.0,4.0,4.0,4.0,4.0,4.0,4.0,4.0,4.0,4.0,4.0,4.0,4.0,4.0,4.0,4.0,4.0,4.0,4.0,4.0,4.0,4.0,4.0,4.0,4.0,4.0,100.0,,,,,,,,,,,,,,,,,,,,,,,,,,,,,,,,,,,31125.0,0.0,0.482981,0.297363,0.211548,0.795959,0.891222,-0.448297,0.050299,36.666668,-21.833334,-26.166666,,,,,,,,,,,,,,,,,,,,,,,,,,,,,,,,,,,,,,,,,,,,,,,,,,,,,,,,,,,,,,,,,,,,,,,,,,,,,,,,,,,,,,,,,,,,,,,,,,,,,,,,,,,,,,,,,,,,,,,,,,,,,,,,,,,,,,,,,,,,,,,,,,,,,,,,,,,,,,,,
1763975387.865578,58966.0,0.0,4422.563965,4417.563965,4527.436035,4554.102539,4410.512695,4546.153809,4557.436035,4416.410156,4602.307617,4427.179688,4522.820313,4543.974121,4604.487305,4439.358887,4423.077148,4574.358887,4589.743652,4575.256348,4565.512695,4403.717773,4448.589844,4602.94873,4561.922852,4545.384766,4437.05127,4600.256348,4416.666504,4585.769043,4536.538574,4429.871582,4550.512695,4530.384766,2988.0,0.0,14.0,2565.0,59669.0,,,,0.0,4.0,4.0,4.0,4.0,4.0,4.0,4.0,4.0,4.0,4.0,4.0,4.0,4.0,4.0,4.0,4.0,4.0,4.0,4.0,4.0,4.0,4.0,4.0,4.0,4.0,4.0,4.0,4.0,4.0,4.0,4.0,4.0,100.0,,,,,,,,,,,,,,,,,,,,,,,,,,,,,,,,,,,,,,,,,,,,,,,,,,,,,,,,,,,,,,,,,,,,,,,,,,,,,,,,,,,,,,,,,,,,,,,,,,,,,,,,,,,,,,,,,,,,,,,,,,,,,,,,,,,,,,,,,,,,,,,,,,,,,,,,,,,,,,,,,,,,,,,,,,,,,,,,,,,,,,,,,,,,,,,,,,,,,,,,,,,,,,
1763975387.869484,58967.0,0.0,4410.512695,4414.615234,4523.461426,4547.820313,4405.384766,4538.846191,4547.563965,4408.846191,4596.666504,4409.487305,4506.025879,4529.102539,4580.256348,4418.974121,4409.743652,4515.0,4565.384766,4534.743652,4515.128418,4421.153809,4430.769043,4571.538574,4542.820313,4525.384766,4428.077148,4603.077148,4407.436035,4570.769043,4526.538574,4423.589844,4550.0,4533.077148,2922.0,0.0,14.0,2565.0,59669.0,,,,0.0,4.0,4.0,4.0,4.0,4.0,4.0,4.0,4.0,4.0,4.0,4.0,4.0,4.0,4.0,4.0,4.0,4.0,4.0,4.0,4.0,4.0,4.0,4.0,4.0,4.0,4.0,4.0,4.0,4.0,4.0,4.0,4.0,100.0,,,,,,,,,,,,,,,,,,,,,,,,,,,,,,,,,,,,,,,,,,,,,,,,,,,,,,,,,,,,,,,,,,,,,,,,,,,,,,,,,,,,,,,,,,,,,,,,,,,,,,,,,,,,,,,,,,,,,,,,,,,,,,,,,,,,,,,,,,,,,,,,,,,,,,,,,,,,,,,,,,,,,,,,,,,,,,,,,,,,,,,,,,,,,,,,,,,,,,,,,,,,,,
1763975387.873391,58968.0,0.0,4403.589844,4412.179688,4523.333496,4544.871582,4404.102539,4531.922852,4543.077148,4404.615234,4595.512695,4410.0,4497.94873,4519.743652,4566.538574,4408.077148,4406.666504,4478.717773,4547.563965,4511.410156,4476.922852,4429.487305,4411.282227,4546.794922,4532.307617,4507.307617,4419.358887,4606.025879,4398.589844,4561.153809,4519.487305,4419.615234,4549.871582,4536.153809,2889.0,0.0,14.0,2561.0,59677.0,,,,0.0,4.0,4.0,4.0,4.0,4.0,4.0,4.0,4.0,4.0,4.0,4.0,4.0,4.0,4.0,4.0,4.0,4.0,4.0,4.0,4.0,4.0,4.0,4.0,4.0,4.0,4.0,4.0,4.0,4.0,4.0,4.0,4.0,100.0,,,,,,,,,,,,,,,,,,,,,,,,,,,,,,,,,,,,,,,,,,,,,,,,,,,,,,,,,,,,,,,,,,,,,,,,,,,,,,,,,,,,,,,,,,,,,,,,,,,,,,,,,,,,,,,,,,,,,,,,,,,,,,,,,,,,,,,,,,,,,,,,,,,,,,,,,,,,,,,,,,,,,,,,,,,,,,,,,,,,,,,,,,,,,,,,,,,,,,,,,,,,,,
1763975387.877297,58969.0,0.0,4396.282227,4401.153809,4517.307617,4536.410156,4398.461426,4521.282227,4538.077148,4397.05127,4588.461426,4412.436035,4494.358887,4511.922852,4561.666504,4406.282227,4406.794922,4476.666504,4536.410156,4505.384766,4463.589844,4411.282227,4389.487305,4531.282227,4524.615234,4489.487305,4401.922852,4595.0,4385.384766,4551.410156,4510.0,4409.871582,4537.692383,4526.666504,2839.0,0.0,14.0,2561.0,59677.0,,,,0.0,4.0,4.0,4.0,4.0,4.0,4.0,4.0,4.0,4.0,4.0,4.0,4.0,4.0,4.0,4.0,4.0,4.0,4.0,4.0,4.0,4.0,4.0,4.0,4.0,4.0,4.0,4.0,4.0,4.0,4.0,4.0,4.0,100.0,,,,,,,,,,,,,,,,,,,,,,,,,,,,,,,,,,,31126.0,0.0,0.483008,0.297363,0.211487,0.795959,0.906361,-0.436088,0.053229,35.666668,-22.0,-27.166666,,,,,,,,,,,,,,,,,,,,,,,,,,,,,,,,,,,,,,,,,,,,,,,,,,,,,,,,,,,,,,,,,,,,,,,,,,,,,,,,,,,,,,,,,,,,,,,,,,,,,,,,,,,,,,,,,,,,,,,,,,,,,,,,,,,,,,,,,,,,,,,,,,,,,,,,,,,,,,,,
1763975387.881203,58970.0,0.0,4380.128418,4376.282227,4496.666504,4515.0,4381.666504,4502.94873,4523.589844,4379.487305,4567.05127,4395.897461,4484.487305,4498.077148,4553.974121,4402.692383,4396.153809,4487.94873,4523.846191,4499.615234,4466.922852,4366.794922,4365.384766,4518.461426,4509.230957,4467.94873,4369.615234,4562.436035,4364.358887,4533.205078,4492.307617,4388.205078,4508.205078,4498.974121,2811.0,0.0,14.0,2048.0,59684.0,,,,0.0,4.0,4.0,4.0,4.0,4.0,4.0,4.0,4.0,4.0,4.0,4.0,4.0,4.0,4.0,4.0,4.0,4.0,4.0,4.0,4.0,4.0,4.0,4.0,4.0,4.0,4.0,4.0,4.0,4.0,4.0,4.0,4.0,100.0,,,,,,,,,,,,,,,,,,,,,,,,,,,,,,,,,,,,,,,,,,,,,,,,,,,,,,,,,,,,,,,,,,,,,,,,,,,,,,,,,,,,,,,,,,,,,,,,,,,,,,,,,,,,,,,,,,,,,,,,,,,,,,,,,,,,,,,,,,,,,,,,,,,,,,,,,,,,,,,,,,,,,,,,,,,,,,,,,,,,,,,,,,,,,,,,,,,,,,,,,,,,,,
1763975387.885109,58971.0,0.0,4356.794922,4347.05127,4467.820313,4487.179688,4358.717773,4482.179688,4501.538574,4356.922852,4538.589844,4361.922852,4465.769043,4478.974121,4537.692383,4390.641113,4372.307617,4482.436035,4506.538574,4481.794922,4470.769043,4321.666504,4346.794922,4504.743652,4486.153809,4447.820313,4332.94873,4521.538574,4342.179688,4508.974121,4470.641113,4362.05127,4474.615234,4466.025879,2985.0,0.0,14.0,2048.0,59684.0,,,,0.0,4.0,4.0,4.0,4.0,4.0,4.0,4.0,4.0,4.0,4.0,4.0,4.0,4.0,4.0,4.0,4.0,4.0,4.0,4.0,4.0,4.0,4.0,4.0,4.0,4.0,4.0,4.0,4.0,4.0,4.0,4.0,4.0,100.0,,,,,,,,,,,,,,,,,,,,,,,,,,,,,,,,,,,,,,,,,,,,,,,,,,,,,,,,,,,,,,,,,,,,,,,,,,,,,,,,,,,,,,,,,,,,,,,,,,,,,,,,,,,,,,,,,,,,,,,,,,,,,,,,,,,,,,,,,,,,,,,,,,,,,,,,,,,,,,,,,,,,,,,,,,,,,,,,,,,,,,,,,,,,,,,,,,,,,,,,,,,,,,
1763975387.889015,58972.0,0.0,4339.743652,4333.333496,4450.384766,4472.307617,4345.128418,4472.563965,4486.153809,4345.0,4523.461426,4335.384766,4449.358887,4466.025879,4520.897461,4375.384766,4350.128418,4451.282227,4491.666504,4457.94873,4467.563965,4309.743652,4346.282227,4496.410156,4469.358887,4442.307617,4315.512695,4500.641113,4334.358887,4493.589844,4459.871582,4349.358887,4461.410156,4451.666504,2944.0,0.0,14.0,1792.0,59692.0,,,,0.0,4.0,4.0,4.0,4.0,4.0,4.0,4.0,4.0,4.0,4.0,4.0,4.0,4.0,4.0,4.0,4.0,4.0,4.0,4.0,4.0,4.0,4.0,4.0,4.0,4.0,4.0,4.0,4.0,4.0,4.0,4.0,4.0,100.0,,,,,,,,,,,,,,,,,,,,,,,,,,,,,,,,,,,,,,,,,,,,,,,,,,,,,,,,,,,,,,,,,,,,,,,,,,,,,,,,,,,,,,,,,,,,,,,,,,,,,,,,,,,,,,,,,,,,,,,,,,,,,,,,,,,,,,,,,,,,,,,,,,,,,,,,,,,,,,,,,,,,,,,,,,,,,,,,,,,,,,,,,,,,,,,,,,,,,,,,,,,,,,
1763975387.892921,58973.0,0.0,4343.589844,4348.205078,4461.153809,4485.512695,4353.333496,4484.615234,4491.794922,4356.410156,4536.666504,4339.230957,4449.615234,4471.666504,4517.94873,4369.487305,4348.077148,4414.102539,4490.897461,4448.333496,4464.487305,4345.0,4369.743652,4503.077148,4474.102539,4460.512695,4333.974121,4519.487305,4351.538574,4502.05127,4471.794922,4362.692383,4482.820313,4471.025879,2817.0,0.0,14.0,1792.0,59692.0,,,,0.0,4.0,4.0,4.0,4.0,4.0,4.0,4.0,4.0,4.0,4.0,4.0,4.0,4.0,4.0,4.0,4.0,4.0,4.0,4.0,4.0,4.0,4.0,4.0,4.0,4.0,4.0,4.0,4.0,4.0,4.0,4.0,4.0,100.0,,,,,,,,,,,,,,,,,,,,,,,,,,,,,,,,,,,31127.0,0.0,0.482934,0.297363,0.211426,0.796021,0.870223,-0.434135,0.045416,36.5,-19.666666,-25.5,,,,,,,,,,,,,,,,,,,,,,,,,,,,,,,,,,,,,,,,,,,,,,,,,,,,,,,,,,,,,,,,,,,,,,,,,,,,,,,,,,,,,,,,,,,,,,,,,,,,,,,,,,,,,,,,,,,,,,,,,,,,,,,,,,,,,,,,,,,,,,,,,,,,,,,,,,,,,,,,
1763975387.896827,58974.0,0.0,4369.871582,4386.025879,4498.205078,4522.94873,4381.410156,4514.487305,4519.358887,4388.205078,4573.205078,4370.897461,4470.0,4496.922852,4535.641113,4379.743652,4370.897461,4401.794922,4508.589844,4468.461426,4476.153809,4407.820313,4408.077148,4527.94873,4503.205078,4497.05127,4381.794922,4570.256348,4388.333496,4534.487305,4503.717773,4397.692383,4530.0,4516.153809,3003.0,0.0,14.0,2048.0,59700.0,,,,0.0,4.0,4.0,4.0,4.0,4.0,4.0,4.0,4.0,4.0,4.0,4.0,4.0,4.0,4.0,4.0,4.0,4.0,4.0,4.0,4.0,4.0,4.0,4.0,4.0,4.0,4.0,4.0,4.0,4.0,4.0,4.0,4.0,100.0,,,,,,,,,,,,,,,,,,,,,,,,,,,,,,,,,,,,,,,,,,,,,,,,,,,,,,,,,,,,,,,,,,,,,,,,,,,,,,,,,,,,,,,,,,,,,,,,,,,,,,,,,,,,,,,,,,,,,,,,,,,,,,,,,,,,,,,,,,,,,,,,,,,,,,,,,,,,,,,,,,,,,,,,,,,,,,,,,,,,,,,,,,,,,,,,,,,,,,,,,,,,,,
1763975387.900733,58975.0,0.0,4406.025879,4426.282227,4541.538574,4563.974121,4414.358887,4545.897461,4554.615234,4423.974121,4611.282227,4404.743652,4500.256348,4530.128418,4567.436035,4401.794922,4404.358887,4430.128418,4538.333496,4514.743652,4509.615234,4459.743652,4443.205078,4563.717773,4543.717773,4534.102539,4433.333496,4623.461426,4426.410156,4575.641113,4539.743652,4435.897461,4576.794922,4561.538574,2925.0,0.0,14.0,2048.0,59700.0,,,,0.0,4.0,4.0,4.0,4.0,4.0,4.0,4.0,4.0,4.0,4.0,4.0,4.0,4.0,4.0,4.0,4.0,4.0,4.0,4.0,4.0,4.0,4.0,4.0,4.0,4.0,4.0,4.0,4.0,4.0,4.0,4.0,4.0,100.0,,,,,,,,,,,,,,,,,,,,,,,,,,,,,,,,,,,,,,,,,,,,,,,,,,,,,,,,,,,,,,,,,,,,,,,,,,,,,,,,,,,,,,,,,,,,,,,,,,,,,,,,,,,,,,,,,,,,,,,,,,,,,,,,,,,,,,,,,,,,,,,,,,,,,,,,,,,,,,,,,,,,,,,,,,,,,,,,,,,,,,,,,,,,,,,,,,,,,,,,,,,,,,
1763975387.904639,58976.0,0.0,4434.743652,4449.358887,4568.461426,4587.563965,4435.769043,4562.179688,4580.384766,4447.179688,4631.282227,4417.820313,4525.128418,4556.282227,4599.102539,4424.615234,4428.589844,4487.820313,4567.820313,4566.922852,4556.153809,4474.615234,4461.153809,4597.436035,4577.179688,4555.769043,4463.846191,4651.153809,4448.589844,4606.794922,4563.974121,4459.487305,4600.512695,4583.974121,2824.0,0.0,14.0,2304.0,59708.0,,,,0.0,4.0,4.0,4.0,4.0,4.0,4.0,4.0,4.0,4.0,4.0,4.0,4.0,4.0,4.0,4.0,4.0,4.0,4.0,4.0,4.0,4.0,4.0,4.0,4.0,4.0,4.0,4.0,4.0,4.0,4.0,4.0,4.0,100.0,,,,,,,,,,,,,,,,,,,,,,,,,,,,,,,,,,,,,,,,,,,,,,,,,,,,,,,,,,,,,,,,,,,,,,,,,,,,,,,,,,,,,,,,,,,,,,,,,,,,,,,,,,,,,,,,,,,,,,,,,,,,,,,,,,,,,,,,,,,,,,,,,,,,,,,,,,,,,,,,,,,,,,,,,,,,,,,,,,,,,,,,,,,,,,,,,,,,,,,,,,,,,,
1763975387.908545,58977.0,0.0,4446.153809,4450.256348,4570.897461,4588.077148,4439.743652,4558.974121,4588.205078,4452.307617,4629.743652,4411.025879,4536.282227,4567.94873,4618.974121,4439.230957,4433.589844,4545.641113,4587.692383,4602.179688,4595.128418,4455.641113,4461.282227,4619.230957,4592.820313,4558.717773,4466.666504,4647.307617,4450.512695,4618.077148,4571.025879,4463.717773,4596.922852,4578.717773,2860.0,0.0,14.0,2304.0,59708.0,,,,0.0,4.0,4.0,4.0,4.0,4.0,4.0,4.0,4.0,4.0,4.0,4.0,4.0,4.0,4.0,4.0,4.0,4.0,4.0,4.0,4.0,4.0,4.0,4.0,4.0,4.0,4.0,4.0,4.0,4.0,4.0,4.0,4.0,100.0,,,,,,,,,,,,,,,,,,,,,,,,,,,,,,,,,,,31128.0,0.0,0.482925,0.297302,0.211304,0.796082,0.881455,-0.442925,0.053229,35.833332,-19.5,-25.833334,,,,,,,,,,,,,,,,,,,,,,,,,,,,,,,,,,,,,,,,,,,,,,,,,,,,,,,,,,,,,,,,,,,,,,,,,,,,,,,,,,,,,,,,,,,,,,,,,,,,,,,,,,,,,,,,,,,,,,,,,,,,,,,,,,,,,,,,,,,,,,,,,,,,,,,,,,,,,,,,
1763975387.912451,58978.0,0.0,4443.077148,4438.589844,4557.563965,4576.153809,4432.692383,4545.384766,4583.205078,4445.512695,4618.589844,4406.025879,4535.384766,4567.563965,4624.615234,4443.205078,4424.871582,4577.179688,4595.256348,4610.0,4607.436035,4428.205078,4453.333496,4625.897461,4592.05127,4552.179688,4453.205078,4628.205078,4441.025879,4612.563965,4566.282227,4456.410156,4579.102539,4559.102539,2267.0,0.0,14.0,2560.0,59716.0,,,,0.0,4.0,4.0,4.0,4.0,4.0,4.0,4.0,4.0,4.0,4.0,4.0,4.0,4.0,4.0,4.0,4.0,4.0,4.0,4.0,4.0,4.0,4.0,4.0,4.0,4.0,4.0,4.0,4.0,4.0,4.0,4.0,4.0,100.0,,,,,,,,,,,,,,,,,,,,,,,,,,,,,,,,,,,,,,,,,,,,,,,,,,,,,,,,,,,,,,,,,,,,,,,,,,,,,,,,,,,,,,,,,,,,,,,,,,,,,,,,,,,,,,,,,,,,,,,,,,,,,,,,,,,,,,,,,,,,,,,,,,,,,,,,,,,,,,,,,,,,,,,,,,,,,,,,,,,,,,,,,,,,,,,,,,,,,,,,,,,,,,
1763975387.916357,58979.0,0.0,4435.641113,4428.461426,4544.743652,4567.05127,4425.256348,4534.358887,4576.282227,4437.179688,4612.563965,4422.820313,4530.897461,4562.94873,4621.666504,4440.384766,4415.897461,4576.153809,4594.230957,4596.025879,4590.0,4416.410156,4448.077148,4621.922852,4585.256348,4547.820313,4441.922852,4615.897461,4433.077148,4601.153809,4559.871582,4449.487305,4565.769043,4544.743652,2949.0,0.0,14.0,2560.0,59716.0,,,,0.0,4.0,4.0,4.0,4.0,4.0,4.0,4.0,4.0,4.0,4.0,4.0,4.0,4.0,4.0,4.0,4.0,4.0,4.0,4.0,4.0,4.0,4.0,4.0,4.0,4.0,4.0,4.0,4.0,4.0,4.0,4.0,4.0,100.0,,,,,,,,,,,,,,,,,,,,,,,,,,,,,,,,,,,,,,,,,,,,,,,,,,,,,,,,,,,,,,,,,,,,,,,,,,,,,,,,,,,,,,,,,,,,,,,,,,,,,,,,,,,,,,,,,,,,,,,,,,,,,,,,,,,,,,,,,,,,,,,,,,,,,,,,,,,,,,,,,,,,,,,,,,,,,,,,,,,,,,,,,,,,,,,,,,,,,,,,,,,,,,
1763975387.920263,58980.0,0.0,4433.846191,4428.589844,4542.692383,4569.230957,4425.0,4534.487305,4576.410156,4434.871582,4617.820313,4458.974121,4530.0,4561.794922,4618.333496,4438.205078,4417.179688,4557.563965,4591.666504,4577.436035,4558.333496,4426.922852,4450.128418,4615.769043,4582.563965,4551.794922,4444.487305,4621.282227,4434.487305,4594.871582,4558.846191,4450.384766,4567.307617,4546.666504,2862.0,0.0,14.0,2560.0,59724.0,,,,0.0,4.0,4.0,4.0,4.0,4.0,4.0,4.0,4.0,4.0,4.0,4.0,4.0,4.0,4.0,4.0,4.0,4.0,4.0,4.0,4.0,4.0,4.0,4.0,4.0,4.0,4.0,4.0,4.0,4.0,4.0,4.0,4.0,100.0,,,,,,,,,,,,,,,,,,,,,,,,,,,,,,,,,,,,,,,,,,,,,,,,,,,,,,,,,,,,,,,,,,,,,,,,,,,,,,,,,,,,,,,,,,,,,,,,,,,,,,,,,,,,,,,,,,,,,,,,,,,,,,,,,,,,,,,,,,,,,,,,,,,,,,,,,,,,,,,,,,,,,,,,,,,,,,,,,,,,,,,,,,,,,,,,,,,,,,,,,,,,,,
1763975387.924169,58981.0,0.0,4440.512695,4437.820313,4550.384766,4580.0,4432.05127,4545.128418,4584.871582,4439.743652,4629.487305,4491.153809,4535.256348,4566.794922,4620.641113,4441.794922,4428.461426,4544.102539,4593.461426,4570.384766,4535.897461,4449.230957,4457.563965,4614.358887,4588.461426,4561.794922,4459.102539,4638.461426,4444.615234,4598.589844,4564.487305,4458.717773,4581.538574,4562.307617,2414.0,0.0,14.0,2560.0,59724.0,,,,0.0,4.0,4.0,4.0,4.0,4.0,4.0,4.0,4.0,4.0,4.0,4.0,4.0,4.0,4.0,4.0,4.0,4.0,4.0,4.0,4.0,4.0,4.0,4.0,4.0,4.0,4.0,4.0,4.0,4.0,4.0,4.0,4.0,100.0,,,,,,,,,,,,,,,,,,,,,,,,,,,,,,,,,,,31129.0,0.0,0.483074,0.29718,0.211365,0.796021,0.881455,-0.442925,0.053229,35.833332,-19.5,-26.666666,,,,,,,,,,,,,,,,,,,,,,,,,,,,,,,,,,,,,,,,,,,,,,,,,,,,,,,,,,,,,,,,,,,,,,,,,,,,,,,,,,,,,,,,,,,,,,,,,,,,,,,,,,,,,,,,,,,,,,,,,,,,,,,,,,,,,,,,,,,,,,,,,,,,,,,,,,,,,,,,
1763975387.928075,58982.0,0.0,4450.384766,4447.563965,4557.820313,4588.974121,4440.128418,4557.692383,4595.641113,4446.922852,4637.820313,4494.615234,4542.563965,4574.358887,4627.436035,4450.769043,4440.641113,4547.94873,4599.615234,4579.230957,4535.897461,4466.410156,4463.974121,4618.205078,4597.94873,4570.256348,4473.205078,4651.025879,4454.743652,4607.94873,4571.282227,4466.922852,4595.641113,4577.820313,2969.0,0.0,14.0,2561.0,59731.0,,,,0.0,4.0,4.0,4.0,4.0,4.0,4.0,4.0,4.0,4.0,4.0,4.0,4.0,4.0,4.0,4.0,4.0,4.0,4.0,4.0,4.0,4.0,4.0,4.0,4.0,4.0,4.0,4.0,4.0,4.0,4.0,4.0,4.0,100.0,,,,,,,,,,,,,,,,,,,,,,,,,,,,,,,,,,,,,,,,,,,,,,,,,,,,,,,,,,,,,,,,,,,,,,,,,,,,,,,,,,,,,,,,,,,,,,,,,,,,,,,,,,,,,,,,,,,,,,,,,,,,,,,,,,,,,,,,,,,,,,,,,,,,,,,,,,,,,,,,,,,,,,,,,,,,,,,,,,,,,,,,,,,,,,,,,,,,,,,,,,,,,,
1763975387.931981,58983.0,0.0,4452.820313,4447.307617,4554.102539,4585.128418,4440.384766,4561.282227,4598.333496,4447.820313,4633.974121,4462.307617,4543.846191,4575.897461,4630.384766,4456.794922,4442.692383,4561.410156,4602.692383,4592.563965,4550.384766,4465.897461,4461.666504,4619.358887,4599.487305,4567.94873,4471.025879,4644.615234,4453.846191,4611.153809,4569.615234,4465.256348,4594.871582,4577.563965,2951.0,0.0,14.0,2561.0,59731.0,,,,0.0,4.0,4.0,4.0,4.0,4.0,4.0,4.0,4.0,4.0,4.0,4.0,4.0,4.0,4.0,4.0,4.0,4.0,4.0,4.0,4.0,4.0,4.0,4.0,4.0,4.0,4.0,4.0,4.0,4.0,4.0,4.0,4.0,100.0,,,,,,,,,,,,,,,,,,,,,,,,,,,,,,,,,,,,,,,,,,,,,,,,,,,,,,,,,,,,,,,,,,,,,,,,,,,,,,,,,,,,,,,,,,,,,,,,,,,,,,,,,,,,,,,,,,,,,,,,,,,,,,,,,,,,,,,,,,,,,,,,,,,,,,,,,,,,,,,,,,,,,,,,,,,,,,,,,,,,,,,,,,,,,,,,,,,,,,,,,,,,,,
1763975387.935887,58984.0,0.0,4438.717773,4430.128418,4534.615234,4564.102539,4426.922852,4548.717773,4584.358887,4435.0,4615.0,4409.615234,4532.179688,4562.94873,4618.846191,4449.871582,4429.615234,4564.487305,4592.820313,4591.410156,4556.410156,4445.128418,4445.897461,4607.05127,4583.205078,4549.487305,4444.871582,4616.666504,4434.615234,4597.307617,4552.179688,4447.436035,4572.05127,4554.487305,2642.0,0.0,14.0,2562.0,59739.0,,,,0.0,4.0,4.0,4.0,4.0,4.0,4.0,4.0,4.0,4.0,4.0,4.0,4.0,4.0,4.0,4.0,4.0,4.0,4.0,4.0,4.0,4.0,4.0,4.0,4.0,4.0,4.0,4.0,4.0,4.0,4.0,4.0,4.0,100.0,,,,,,,,,,,,,,,,,,,,,,,,,,,,,,,,,,,,,,,,,,,,,,,4.273464,17.67263,12.941726,9.578161,9.082201,6.399277,9.73501,11.335383,9.255083,8.952071,6.308837,8.165575,14.547363,11.339382,10.723639,3.719923,5.984114,13.240466,10.944921,10.20653,2.479918,5.372259,8.846413,6.577974,6.78036,2.29473,6.832574,6.814398,5.862561,5.648633,3.731714,9.924772,11.126244,9.007761,8.485927,2.575926,6.728282,11.526889,9.824744,10.167559,3.13131,4.565195,8.931302,9.814054,9.680806,2.452127,4.591864,9.508128,25.046478,11.990752,2.379173,6.947813,10.276405,8.305982,8.64921,3.870849,20.414421,11.92522,9.246856,8.790873,3.103161,19.926336,13.703996,10.621088,10.137897,0.686468,3.759679,6.999771,6.679309,7.320635,1.646404,4.995401,7.191634,9.450008,9.191582,1.813369,20.690157,19.300737,10.761084,11.950109,3.070943,39.83392,13.722646,10.29318,8.835783,1.465655,22.004738,20.924017,14.266496,11.798258,1.273852,24.839706,23.291582,13.787302,13.04038,3.856761,11.6361,16.12805,12.648783,10.223386,2.311063,17.99926,16.497013,12.534971,10.195836,2.347303,44.065861,19.755566,12.634288,10.971866,3.980046,34.405983,16.600185,11.895637,10.632006,2.375346,26.088408,16.736015,12.505862,9.956991,3.275062,19.648272,17.774761,17.994555,12.382358,4.259767,12.730637,16.281713,13.09614,10.738638,5.113704,14.539662,16.344231,11.811716,10.399626,3.559085,21.506081,16.493443,11.544424,10.336754,4.16109,14.588969,13.782575,9.908958,8.908805,5.553691,11.496181,14.540805,11.23936,10.050714,5.73589,11.558182,16.016996,12.77991,10.739607,6.423661,10.049588,14.389816,11.755511,10.087523
1763975387.939793,58985.0,0.0,4407.307617,4397.692383,4504.230957,4531.153809,4401.282227,4522.05127,4553.461426,4407.820313,4584.871582,4362.94873,4506.922852,4534.102539,4589.102539,4426.282227,4405.384766,4542.820313,4566.025879,4565.384766,4535.897461,4411.025879,4417.820313,4577.05127,4548.846191,4516.666504,4400.384766,4577.05127,4399.871582,4565.128418,4519.102539,4415.641113,4532.179688,4514.871582,2820.0,0.0,14.0,2562.0,59739.0,,,,0.0,4.0,4.0,4.0,4.0,4.0,4.0,4.0,4.0,4.0,4.0,4.0,4.0,4.0,4.0,4.0,4.0,4.0,4.0,4.0,4.0,4.0,4.0,4.0,4.0,4.0,4.0,4.0,4.0,4.0,4.0,4.0,4.0,100.0,,,,,,,,,,,,,,,,,,,,,,,,,,,,,,,,,,,31130.0,0.0,0.483281,0.296997,0.211609,0.795898,0.89757,-0.452204,0.053717,34.666668,-21.833334,-26.166666,,,,,,,,,,,,,,,,,,,,,,,,,,,,,,,,,,,,,,,,,,,,,,,,,,,,,,,,,,,,,,,,,,,,,,,,,,,,,,,,,,,,,,,,,,,,,,,,,,,,,,,,,,,,,,,,,,,,,,,,,,,,,,,,,,,,,,,,,,,,,,,,,,,,,,,,,,,,,,,,
1763975387.943699,58986.0,1.0,4382.820313,4375.470215,4487.820313,4513.675293,4384.230957,4505.042969,4530.042969,4386.581055,4568.504395,4367.649414,4488.375977,4509.615234,4562.777832,4405.854492,4390.512695,4512.136719,4541.709473,4532.863281,4502.350586,4392.734863,4398.248047,4551.111328,4524.444336,4495.98291,4379.914551,4560.170898,4376.794922,4540.213867,4495.042969,4394.187988,4509.145508,4494.700684,0.0,0.0,14.0,0.0,0.0,,,,0.0,4.0,4.0,4.0,4.0,4.0,4.0,4.0,4.0,4.0,4.0,4.0,4.0,4.0,4.0,4.0,4.0,4.0,4.0,4.0,4.0,4.0,4.0,4.0,4.0,4.0,4.0,4.0,4.0,4.0,4.0,4.0,4.0,100.0,,,,,,,,,,,,,,,,,,,,,,,,,,,,,,,,,,,,,,,,,,,,,,,,,,,,,,,,,,,,,,,,,,,,,,,,,,,,,,,,,,,,,,,,,,,,,,,,,,,,,,,,,,,,,,,,,,,,,,,,,,,,,,,,,,,,,,,,,,,,,,,,,,,,,,,,,,,,,,,,,,,,,,,,,,,,,,,,,,,,,,,,,,,,,,,,,,,,,,,,,,,,,,
1763975387.947605,58987.0,1.0,4358.333496,4353.248047,4471.410156,4496.196777,4367.179688,4488.03418,4506.624023,4365.341797,4552.136719,4372.350586,4469.829102,4485.128418,4536.453125,4385.427246,4375.641113,4481.453125,4517.393066,4500.341797,4468.803223,4374.444336,4378.675293,4525.170898,4500.042969,4475.299316,4359.444336,4543.290527,4353.717773,4515.299316,4470.98291,4372.734863,4486.111328,4474.529785,0.0,0.0,14.0,0.0,0.0,,,,0.0,4.0,4.0,4.0,4.0,4.0,4.0,4.0,4.0,4.0,4.0,4.0,4.0,4.0,4.0,4.0,4.0,4.0,4.0,4.0,4.0,4.0,4.0,4.0,4.0,4.0,4.0,4.0,4.0,4.0,4.0,4.0,4.0,100.0,,,,,,,,,,,,,,,,,,,,,,,,,,,,,,,,,,,,,,,,,,,,,,,,,,,,,,,,,,,,,,,,,,,,,,,,,,,,,,,,,,,,,,,,,,,,,,,,,,,,,,,,,,,,,,,,,,,,,,,,,,,,,,,,,,,,,,,,,,,,,,,,,,,,,,,,,,,,,,,,,,,,,,,,,,,,,,,,,,,,,,,,,,,,,,,,,,,,,,,,,,,,,,
1763975387.951511,58988.0,0.0,4333.846191,4331.025879,4455.0,4478.717773,4350.128418,4471.025879,4483.205078,4344.102539,4535.769043,4377.05127,4451.282227,4460.641113,4510.128418,4365.0,4360.769043,4450.769043,4493.077148,4467.820313,4435.256348,4356.153809,4359.102539,4499.230957,4475.641113,4454.615234,4338.974121,4526.410156,4330.641113,4490.384766,4446.922852,4351.282227,4463.077148,4454.358887,2927.0,0.0,14.0,2564.0,59755.0,,,,0.0,4.0,4.0,4.0,4.0,4.0,4.0,4.0,4.0,4.0,4.0,4.0,4.0,4.0,4.0,4.0,4.0,4.0,4.0,4.0,4.0,4.0,4.0,4.0,4.0,4.0,4.0,4.0,4.0,4.0,4.0,4.0,4.0,100.0,,,,,,,,,,,,,,,,,,,,,,,,,,,,,,,,,,,,,,,,,,,,,,,,,,,,,,,,,,,,,,,,,,,,,,,,,,,,,,,,,,,,,,,,,,,,,,,,,,,,,,,,,,,,,,,,,,,,,,,,,,,,,,,,,,,,,,,,,,,,,,,,,,,,,,,,,,,,,,,,,,,,,,,,,,,,,,,,,,,,,,,,,,,,,,,,,,,,,,,,,,,,,,
1763975387.955417,58989.0,0.0,4353.077148,4350.256348,4475.0,4499.615234,4367.692383,4488.974121,4503.461426,4363.461426,4558.205078,4397.436035,4470.512695,4477.820313,4531.153809,4384.871582,4375.128418,4471.282227,4511.410156,4488.077148,4459.102539,4376.538574,4380.256348,4520.128418,4497.436035,4478.077148,4372.05127,4550.128418,4352.05127,4509.743652,4466.410156,4369.358887,4488.589844,4479.615234,2704.0,0.0,14.0,2564.0,59755.0,,,,0.0,4.0,4.0,4.0,4.0,4.0,4.0,4.0,4.0,4.0,4.0,4.0,4.0,4.0,4.0,4.0,4.0,4.0,4.0,4.0,4.0,4.0,4.0,4.0,4.0,4.0,4.0,4.0,4.0,4.0,4.0,4.0,4.0,100.0,,,,,,,,,,,,,,,,,,,,,,,,,,,,,,,,,,,31131.0,0.0,0.483456,0.296875,0.211609,0.795837,0.89757,-0.452204,0.053717,36.666668,-19.833334,-25.0,,,,,,,,,,,,,,,,,,,,,,,,,,,,,,,,,,,,,,,,,,,,,,,,,,,,,,,,,,,,,,,,,,,,,,,,,,,,,,,,,,,,,,,,,,,,,,,,,,,,,,,,,,,,,,,,,,,,,,,,,,,,,,,,,,,,,,,,,,,,,,,,,,,,,,,,,,,,,,,,
1763975387.959323,58990.0,0.0,4386.282227,4381.794922,4505.512695,4530.256348,4395.384766,4514.615234,4537.563965,4397.179688,4590.384766,4401.153809,4500.128418,4510.641113,4569.230957,4416.794922,4399.487305,4512.307617,4545.512695,4529.743652,4506.410156,4405.256348,4414.615234,4557.05127,4531.666504,4513.461426,4409.871582,4582.307617,4387.820313,4543.589844,4499.230957,4398.974121,4525.641113,4512.820313,2713.0,0.0,14.0,2565.0,59763.0,,,,0.0,4.0,4.0,4.0,4.0,4.0,4.0,4.0,4.0,4.0,4.0,4.0,4.0,4.0,4.0,4.0,4.0,4.0,4.0,4.0,4.0,4.0,4.0,4.0,4.0,4.0,4.0,4.0,4.0,4.0,4.0,4.0,4.0,100.0,,,,,,,,,,,,,,,,,,,,,,,,,,,,,,,,,,,,,,,,,,,,,,,,,,,,,,,,,,,,,,,,,,,,,,,,,,,,,,,,,,,,,,,,,,,,,,,,,,,,,,,,,,,,,,,,,,,,,,,,,,,,,,,,,,,,,,,,,,,,,,,,,,,,,,,,,,,,,,,,,,,,,,,,,,,,,,,,,,,,,,,,,,,,,,,,,,,,,,,,,,,,,,
1763975387.963229,58991.0,0.0,4413.077148,4406.666504,4529.743652,4553.077148,4417.05127,4531.666504,4564.743652,4424.487305,4613.717773,4388.846191,4521.025879,4538.846191,4600.512695,4440.0,4419.358887,4546.922852,4574.615234,4565.0,4545.769043,4424.230957,4440.897461,4587.179688,4557.307617,4539.358887,4427.563965,4605.641113,4417.94873,4571.922852,4525.256348,4421.538574,4552.179688,4533.846191,2830.0,0.0,14.0,2565.0,59763.0,,,,0.0,4.0,4.0,4.0,4.0,4.0,4.0,4.0,4.0,4.0,4.0,4.0,4.0,4.0,4.0,4.0,4.0,4.0,4.0,4.0,4.0,4.0,4.0,4.0,4.0,4.0,4.0,4.0,4.0,4.0,4.0,4.0,4.0,100.0,,,,,,,,,,,,,,,,,,,,,,,,,,,,,,,,,,,,,,,,,,,,,,,,,,,,,,,,,,,,,,,,,,,,,,,,,,,,,,,,,,,,,,,,,,,,,,,,,,,,,,,,,,,,,,,,,,,,,,,,,,,,,,,,,,,,,,,,,,,,,,,,,,,,,,,,,,,,,,,,,,,,,,,,,,,,,,,,,,,,,,,,,,,,,,,,,,,,,,,,,,,,,,
1763975387.967135,58992.0,0.0,4416.794922,4409.358887,4532.563965,4553.717773,4419.615234,4528.846191,4568.205078,4426.794922,4613.205078,4370.897461,4519.102539,4544.230957,4605.256348,4438.717773,4420.641113,4553.205078,4580.769043,4569.487305,4551.922852,4419.102539,4441.153809,4591.282227,4558.333496,4538.717773,4413.333496,4606.282227,4424.743652,4577.692383,4527.94873,4421.922852,4551.794922,4529.615234,2932.0,0.0,14.0,2566.0,59770.0,,,,0.0,4.0,4.0,4.0,4.0,4.0,4.0,4.0,4.0,4.0,4.0,4.0,4.0,4.0,4.0,4.0,4.0,4.0,4.0,4.0,4.0,4.0,4.0,4.0,4.0,4.0,4.0,4.0,4.0,4.0,4.0,4.0,4.0,100.0,,,,,,,,,,,,,,,,,,,,,,,,,,,,,,,,,,,,,,,,,,,,,,,,,,,,,,,,,,,,,,,,,,,,,,,,,,,,,,,,,,,,,,,,,,,,,,,,,,,,,,,,,,,,,,,,,,,,,,,,,,,,,,,,,,,,,,,,,,,,,,,,,,,,,,,,,,,,,,,,,,,,,,,,,,,,,,,,,,,,,,,,,,,,,,,,,,,,,,,,,,,,,,
1763975387.971041,58993.0,0.0,4397.307617,4390.384766,4512.436035,4532.436035,4402.820313,4508.589844,4547.692383,4403.077148,4589.615234,4360.256348,4496.282227,4524.615234,4582.820313,4414.230957,4401.410156,4531.410156,4562.179688,4542.692383,4523.461426,4391.025879,4415.0,4568.974121,4536.025879,4512.05127,4378.077148,4584.487305,4406.282227,4559.230957,4507.692383,4400.769043,4526.666504,4504.230957,3023.0,0.0,14.0,2566.0,59770.0,,,,0.0,4.0,4.0,4.0,4.0,4.0,4.0,4.0,4.0,4.0,4.0,4.0,4.0,4.0,4.0,4.0,4.0,4.0,4.0,4.0,4.0,4.0,4.0,4.0,4.0,4.0,4.0,4.0,4.0,4.0,4.0,4.0,4.0,100.0,,,,,,,,,,,,,,,,,,,,,,,,,,,,,,,,,,,31132.0,0.0,0.483861,0.296509,0.211426,0.795776,0.919057,-0.450739,0.047857,36.333332,-19.833334,-25.0,,,,,,,,,,,,,,,,,,,,,,,,,,,,,,,,,,,,,,,,,,,,,,,,,,,,,,,,,,,,,,,,,,,,,,,,,,,,,,,,,,,,,,,,,,,,,,,,,,,,,,,,,,,,,,,,,,,,,,,,,,,,,,,,,,,,,,,,,,,,,,,,,,,,,,,,,,,,,,,,
1763975387.974947,58994.0,0.0,4370.897461,4366.153809,4484.615234,4504.358887,4380.512695,4486.025879,4519.871582,4371.410156,4558.846191,4364.230957,4470.0,4496.025879,4552.820313,4385.128418,4375.641113,4504.871582,4535.384766,4508.974121,4484.358887,4357.307617,4381.794922,4538.589844,4507.94873,4478.461426,4348.461426,4555.512695,4378.077148,4532.179688,4480.512695,4375.384766,4496.538574,4476.666504,2804.0,0.0,14.0,2567.0,59778.0,,,,0.0,4.0,4.0,4.0,4.0,4.0,4.0,4.0,4.0,4.0,4.0,4.0,4.0,4.0,4.0,4.0,4.0,4.0,4.0,4.0,4.0,4.0,4.0,4.0,4.0,4.0,4.0,4.0,4.0,4.0,4.0,4.0,4.0,100.0,,,,,,,,,,,,,,,,,,,,,,,,,,,,,,,,,,,,,,,,,,,,,,,,,,,,,,,,,,,,,,,,,,,,,,,,,,,,,,,,,,,,,,,,,,,,,,,,,,,,,,,,,,,,,,,,,,,,,,,,,,,,,,,,,,,,,,,,,,,,,,,,,,,,,,,,,,,,,,,,,,,,,,,,,,,,,,,,,,,,,,,,,,,,,,,,,,,,,,,,,,,,,,
1763975387.978853,58995.0,0.0,4356.282227,4355.128418,4467.94873,4488.205078,4368.589844,4476.922852,4504.871582,4354.358887,4540.641113,4379.615234,4459.102539,4479.230957,4538.717773,4372.307617,4361.153809,4499.743652,4520.641113,4497.179688,4463.846191,4337.05127,4363.974121,4522.820313,4493.974121,4460.769043,4345.256348,4537.692383,4360.128418,4515.897461,4465.769043,4364.230957,4482.05127,4465.128418,3006.0,0.0,14.0,2567.0,59778.0,,,,0.0,4.0,4.0,4.0,4.0,4.0,4.0,4.0,4.0,4.0,4.0,4.0,4.0,4.0,4.0,4.0,4.0,4.0,4.0,4.0,4.0,4.0,4.0,4.0,4.0,4.0,4.0,4.0,4.0,4.0,4.0,4.0,4.0,100.0,,,,,,,,,,,,,,,,,,,,,,,,,,,,,,,,,,,,,,,,,,,,,,,,,,,,,,,,,,,,,,,,,,,,,,,,,,,,,,,,,,,,,,,,,,,,,,,,,,,,,,,,,,,,,,,,,,,,,,,,,,,,,,,,,,,,,,,,,,,,,,,,,,,,,,,,,,,,,,,,,,,,,,,,,,,,,,,,,,,,,,,,,,,,,,,,,,,,,,,,,,,,,,
1763975387.982759,58996.0,0.0,4359.358887,4361.794922,4470.0,4490.256348,4372.179688,4485.512695,4508.846191,4359.743652,4542.179688,4394.102539,4468.205078,4481.794922,4547.692383,4382.563965,4364.358887,4521.922852,4526.282227,4516.538574,4475.769043,4335.897461,4369.871582,4530.128418,4499.230957,4466.666504,4366.666504,4537.05127,4360.512695,4517.820313,4469.743652,4371.922852,4487.692383,4472.307617,2978.0,0.0,14.0,2568.0,59786.0,,,,0.0,4.0,4.0,4.0,4.0,4.0,4.0,4.0,4.0,4.0,4.0,4.0,4.0,4.0,4.0,4.0,4.0,4.0,4.0,4.0,4.0,4.0,4.0,4.0,4.0,4.0,4.0,4.0,4.0,4.0,4.0,4.0,4.0,100.0,,,,,,,,,,,,,,,,,,,,,,,,,,,,,,,,,,,,,,,,,,,,,,,,,,,,,,,,,,,,,,,,,,,,,,,,,,,,,,,,,,,,,,,,,,,,,,,,,,,,,,,,,,,,,,,,,,,,,,,,,,,,,,,,,,,,,,,,,,,,,,,,,,,,,,,,,,,,,,,,,,,,,,,,,,,,,,,,,,,,,,,,,,,,,,,,,,,,,,,,,,,,,,
1763975387.986665,58997.0,0.0,4370.128418,4374.743652,4481.410156,4501.025879,4382.820313,4502.179688,4521.410156,4375.128418,4553.974121,4395.641113,4485.128418,4494.358887,4566.922852,4403.333496,4375.256348,4551.538574,4542.692383,4550.0,4510.384766,4343.974121,4388.974121,4550.384766,4512.692383,4485.256348,4391.922852,4545.384766,4371.025879,4529.230957,4482.820313,4386.538574,4500.641113,4485.256348,2910.0,0.0,14.0,2568.0,59786.0,,,,0.0,4.0,4.0,4.0,4.0,4.0,4.0,4.0,4.0,4.0,4.0,4.0,4.0,4.0,4.0,4.0,4.0,4.0,4.0,4.0,4.0,4.0,4.0,4.0,4.0,4.0,4.0,4.0,4.0,4.0,4.0,4.0,4.0,100.0,,,,,,,,,,,,,,,,,,,,,,,,,,,,,,,,,,,31133.0,0.0,0.48409,0.296387,0.211304,0.795715,0.903431,-0.440483,0.059089,37.166668,-21.0,-25.833334,,,,,,,,,,,,,,,,,,,,,,,,,,,,,,,,,,,,,,,,,,,,,,,,,,,,,,,,,,,,,,,,,,,,,,,,,,,,,,,,,,,,,,,,,,,,,,,,,,,,,,,,,,,,,,,,,,,,,,,,,,,,,,,,,,,,,,,,,,,,,,,,,,,,,,,,,,,,,,,,
1763975387.990571,58998.0,0.0,4375.641113,4380.512695,4488.589844,4506.794922,4388.077148,4513.461426,4527.563965,4382.94873,4562.436035,4383.974121,4494.743652,4502.307617,4577.436035,4416.025879,4380.128418,4560.512695,4554.230957,4571.153809,4544.102539,4350.256348,4404.871582,4567.436035,4520.256348,4500.0,4402.179688,4551.666504,4378.717773,4537.05127,4491.794922,4394.230957,4506.410156,4491.153809,2988.0,0.0,14.0,2568.0,59794.0,,,,0.0,4.0,4.0,4.0,4.0,4.0,4.0,4.0,4.0,4.0,4.0,4.0,4.0,4.0,4.0,4.0,4.0,4.0,4.0,4.0,4.0,4.0,4.0,4.0,4.0,4.0,4.0,4.0,4.0,4.0,4.0,4.0,4.0,100.0,,,,,,,,,,,,,,,,,,,,,,,,,,,,,,,,,,,,,,,,,,,,,,,,,,,,,,,,,,,,,,,,,,,,,,,,,,,,,,,,,,,,,,,,,,,,,,,,,,,,,,,,,,,,,,,,,,,,,,,,,,,,,,,,,,,,,,,,,,,,,,,,,,,,,,,,,,,,,,,,,,,,,,,,,,,,,,,,,,,,,,,,,,,,,,,,,,,,,,,,,,,,,,
1763975387.994477,58999.0,0.0,4374.615234,4379.230957,4488.717773,4506.025879,4385.897461,4515.641113,4524.871582,4379.358887,4564.871582,4374.615234,4493.846191,4501.666504,4573.333496,4413.717773,4376.794922,4538.077148,4555.128418,4567.563965,4559.487305,4356.282227,4412.94873,4575.384766,4520.384766,4506.794922,4398.717773,4555.641113,4381.282227,4540.256348,4495.128418,4394.487305,4505.641113,4490.641113,2923.0,0.0,14.0,2568.0,59794.0,,,,0.0,4.0,4.0,4.0,4.0,4.0,4.0,4.0,4.0,4.0,4.0,4.0,4.0,4.0,4.0,4.0,4.0,4.0,4.0,4.0,4.0,4.0,4.0,4.0,4.0,4.0,4.0,4.0,4.0,4.0,4.0,4.0,4.0,100.0,,,,,,,,,,,,,,,,,,,,,,,,,,,,,,,,,,,,,,,,,,,,,,,,,,,,,,,,,,,,,,,,,,,,,,,,,,,,,,,,,,,,,,,,,,,,,,,,,,,,,,,,,,,,,,,,,,,,,,,,,,,,,,,,,,,,,,,,,,,,,,,,,,,,,,,,,,,,,,,,,,,,,,,,,,,,,,,,,,,,,,,,,,,,,,,,,,,,,,,,,,,,,,
1763975387.998383,59000.0,0.0,4378.846191,4384.871582,4493.461426,4511.410156,4386.410156,4517.179688,4525.641113,4378.333496,4572.307617,4385.384766,4494.615234,4502.820313,4567.307617,4406.153809,4378.589844,4500.769043,4554.358887,4550.512695,4555.769043,4374.615234,4422.563965,4582.179688,4525.769043,4516.153809,4400.769043,4568.717773,4389.487305,4550.641113,4504.230957,4400.897461,4512.692383,4497.436035,2884.0,0.0,14.0,2567.0,59802.0,,,,0.0,4.0,4.0,4.0,4.0,4.0,4.0,4.0,4.0,4.0,4.0,4.0,4.0,4.0,4.0,4.0,4.0,4.0,4.0,4.0,4.0,4.0,4.0,4.0,4.0,4.0,4.0,4.0,4.0,4.0,4.0,4.0,4.0,100.0,,,,,,,,,,,,,,,,,,,,,,,,,,,,,,,,,,,,,,,,,,,,,,,,,,,,,,,,,,,,,,,,,,,,,,,,,,,,,,,,,,,,,,,,,,,,,,,,,,,,,,,,,,,,,,,,,,,,,,,,,,,,,,,,,,,,,,,,,,,,,,,,,,,,,,,,,,,,,,,,,,,,,,,,,,,,,,,,,,,,,,,,,,,,,,,,,,,,,,,,,,,,,,
1763975388.002289,59001.0,0.0,4400.128418,4409.230957,4515.0,4535.384766,4401.025879,4529.102539,4543.589844,4395.897461,4595.128418,4416.794922,4510.0,4518.333496,4575.641113,4408.589844,4398.077148,4477.820313,4565.512695,4541.922852,4546.538574,4412.820313,4444.102539,4598.846191,4548.589844,4539.487305,4424.487305,4599.487305,4414.487305,4577.94873,4529.102539,4425.0,4538.974121,4522.563965,2832.0,0.0,14.0,2567.0,59802.0,,,,0.0,4.0,4.0,4.0,4.0,4.0,4.0,4.0,4.0,4.0,4.0,4.0,4.0,4.0,4.0,4.0,4.0,4.0,4.0,4.0,4.0,4.0,4.0,4.0,4.0,4.0,4.0,4.0,4.0,4.0,4.0,4.0,4.0,100.0,,,,,,,,,,,,,,,,,,,,,,,,,,,,,,,,,,,31134.0,0.0,0.484163,0.296387,0.211365,0.795654,0.921988,-0.45025,0.049811,36.166668,-20.5,-25.5,,,,,,,,,,,,,,,,,,,,,,,,,,,,,,,,,,,,,,,,,,,,,,,,,,,,,,,,,,,,,,,,,,,,,,,,,,,,,,,,,,,,,,,,,,,,,,,,,,,,,,,,,,,,,,,,,,,,,,,,,,,,,,,,,,,,,,,,,,,,,,,,,,,,,,,,,,,,,,,,
1763975388.006195,59002.0,0.0,4434.102539,4446.025879,4550.0,4573.461426,4427.820313,4549.743652,4576.538574,4430.769043,4628.461426,4447.307617,4537.436035,4546.794922,4600.0,4423.717773,4431.153809,4484.615234,4589.615234,4552.179688,4543.589844,4459.487305,4473.077148,4624.102539,4584.487305,4572.179688,4463.717773,4639.615234,4451.282227,4615.384766,4563.846191,4461.025879,4577.692383,4559.230957,2809.0,0.0,14.0,2568.0,59809.0,,,,0.0,4.0,4.0,4.0,4.0,4.0,4.0,4.0,4.0,4.0,4.0,4.0,4.0,4.0,4.0,4.0,4.0,4.0,4.0,4.0,4.0,4.0,4.0,4.0,4.0,4.0,4.0,4.0,4.0,4.0,4.0,4.0,4.0,100.0,,,,,,,,,,,,,,,,,,,,,,,,,,,,,,,,,,,,,,,,,,,,,,,,,,,,,,,,,,,,,,,,,,,,,,,,,,,,,,,,,,,,,,,,,,,,,,,,,,,,,,,,,,,,,,,,,,,,,,,,,,,,,,,,,,,,,,,,,,,,,,,,,,,,,,,,,,,,,,,,,,,,,,,,,,,,,,,,,,,,,,,,,,,,,,,,,,,,,,,,,,,,,,
1763975388.010101,59003.0,0.0,4460.897461,4472.307617,4578.461426,4603.717773,4450.512695,4564.487305,4604.487305,4461.922852,4651.922852,4450.384766,4558.717773,4571.153809,4623.205078,4438.333496,4456.538574,4510.0,4612.307617,4570.512695,4546.794922,4488.846191,4490.897461,4642.436035,4612.820313,4594.102539,4492.94873,4666.794922,4478.461426,4641.025879,4587.307617,4486.922852,4606.153809,4585.769043,2984.0,0.0,14.0,2568.0,59809.0,,,,0.0,4.0,4.0,4.0,4.0,4.0,4.0,4.0,4.0,4.0,4.0,4.0,4.0,4.0,4.0,4.0,4.0,4.0,4.0,4.0,4.0,4.0,4.0,4.0,4.0,4.0,4.0,4.0,4.0,4.0,4.0,4.0,4.0,100.0,,,,,,,,,,,,,,,,,,,,,,,,,,,,,,,,,,,,,,,,,,,,,,,,,,,,,,,,,,,,,,,,,,,,,,,,,,,,,,,,,,,,,,,,,,,,,,,,,,,,,,,,,,,,,,,,,,,,,,,,,,,,,,,,,,,,,,,,,,,,,,,,,,,,,,,,,,,,,,,,,,,,,,,,,,,,,,,,,,,,,,,,,,,,,,,,,,,,,,,,,,,,,,
1763975388.014007,59004.0,0.0,4461.282227,4467.820313,4579.102539,4604.487305,4451.794922,4558.333496,4606.153809,4466.666504,4647.436035,4419.358887,4555.769043,4572.563965,4624.871582,4436.153809,4453.589844,4528.461426,4615.128418,4576.794922,4545.512695,4481.794922,4480.769043,4637.563965,4612.94873,4586.538574,4489.230957,4662.563965,4476.025879,4636.025879,4581.410156,4483.461426,4604.615234,4582.820313,2940.0,0.0,14.0,2569.0,59817.0,,,,0.0,4.0,4.0,4.0,4.0,4.0,4.0,4.0,4.0,4.0,4.0,4.0,4.0,4.0,4.0,4.0,4.0,4.0,4.0,4.0,4.0,4.0,4.0,4.0,4.0,4.0,4.0,4.0,4.0,4.0,4.0,4.0,4.0,100.0,,,,,,,,,,,,,,,,,,,,,,,,,,,,,,,,,,,,,,,,,,,,,,,,,,,,,,,,,,,,,,,,,,,,,,,,,,,,,,,,,,,,,,,,,,,,,,,,,,,,,,,,,,,,,,,,,,,,,,,,,,,,,,,,,,,,,,,,,,,,,,,,,,,,,,,,,,,,,,,,,,,,,,,,,,,,,,,,,,,,,,,,,,,,,,,,,,,,,,,,,,,,,,
1763975388.017913,59005.0,0.0,4434.487305,4433.717773,4549.487305,4573.717773,4429.102539,4531.410156,4578.846191,4440.641113,4616.538574,4376.025879,4528.077148,4548.846191,4601.025879,4414.743652,4422.179688,4525.384766,4594.230957,4561.538574,4532.436035,4442.94873,4445.512695,4609.358887,4583.846191,4551.410156,4453.974121,4628.461426,4442.94873,4601.922852,4548.077148,4451.282227,4573.205078,4551.410156,2809.0,0.0,14.0,2569.0,59817.0,,,,0.0,4.0,4.0,4.0,4.0,4.0,4.0,4.0,4.0,4.0,4.0,4.0,4.0,4.0,4.0,4.0,4.0,4.0,4.0,4.0,4.0,4.0,4.0,4.0,4.0,4.0,4.0,4.0,4.0,4.0,4.0,4.0,4.0,100.0,,,,,,,,,,,,,,,,,,,,,,,,,,,,,,,,,,,31135.0,0.0,0.484163,0.296387,0.211365,0.795654,0.905384,-0.43853,0.038579,37.666668,-18.833334,-26.0,,,,,,,,,,,,,,,,,,,,,,,,,,,,,,,,,,,,,,,,,,,,,,,,,,,,,,,,,,,,,,,,,,,,,,,,,,,,,,,,,,,,,,,,,,,,,,,,,,,,,,,,,,,,,,,,,,,,,,,,,,,,,,,,,,,,,,,,,,,,,,,,,,,,,,,,,,,,,,,,
1763975388.021819,59006.0,0.0,4400.256348,4393.846191,4509.871582,4532.820313,4398.717773,4500.384766,4541.794922,4403.589844,4581.025879,4353.333496,4495.897461,4517.563965,4569.230957,4390.0,4384.230957,4510.0,4564.615234,4536.282227,4512.94873,4398.333496,4407.820313,4575.641113,4546.538574,4511.666504,4412.179688,4586.282227,4400.897461,4561.666504,4509.615234,4411.922852,4533.077148,4513.077148,2995.0,0.0,14.0,2570.0,59825.0,,,,0.0,4.0,4.0,4.0,4.0,4.0,4.0,4.0,4.0,4.0,4.0,4.0,4.0,4.0,4.0,4.0,4.0,4.0,4.0,4.0,4.0,4.0,4.0,4.0,4.0,4.0,4.0,4.0,4.0,4.0,4.0,4.0,4.0,100.0,,,,,,,,,,,,,,,,,,,,,,,,,,,,,,,,,,,,,,,,,,,,,,,,,,,,,,,,,,,,,,,,,,,,,,,,,,,,,,,,,,,,,,,,,,,,,,,,,,,,,,,,,,,,,,,,,,,,,,,,,,,,,,,,,,,,,,,,,,,,,,,,,,,,,,,,,,,,,,,,,,,,,,,,,,,,,,,,,,,,,,,,,,,,,,,,,,,,,,,,,,,,,,
1763975388.025725,59007.0,0.0,4383.077148,4375.512695,4488.461426,4510.384766,4382.436035,4485.641113,4521.538574,4382.94873,4566.538574,4369.615234,4483.333496,4502.436035,4554.230957,4382.94873,4367.436035,4504.230957,4549.230957,4523.974121,4503.461426,4376.025879,4393.333496,4560.0,4527.563965,4494.358887,4392.563965,4562.179688,4377.94873,4542.436035,4490.897461,4391.410156,4510.897461,4494.230957,2911.0,0.0,14.0,2570.0,59825.0,,,,0.0,4.0,4.0,4.0,4.0,4.0,4.0,4.0,4.0,4.0,4.0,4.0,4.0,4.0,4.0,4.0,4.0,4.0,4.0,4.0,4.0,4.0,4.0,4.0,4.0,4.0,4.0,4.0,4.0,4.0,4.0,4.0,4.0,100.0,,,,,,,,,,,,,,,,,,,,,,,,,,,,,,,,,,,,,,,,,,,,,,,,,,,,,,,,,,,,,,,,,,,,,,,,,,,,,,,,,,,,,,,,,,,,,,,,,,,,,,,,,,,,,,,,,,,,,,,,,,,,,,,,,,,,,,,,,,,,,,,,,,,,,,,,,,,,,,,,,,,,,,,,,,,,,,,,,,,,,,,,,,,,,,,,,,,,,,,,,,,,,,
1763975388.029631,59008.0,0.0,4392.436035,4388.846191,4498.333496,4519.358887,4389.871582,4493.974121,4529.871582,4391.666504,4581.282227,4415.897461,4498.717773,4513.205078,4566.794922,4401.794922,4382.820313,4521.025879,4559.358887,4537.436035,4515.512695,4384.743652,4409.743652,4571.410156,4537.94873,4508.333496,4403.589844,4567.436035,4385.641113,4553.717773,4501.025879,4399.358887,4517.179688,4504.358887,2822.0,0.0,14.0,2571.0,59833.0,,,,0.0,4.0,4.0,4.0,4.0,4.0,4.0,4.0,4.0,4.0,4.0,4.0,4.0,4.0,4.0,4.0,4.0,4.0,4.0,4.0,4.0,4.0,4.0,4.0,4.0,4.0,4.0,4.0,4.0,4.0,4.0,4.0,4.0,100.0,,,,,,,,,,,,,,,,,,,,,,,,,,,,,,,,,,,,,,,,,,,,,,,,,,,,,,,,,,,,,,,,,,,,,,,,,,,,,,,,,,,,,,,,,,,,,,,,,,,,,,,,,,,,,,,,,,,,,,,,,,,,,,,,,,,,,,,,,,,,,,,,,,,,,,,,,,,,,,,,,,,,,,,,,,,,,,,,,,,,,,,,,,,,,,,,,,,,,,,,,,,,,,
1763975388.033537,59009.0,0.0,4414.743652,4417.692383,4525.769043,4547.05127,4410.384766,4514.230957,4555.0,4417.179688,4609.615234,4462.563965,4526.666504,4537.179688,4593.717773,4433.077148,4415.769043,4550.0,4584.487305,4566.922852,4542.179688,4409.102539,4439.358887,4596.922852,4563.846191,4536.282227,4427.179688,4589.358887,4410.641113,4580.512695,4525.0,4421.282227,4538.589844,4529.102539,2841.0,0.0,14.0,2571.0,59833.0,,,,0.0,4.0,4.0,4.0,4.0,4.0,4.0,4.0,4.0,4.0,4.0,4.0,4.0,4.0,4.0,4.0,4.0,4.0,4.0,4.0,4.0,4.0,4.0,4.0,4.0,4.0,4.0,4.0,4.0,4.0,4.0,4.0,4.0,100.0,,,,,,,,,,,,,,,,,,,,,,,,,,,,,,,,,,,31136.0,0.0,0.484254,0.296326,0.211243,0.795654,0.898547,-0.446344,0.042974,37.333332,-18.833334,-26.333334,,,,,,,,,,,,,,,,,,,,,,,,,,,,,,,,,,,,,,,,,,,,,,,,,,,,,,,,,,,,,,,,,,,,,,,,,,,,,,,,,,,,,,,,,,,,,,,,,,,,,,,,,,,,,,,,,,,,,,,,,,,,,,,,,,,,,,,,,,,,,,,,,,,,,,,,,,,,,,,,
1763975388.037443,59010.0,1.0,4409.755371,4413.52002,4522.342773,4543.566406,4407.482422,4513.566406,4550.722656,4413.40332,4604.790039,4450.769043,4522.190918,4532.039551,4588.566406,4428.811035,4410.326172,4542.61084,4578.041992,4560.163086,4535.6875,4406.725098,4433.951172,4590.617676,4557.517578,4531.421875,4422.727051,4586.841309,4407.622559,4575.128418,4521.270508,4418.437988,4535.396484,4524.918457,2357.0,0.0,14.0,0.0,0.0,,,,0.0,4.0,4.0,4.0,4.0,4.0,4.0,4.0,4.0,4.0,4.0,4.0,4.0,4.0,4.0,4.0,4.0,4.0,4.0,4.0,4.0,4.0,4.0,4.0,4.0,4.0,4.0,4.0,4.0,4.0,4.0,4.0,4.0,100.0,,,,,,,,,,,,,,,,,,,,,,,,,,,,,,,,,,,,,,,,,,,,,,,,,,,,,,,,,,,,,,,,,,,,,,,,,,,,,,,,,,,,,,,,,,,,,,,,,,,,,,,,,,,,,,,,,,,,,,,,,,,,,,,,,,,,,,,,,,,,,,,,,,,,,,,,,,,,,,,,,,,,,,,,,,,,,,,,,,,,,,,,,,,,,,,,,,,,,,,,,,,,,,
1763975388.041349,59011.0,1.0,4404.76709,4409.347168,4518.916016,4540.081543,4404.580566,4512.901855,4546.445313,4409.626953,4599.964844,4438.974121,4517.71582,4526.899902,4583.415039,4424.54541,4404.883301,4535.22168,4571.59668,4553.40332,4529.195801,4404.347168,4428.542969,4584.3125,4551.188965,4526.562012,4418.274902,4584.324219,4404.603516,4569.743652,4517.541016,4415.594238,4532.202637,4520.734375,3049.0,0.0,14.0,0.0,0.0,,,,0.0,4.0,4.0,4.0,4.0,4.0,4.0,4.0,4.0,4.0,4.0,4.0,4.0,4.0,4.0,4.0,4.0,4.0,4.0,4.0,4.0,4.0,4.0,4.0,4.0,4.0,4.0,4.0,4.0,4.0,4.0,4.0,4.0,100.0,,,,,,,,,,,,,,,,,,,,,,,,,,,,,,,,,,,,,,,,,,,,,,,,,,,,,,,,,,,,,,,,,,,,,,,,,,,,,,,,,,,,,,,,,,,,,,,,,,,,,,,,,,,,,,,,,,,,,,,,,,,,,,,,,,,,,,,,,,,,,,,,,,,,,,,,,,,,,,,,,,,,,,,,,,,,,,,,,,,,,,,,,,,,,,,,,,,,,,,,,,,,,,
1763975388.045255,59012.0,1.0,4399.77832,4405.174805,4515.489746,4536.59668,4401.678223,4512.237793,4542.167969,4405.850586,4595.139648,4427.179688,4513.240234,4521.759766,4578.263184,4420.279785,4399.44043,4527.832031,4565.151367,4546.643555,4522.704102,4401.969727,4423.135254,4578.006836,4544.860352,4521.70166,4413.822754,4581.806641,4401.584961,4564.358887,4513.811035,4412.750488,4529.009277,4516.550293,2956.0,0.0,14.0,0.0,0.0,,,,0.0,4.0,4.0,4.0,4.0,4.0,4.0,4.0,4.0,4.0,4.0,4.0,4.0,4.0,4.0,4.0,4.0,4.0,4.0,4.0,4.0,4.0,4.0,4.0,4.0,4.0,4.0,4.0,4.0,4.0,4.0,4.0,4.0,100.0,,,,,,,,,,,,,,,,,,,,,,,,,,,,,,,,,,,,,,,,,,,,,,,,,,,,,,,,,,,,,,,,,,,,,,,,,,,,,,,,,,,,,,,,,,,,,,,,,,,,,,,,,,,,,,,,,,,,,,,,,,,,,,,,,,,,,,,,,,,,,,,,,,,,,,,,,,,,,,,,,,,,,,,,,,,,,,,,,,,,,,,,,,,,,,,,,,,,,,,,,,,,,,
1763975388.049161,59013.0,1.0,4394.790039,4401.002441,4512.062988,4533.111816,4398.776367,4511.573242,4537.890625,4402.074707,4590.314453,4415.384766,4508.764648,4516.620117,4573.111816,4416.01416,4393.997559,4520.442871,4558.706055,4539.883301,4516.211914,4399.592285,4417.727051,4571.70166,4538.53125,4516.841309,4409.370605,4579.289063,4398.566406,4558.974121,4510.081543,4409.906738,4525.815918,4512.366211,2505.0,0.0,14.0,0.0,0.0,,,,0.0,4.0,4.0,4.0,4.0,4.0,4.0,4.0,4.0,4.0,4.0,4.0,4.0,4.0,4.0,4.0,4.0,4.0,4.0,4.0,4.0,4.0,4.0,4.0,4.0,4.0,4.0,4.0,4.0,4.0,4.0,4.0,4.0,100.0,,,,,,,,,,,,,,,,,,,,,,,,,,,,,,,,,,,,,,,,,,,,,,,,,,,,,,,,,,,,,,,,,,,,,,,,,,,,,,,,,,,,,,,,,,,,,,,,,,,,,,,,,,,,,,,,,,,,,,,,,,,,,,,,,,,,,,,,,,,,,,,,,,,,,,,,,,,,,,,,,,,,,,,,,,,,,,,,,,,,,,,,,,,,,,,,,,,,,,,,,,,,,,
1763975388.053067,59014.0,1.0,4389.801758,4396.830078,4508.63623,4529.626953,4395.874023,4510.90918,4533.613281,4398.29834,4585.489746,4403.589844,4504.289063,4511.47998,4567.960449,4411.748047,4388.554688,4513.053711,4552.26123,4533.123535,4509.720215,4397.214355,4412.319336,4565.396484,4532.202637,4511.981445,4404.918457,4576.771484,4395.547852,4553.589844,4506.352051,4407.062988,4522.622559,4508.181641,3069.0,0.0,14.0,0.0,0.0,,,,0.0,4.0,4.0,4.0,4.0,4.0,4.0,4.0,4.0,4.0,4.0,4.0,4.0,4.0,4.0,4.0,4.0,4.0,4.0,4.0,4.0,4.0,4.0,4.0,4.0,4.0,4.0,4.0,4.0,4.0,4.0,4.0,4.0,100.0,,,,,,,,,,,,,,,,,,,,,,,,,,,,,,,,,,,,,,,,,,,,,,,,,,,,,,,,,,,,,,,,,,,,,,,,,,,,,,,,,,,,,,,,,,,,,,,,,,,,,,,,,,,,,,,,,,,,,,,,,,,,,,,,,,,,,,,,,,,,,,,,,,,,,,,,,,,,,,,,,,,,,,,,,,,,,,,,,,,,,,,,,,,,,,,,,,,,,,,,,,,,,,
1763975388.056973,59015.0,1.0,4384.813477,4392.657227,4505.209961,4526.14209,4392.972168,4510.244629,4529.335449,4394.521973,4580.664551,4391.794922,4499.813477,4506.340332,4562.809082,4407.482422,4383.111816,4505.664551,4545.815918,4526.36377,4503.228516,4394.836914,4406.911621,4559.09082,4525.874023,4507.121094,4400.466309,4574.253906,4392.529297,4548.205078,4502.622559,4404.219238,4519.428711,4503.997559,3051.0,0.0,14.0,0.0,0.0,,,,0.0,4.0,4.0,4.0,4.0,4.0,4.0,4.0,4.0,4.0,4.0,4.0,4.0,4.0,4.0,4.0,4.0,4.0,4.0,4.0,4.0,4.0,4.0,4.0,4.0,4.0,4.0,4.0,4.0,4.0,4.0,4.0,4.0,100.0,,,,,,,,,,,,,,,,,,,,,,,,,,,,,,,,,,,,,,,,,,,,,,,,,,,,,,,,,,,,,,,,,,,,,,,,,,,,,,,,,,,,,,,,,,,,,,,,,,,,,,,,,,,,,,,,,,,,,,,,,,,,,,,,,,,,,,,,,,,,,,,,,,,,,,,,,,,,,,,,,,,,,,,,,,,,,,,,,,,,,,,,,,,,,,,,,,,,,,,,,,,,,,
1763975388.060879,59016.0,1.0,4379.825195,4388.484863,4501.783203,4522.657227,4390.069824,4509.580566,4525.058105,4390.746094,4575.839355,4380.0,4495.337891,4501.200684,4557.657227,4403.216797,4377.668945,4498.274902,4539.370605,4519.603516,4496.736816,4392.458984,4401.503418,4552.785645,4519.54541,4502.26123,4396.01416,4571.736816,4389.510254,4542.820313,4498.892578,4401.375488,4516.235352,4499.813477,2730.0,0.0,14.0,0.0,0.0,,,,0.0,4.0,4.0,4.0,4.0,4.0,4.0,4.0,4.0,4.0,4.0,4.0,4.0,4.0,4.0,4.0,4.0,4.0,4.0,4.0,4.0,4.0,4.0,4.0,4.0,4.0,4.0,4.0,4.0,4.0,4.0,4.0,4.0,100.0,,,,,,,,,,,,,,,,,,,,,,,,,,,,,,,,,,,,,,,,,,,,,,,4.636681,17.011234,12.548991,8.574861,10.832952,7.55942,10.875404,11.200009,8.383998,10.825473,7.281814,10.068751,14.31668,10.112374,12.878687,4.329566,7.151932,13.245261,9.921388,12.343884,2.835588,6.146579,8.704945,5.843985,8.22709,2.89326,6.324848,6.912149,5.327215,6.887692,3.826614,8.972054,11.110289,7.954597,10.276754,2.956031,7.13896,11.530992,8.881282,12.228954,3.591962,5.041064,8.864216,8.740637,11.875646,2.662591,4.839619,7.502875,23.843746,14.958256,2.530077,5.694178,9.789257,7.588341,10.332819,4.173707,17.912916,11.819156,8.435098,10.383111,3.150277,16.614872,13.482192,9.87003,11.890244,0.604719,3.210649,6.854957,6.124584,8.523926,1.602787,5.71007,7.184689,8.873837,10.700162,2.270233,23.670084,23.199677,11.215744,12.645704,2.995583,35.640198,14.519982,9.419688,10.467202,1.310177,26.263626,24.950098,14.227122,13.196963,1.200693,30.718355,29.049971,13.709362,15.177503,4.525853,13.179314,16.882751,11.951823,11.991787,2.224725,20.377022,15.636099,10.716683,12.142626,2.443403,45.13813,21.657091,11.222482,12.954589,4.333003,32.034832,16.793077,10.653423,12.642303,2.536357,27.051149,16.8659,11.111445,12.044669,3.793001,21.460344,17.287327,15.531833,15.13014,5.029915,14.579557,16.289722,11.430198,13.160954,6.041767,15.53976,16.413052,10.787766,12.557256,4.075625,20.971886,16.241547,10.276349,12.470784,4.628533,14.742661,13.672038,8.930532,10.740183,6.627941,12.994584,14.495783,10.287738,12.134068,6.591943,13.121785,15.825034,11.493776,12.88165,7.766107,12.553312,14.710958,10.655581,12.20731
1763975388.064785,59017.0,1.0,4374.836914,4384.3125,4498.356445,4519.172363,4387.167969,4508.916016,4520.780762,4386.969727,4571.01416,4368.205078,4490.862305,4496.060547,4552.505859,4398.951172,4372.226074,4490.885742,4532.925293,4512.84375,4490.244629,4390.081543,4396.095703,4546.47998,4513.216797,4497.400879,4391.562012,4569.219238,4386.491699,4537.436035,4495.163086,4398.53125,4513.041992,4495.629395,2913.0,0.0,14.0,0.0,0.0,,,,0.0,4.0,4.0,4.0,4.0,4.0,4.0,4.0,4.0,4.0,4.0,4.0,4.0,4.0,4.0,4.0,4.0,4.0,4.0,4.0,4.0,4.0,4.0,4.0,4.0,4.0,4.0,4.0,4.0,4.0,4.0,4.0,4.0,100.0,,,,,,,,,,,,,,,,,,,,,,,,,,,,,,,,,,,31137.0,1.0,0.48414,0.296265,0.211283,0.795736,0.897408,-0.443413,0.048671,37.222221,-19.222221,-26.333334,,,,,,,,,,,,,,,,,,,,,,,,,,,,,,,,,,,,,,,,,,,,,,,,,,,,,,,,,,,,,,,,,,,,,,,,,,,,,,,,,,,,,,,,,,,,,,,,,,,,,,,,,,,,,,,,,,,,,,,,,,,,,,,,,,,,,,,,,,,,,,,,,,,,,,,,,,,,,,,,
1763975388.068691,59018.0,1.0,4369.848633,4380.139648,4494.930176,4515.6875,4384.265625,4508.251953,4516.503418,4383.193359,4566.188965,4356.410156,4486.386719,4490.920898,4547.354492,4394.685547,4366.783203,4483.496582,4526.47998,4506.083984,4483.75293,4387.704102,4390.6875,4540.174805,4506.888184,4492.541016,4387.109375,4566.70166,4383.473145,4532.05127,4491.433594,4395.6875,4509.848633,4491.445313,2770.0,0.0,14.0,0.0,0.0,,,,0.0,4.0,4.0,4.0,4.0,4.0,4.0,4.0,4.0,4.0,4.0,4.0,4.0,4.0,4.0,4.0,4.0,4.0,4.0,4.0,4.0,4.0,4.0,4.0,4.0,4.0,4.0,4.0,4.0,4.0,4.0,4.0,4.0,100.0,,,,,,,,,,,,,,,,,,,,,,,,,,,,,,,,,,,,,,,,,,,,,,,,,,,,,,,,,,,,,,,,,,,,,,,,,,,,,,,,,,,,,,,,,,,,,,,,,,,,,,,,,,,,,,,,,,,,,,,,,,,,,,,,,,,,,,,,,,,,,,,,,,,,,,,,,,,,,,,,,,,,,,,,,,,,,,,,,,,,,,,,,,,,,,,,,,,,,,,,,,,,,,
1763975388.072597,59019.0,1.0,4364.860352,4375.967285,4491.503418,4512.202637,4381.36377,4507.587402,4512.226074,4379.41748,4561.36377,4344.615234,4481.911621,4485.780762,4542.202637,4390.419434,4361.340332,4476.107422,4520.035156,4499.324219,4477.26123,4385.326172,4385.279785,4533.869629,4500.55957,4487.680664,4382.657227,4564.184082,4380.45459,4526.666504,4487.704102,4392.84375,4506.654785,4487.26123,3069.0,0.0,14.0,0.0,0.0,,,,0.0,4.0,4.0,4.0,4.0,4.0,4.0,4.0,4.0,4.0,4.0,4.0,4.0,4.0,4.0,4.0,4.0,4.0,4.0,4.0,4.0,4.0,4.0,4.0,4.0,4.0,4.0,4.0,4.0,4.0,4.0,4.0,4.0,100.0,,,,,,,,,,,,,,,,,,,,,,,,,,,,,,,,,,,31138.0,1.0,0.484026,0.296204,0.211324,0.795817,0.896268,-0.440483,0.054369,37.111111,-19.611111,-26.333334,,,,,,,,,,,,,,,,,,,,,,,,,,,,,,,,,,,,,,,,,,,,,,,,,,,,,,,,,,,,,,,,,,,,,,,,,,,,,,,,,,,,,,,,,,,,,,,,,,,,,,,,,,,,,,,,,,,,,,,,,,,,,,,,,,,,,,,,,,,,,,,,,,,,,,,,,,,,,,,,
1763975388.076503,59020.0,0.0,4359.871582,4371.794922,4488.077148,4508.717773,4378.461426,4506.922852,4507.94873,4375.641113,4556.538574,4332.820313,4477.436035,4480.641113,4537.05127,4386.153809,4355.897461,4468.717773,4513.589844,4492.563965,4470.769043,4382.94873,4379.871582,4527.563965,4494.230957,4482.820313,4378.205078,4561.666504,4377.436035,4521.282227,4483.974121,4390.0,4503.461426,4483.077148,2930.0,0.0,14.0,2575.0,59880.0,,,,0.0,4.0,4.0,4.0,4.0,4.0,4.0,4.0,4.0,4.0,4.0,4.0,4.0,4.0,4.0,4.0,4.0,4.0,4.0,4.0,4.0,4.0,4.0,4.0,4.0,4.0,4.0,4.0,4.0,4.0,4.0,4.0,4.0,100.0,,,,,,,,,,,,,,,,,,,,,,,,,,,,,,,,,,,,,,,,,,,,,,,,,,,,,,,,,,,,,,,,,,,,,,,,,,,,,,,,,,,,,,,,,,,,,,,,,,,,,,,,,,,,,,,,,,,,,,,,,,,,,,,,,,,,,,,,,,,,,,,,,,,,,,,,,,,,,,,,,,,,,,,,,,,,,,,,,,,,,,,,,,,,,,,,,,,,,,,,,,,,,,
1763975388.080409,59021.0,0.0,4395.0,4408.589844,4525.641113,4543.461426,4408.205078,4542.692383,4542.307617,4411.666504,4587.563965,4373.333496,4511.538574,4514.871582,4574.230957,4413.717773,4390.384766,4513.333496,4546.538574,4531.922852,4501.410156,4423.077148,4411.025879,4562.692383,4530.128418,4518.333496,4429.743652,4609.358887,4412.307617,4557.179688,4519.743652,4429.615234,4548.461426,4524.358887,2705.0,0.0,14.0,2575.0,59880.0,,,,0.0,4.0,4.0,4.0,4.0,4.0,4.0,4.0,4.0,4.0,4.0,4.0,4.0,4.0,4.0,4.0,4.0,4.0,4.0,4.0,4.0,4.0,4.0,4.0,4.0,4.0,4.0,4.0,4.0,4.0,4.0,4.0,4.0,100.0,,,,,,,,,,,,,,,,,,,,,,,,,,,,,,,,,,,31139.0,0.0,0.483911,0.296143,0.211365,0.795898,0.895129,-0.437553,0.060066,37.0,-20.0,-26.333334,,,,,,,,,,,,,,,,,,,,,,,,,,,,,,,,,,,,,,,,,,,,,,,,,,,,,,,,,,,,,,,,,,,,,,,,,,,,,,,,,,,,,,,,,,,,,,,,,,,,,,,,,,,,,,,,,,,,,,,,,,,,,,,,,,,,,,,,,,,,,,,,,,,,,,,,,,,,,,,,
1763975388.084315,59022.0,0.0,4423.717773,4438.846191,4557.94873,4573.974121,4433.589844,4570.512695,4572.563965,4442.179688,4616.153809,4427.563965,4540.897461,4544.358887,4605.897461,4438.461426,4425.512695,4548.846191,4576.538574,4565.897461,4536.025879,4448.974121,4439.102539,4595.128418,4560.897461,4547.179688,4466.922852,4642.692383,4439.358887,4590.256348,4547.820313,4460.256348,4582.94873,4559.358887,2713.0,0.0,14.0,2575.0,59888.0,,,,0.0,4.0,4.0,4.0,4.0,4.0,4.0,4.0,4.0,4.0,4.0,4.0,4.0,4.0,4.0,4.0,4.0,4.0,4.0,4.0,4.0,4.0,4.0,4.0,4.0,4.0,4.0,4.0,4.0,4.0,4.0,4.0,4.0,100.0,,,,,,,,,,,,,,,,,,,,,,,,,,,,,,,,,,,,,,,,,,,,,,,,,,,,,,,,,,,,,,,,,,,,,,,,,,,,,,,,,,,,,,,,,,,,,,,,,,,,,,,,,,,,,,,,,,,,,,,,,,,,,,,,,,,,,,,,,,,,,,,,,,,,,,,,,,,,,,,,,,,,,,,,,,,,,,,,,,,,,,,,,,,,,,,,,,,,,,,,,,,,,,
1763975388.088221,59023.0,0.0,4428.077148,4443.333496,4564.487305,4580.641113,4438.205078,4574.871582,4578.846191,4446.794922,4623.333496,4460.897461,4546.282227,4549.743652,4610.641113,4442.436035,4437.436035,4548.717773,4583.589844,4571.922852,4552.307617,4445.512695,4444.871582,4604.615234,4567.179688,4551.282227,4467.05127,4640.769043,4441.025879,4600.0,4550.769043,4463.333496,4586.922852,4567.307617,2829.0,0.0,14.0,2575.0,59888.0,,,,0.0,4.0,4.0,4.0,4.0,4.0,4.0,4.0,4.0,4.0,4.0,4.0,4.0,4.0,4.0,4.0,4.0,4.0,4.0,4.0,4.0,4.0,4.0,4.0,4.0,4.0,4.0,4.0,4.0,4.0,4.0,4.0,4.0,100.0,,,,,,,,,,,,,,,,,,,,,,,,,,,,,,,,,,,,,,,,,,,,,,,,,,,,,,,,,,,,,,,,,,,,,,,,,,,,,,,,,,,,,,,,,,,,,,,,,,,,,,,,,,,,,,,,,,,,,,,,,,,,,,,,,,,,,,,,,,,,,,,,,,,,,,,,,,,,,,,,,,,,,,,,,,,,,,,,,,,,,,,,,,,,,,,,,,,,,,,,,,,,,,
1763975388.092127,59024.0,0.0,4409.743652,4422.307617,4543.589844,4561.410156,4421.538574,4557.179688,4559.743652,4424.102539,4605.897461,4453.589844,4526.025879,4530.128418,4587.307617,4423.205078,4418.974121,4513.974121,4566.025879,4548.589844,4542.94873,4417.563965,4426.153809,4588.974121,4548.846191,4531.538574,4433.589844,4607.307617,4418.717773,4583.846191,4530.512695,4440.641113,4561.666504,4546.666504,2928.0,0.0,14.0,2572.0,59895.0,,,,0.0,4.0,4.0,4.0,4.0,4.0,4.0,4.0,4.0,4.0,4.0,4.0,4.0,4.0,4.0,4.0,4.0,4.0,4.0,4.0,4.0,4.0,4.0,4.0,4.0,4.0,4.0,4.0,4.0,4.0,4.0,4.0,4.0,100.0,,,,,,,,,,,,,,,,,,,,,,,,,,,,,,,,,,,,,,,,,,,,,,,,,,,,,,,,,,,,,,,,,,,,,,,,,,,,,,,,,,,,,,,,,,,,,,,,,,,,,,,,,,,,,,,,,,,,,,,,,,,,,,,,,,,,,,,,,,,,,,,,,,,,,,,,,,,,,,,,,,,,,,,,,,,,,,,,,,,,,,,,,,,,,,,,,,,,,,,,,,,,,,
1763975388.096033,59025.0,0.0,4385.641113,4393.205078,4511.666504,4530.897461,4397.05127,4532.436035,4531.282227,4391.666504,4576.794922,4411.794922,4495.897461,4502.179688,4553.974121,4394.871582,4382.94873,4471.666504,4540.128418,4516.538574,4520.512695,4383.974121,4397.94873,4564.358887,4523.846191,4504.871582,4391.282227,4565.641113,4390.256348,4557.179688,4504.615234,4410.769043,4527.179688,4514.102539,3025.0,0.0,14.0,2572.0,59895.0,,,,0.0,4.0,4.0,4.0,4.0,4.0,4.0,4.0,4.0,4.0,4.0,4.0,4.0,4.0,4.0,4.0,4.0,4.0,4.0,4.0,4.0,4.0,4.0,4.0,4.0,4.0,4.0,4.0,4.0,4.0,4.0,4.0,4.0,100.0,,,,,,,,,,,,,,,,,,,,,,,,,,,,,,,,,,,31140.0,0.0,0.483922,0.296082,0.211426,0.795898,0.882432,-0.43853,0.071298,36.333332,-20.666666,-25.333334,,,,,,,,,,,,,,,,,,,,,,,,,,,,,,,,,,,,,,,,,,,,,,,,,,,,,,,,,,,,,,,,,,,,,,,,,,,,,,,,,,,,,,,,,,,,,,,,,,,,,,,,,,,,,,,,,,,,,,,,,,,,,,,,,,,,,,,,,,,,,,,,,,,,,,,,,,,,,,,,
1763975388.099939,59026.0,0.0,4373.717773,4375.769043,4489.487305,4508.589844,4381.025879,4515.641113,4512.820313,4370.256348,4554.102539,4362.436035,4475.384766,4485.384766,4533.333496,4375.897461,4351.538574,4452.307617,4525.769043,4500.769043,4504.743652,4362.692383,4379.102539,4550.256348,4511.794922,4490.128418,4366.538574,4540.769043,4374.871582,4539.487305,4491.282227,4393.589844,4505.384766,4490.256348,2799.0,0.0,14.0,2572.0,59903.0,,,,0.0,4.0,4.0,4.0,4.0,4.0,4.0,4.0,4.0,4.0,4.0,4.0,4.0,4.0,4.0,4.0,4.0,4.0,4.0,4.0,4.0,4.0,4.0,4.0,4.0,4.0,4.0,4.0,4.0,4.0,4.0,4.0,4.0,100.0,,,,,,,,,,,,,,,,,,,,,,,,,,,,,,,,,,,,,,,,,,,,,,,,,,,,,,,,,,,,,,,,,,,,,,,,,,,,,,,,,,,,,,,,,,,,,,,,,,,,,,,,,,,,,,,,,,,,,,,,,,,,,,,,,,,,,,,,,,,,,,,,,,,,,,,,,,,,,,,,,,,,,,,,,,,,,,,,,,,,,,,,,,,,,,,,,,,,,,,,,,,,,,
1763975388.103845,59027.0,0.0,4380.769043,4378.461426,4487.94873,4505.128418,4381.025879,4512.94873,4513.717773,4370.128418,4548.974121,4335.641113,4474.743652,4489.230957,4536.282227,4376.282227,4342.05127,4468.077148,4532.436035,4511.153809,4507.563965,4361.666504,4379.871582,4556.282227,4520.769043,4495.256348,4370.512695,4542.436035,4379.358887,4541.538574,4497.563965,4396.922852,4506.153809,4486.153809,3003.0,0.0,14.0,2572.0,59903.0,,,,0.0,4.0,4.0,4.0,4.0,4.0,4.0,4.0,4.0,4.0,4.0,4.0,4.0,4.0,4.0,4.0,4.0,4.0,4.0,4.0,4.0,4.0,4.0,4.0,4.0,4.0,4.0,4.0,4.0,4.0,4.0,4.0,4.0,100.0,,,,,,,,,,,,,,,,,,,,,,,,,,,,,,,,,,,,,,,,,,,,,,,,,,,,,,,,,,,,,,,,,,,,,,,,,,,,,,,,,,,,,,,,,,,,,,,,,,,,,,,,,,,,,,,,,,,,,,,,,,,,,,,,,,,,,,,,,,,,,,,,,,,,,,,,,,,,,,,,,,,,,,,,,,,,,,,,,,,,,,,,,,,,,,,,,,,,,,,,,,,,,,
1763975388.107751,59028.0,0.0,4400.641113,4396.153809,4504.230957,4519.743652,4394.358887,4520.256348,4530.384766,4387.179688,4561.794922,4349.358887,4492.05127,4508.974121,4558.077148,4394.102539,4358.333496,4506.538574,4554.358887,4537.179688,4523.717773,4377.563965,4397.820313,4577.436035,4544.230957,4515.0,4395.256348,4563.077148,4397.692383,4560.256348,4517.692383,4415.769043,4524.358887,4500.128418,2977.0,0.0,14.0,2573.0,59911.0,,,,0.0,4.0,4.0,4.0,4.0,4.0,4.0,4.0,4.0,4.0,4.0,4.0,4.0,4.0,4.0,4.0,4.0,4.0,4.0,4.0,4.0,4.0,4.0,4.0,4.0,4.0,4.0,4.0,4.0,4.0,4.0,4.0,4.0,100.0,,,,,,,,,,,,,,,,,,,,,,,,,,,,,,,,,,,,,,,,,,,,,,,,,,,,,,,,,,,,,,,,,,,,,,,,,,,,,,,,,,,,,,,,,,,,,,,,,,,,,,,,,,,,,,,,,,,,,,,,,,,,,,,,,,,,,,,,,,,,,,,,,,,,,,,,,,,,,,,,,,,,,,,,,,,,,,,,,,,,,,,,,,,,,,,,,,,,,,,,,,,,,,
1763975388.111657,59029.0,0.0,4422.05127,4417.307617,4527.563965,4542.820313,4412.05127,4530.256348,4552.05127,4409.102539,4584.743652,4398.461426,4517.307617,4532.563965,4584.487305,4419.358887,4391.025879,4543.717773,4578.333496,4559.615234,4539.102539,4400.897461,4422.05127,4601.153809,4568.717773,4537.820313,4423.077148,4587.307617,4418.461426,4584.358887,4539.871582,4438.333496,4547.820313,4522.05127,2913.0,0.0,14.0,2573.0,59911.0,,,,0.0,4.0,4.0,4.0,4.0,4.0,4.0,4.0,4.0,4.0,4.0,4.0,4.0,4.0,4.0,4.0,4.0,4.0,4.0,4.0,4.0,4.0,4.0,4.0,4.0,4.0,4.0,4.0,4.0,4.0,4.0,4.0,4.0,100.0,,,,,,,,,,,,,,,,,,,,,,,,,,,,,,,,,,,31141.0,0.0,0.483757,0.296265,0.211548,0.795898,0.89171,-0.452692,0.065926,38.0,-21.0,-25.333334,,,,,,,,,,,,,,,,,,,,,,,,,,,,,,,,,,,,,,,,,,,,,,,,,,,,,,,,,,,,,,,,,,,,,,,,,,,,,,,,,,,,,,,,,,,,,,,,,,,,,,,,,,,,,,,,,,,,,,,,,,,,,,,,,,,,,,,,,,,,,,,,,,,,,,,,,,,,,,,,
1763975388.115563,59030.0,0.0,4436.282227,4432.436035,4546.538574,4563.461426,4425.641113,4537.820313,4568.589844,4424.615234,4607.692383,4456.153809,4538.846191,4549.230957,4602.692383,4440.897461,4423.846191,4561.666504,4593.717773,4566.153809,4543.333496,4422.436035,4441.410156,4616.153809,4583.333496,4553.974121,4440.769043,4603.333496,4433.205078,4602.692383,4554.358887,4454.487305,4565.384766,4540.897461,2990.0,0.0,14.0,2570.0,59919.0,,,,0.0,4.0,4.0,4.0,4.0,4.0,4.0,4.0,4.0,4.0,4.0,4.0,4.0,4.0,4.0,4.0,4.0,4.0,4.0,4.0,4.0,4.0,4.0,4.0,4.0,4.0,4.0,4.0,4.0,4.0,4.0,4.0,4.0,100.0,,,,,,,,,,,,,,,,,,,,,,,,,,,,,,,,,,,,,,,,,,,,,,,,,,,,,,,,,,,,,,,,,,,,,,,,,,,,,,,,,,,,,,,,,,,,,,,,,,,,,,,,,,,,,,,,,,,,,,,,,,,,,,,,,,,,,,,,,,,,,,,,,,,,,,,,,,,,,,,,,,,,,,,,,,,,,,,,,,,,,,,,,,,,,,,,,,,,,,,,,,,,,,
1763975388.119469,59031.0,0.0,4439.871582,4437.307617,4555.0,4573.461426,4430.769043,4540.897461,4575.641113,4429.358887,4621.666504,4489.871582,4549.230957,4554.102539,4607.05127,4450.769043,4441.666504,4558.589844,4597.307617,4558.846191,4537.94873,4434.487305,4448.846191,4618.461426,4584.871582,4559.743652,4445.128418,4607.179688,4438.333496,4609.102539,4557.94873,4459.615234,4571.666504,4549.102539,2923.0,0.0,14.0,2570.0,59919.0,,,,0.0,4.0,4.0,4.0,4.0,4.0,4.0,4.0,4.0,4.0,4.0,4.0,4.0,4.0,4.0,4.0,4.0,4.0,4.0,4.0,4.0,4.0,4.0,4.0,4.0,4.0,4.0,4.0,4.0,4.0,4.0,4.0,4.0,100.0,,,,,,,,,,,,,,,,,,,,,,,,,,,,,,,,,,,,,,,,,,,,,,,,,,,,,,,,,,,,,,,,,,,,,,,,,,,,,,,,,,,,,,,,,,,,,,,,,,,,,,,,,,,,,,,,,,,,,,,,,,,,,,,,,,,,,,,,,,,,,,,,,,,,,,,,,,,,,,,,,,,,,,,,,,,,,,,,,,,,,,,,,,,,,,,,,,,,,,,,,,,,,,
1763975388.123375,59032.0,0.0,4433.589844,4432.307617,4551.666504,4570.0,4427.307617,4538.974121,4573.077148,4424.871582,4621.922852,4480.512695,4546.153809,4547.820313,4599.358887,4445.897461,4437.179688,4543.846191,4591.538574,4547.179688,4529.871582,4432.820313,4443.077148,4610.0,4576.025879,4554.871582,4440.128418,4601.153809,4433.974121,4602.436035,4551.666504,4453.333496,4566.025879,4544.615234,2880.0,0.0,14.0,2571.0,59927.0,,,,0.0,4.0,4.0,4.0,4.0,4.0,4.0,4.0,4.0,4.0,4.0,4.0,4.0,4.0,4.0,4.0,4.0,4.0,4.0,4.0,4.0,4.0,4.0,4.0,4.0,4.0,4.0,4.0,4.0,4.0,4.0,4.0,4.0,100.0,,,,,,,,,,,,,,,,,,,,,,,,,,,,,,,,,,,,,,,,,,,,,,,,,,,,,,,,,,,,,,,,,,,,,,,,,,,,,,,,,,,,,,,,,,,,,,,,,,,,,,,,,,,,,,,,,,,,,,,,,,,,,,,,,,,,,,,,,,,,,,,,,,,,,,,,,,,,,,,,,,,,,,,,,,,,,,,,,,,,,,,,,,,,,,,,,,,,,,,,,,,,,,
1763975388.127281,59033.0,0.0,4419.102539,4419.230957,4538.461426,4555.0,4416.666504,4531.538574,4562.179688,4414.358887,4609.102539,4432.563965,4530.897461,4532.692383,4583.077148,4427.820313,4412.563965,4527.692383,4579.102539,4535.897461,4520.897461,4417.179688,4426.538574,4593.077148,4560.512695,4539.615234,4429.102539,4588.461426,4420.769043,4585.0,4537.94873,4437.820313,4550.641113,4529.102539,2837.0,0.0,14.0,2571.0,59927.0,,,,0.0,4.0,4.0,4.0,4.0,4.0,4.0,4.0,4.0,4.0,4.0,4.0,4.0,4.0,4.0,4.0,4.0,4.0,4.0,4.0,4.0,4.0,4.0,4.0,4.0,4.0,4.0,4.0,4.0,4.0,4.0,4.0,4.0,100.0,,,,,,,,,,,,,,,,,,,,,,,,,,,,,,,,,,,31142.0,0.0,0.483897,0.295837,0.211365,0.796021,0.901477,-0.435112,0.067391,35.0,-20.666666,-27.5,,,,,,,,,,,,,,,,,,,,,,,,,,,,,,,,,,,,,,,,,,,,,,,,,,,,,,,,,,,,,,,,,,,,,,,,,,,,,,,,,,,,,,,,,,,,,,,,,,,,,,,,,,,,,,,,,,,,,,,,,,,,,,,,,,,,,,,,,,,,,,,,,,,,,,,,,,,,,,,,
1763975388.131187,59034.0,0.0,4398.077148,4400.769043,4518.333496,4533.333496,4400.897461,4518.717773,4544.487305,4400.0,4587.563965,4368.333496,4508.077148,4511.538574,4561.153809,4400.897461,4377.563965,4512.692383,4560.128418,4522.436035,4505.512695,4391.794922,4402.692383,4568.589844,4539.871582,4515.256348,4410.384766,4571.025879,4401.025879,4560.769043,4518.461426,4416.282227,4529.871582,4507.05127,2791.0,0.0,14.0,2572.0,59934.0,,,,0.0,4.0,4.0,4.0,4.0,4.0,4.0,4.0,4.0,4.0,4.0,4.0,4.0,4.0,4.0,4.0,4.0,4.0,4.0,4.0,4.0,4.0,4.0,4.0,4.0,4.0,4.0,4.0,4.0,4.0,4.0,4.0,4.0,100.0,,,,,,,,,,,,,,,,,,,,,,,,,,,,,,,,,,,,,,,,,,,,,,,,,,,,,,,,,,,,,,,,,,,,,,,,,,,,,,,,,,,,,,,,,,,,,,,,,,,,,,,,,,,,,,,,,,,,,,,,,,,,,,,,,,,,,,,,,,,,,,,,,,,,,,,,,,,,,,,,,,,,,,,,,,,,,,,,,,,,,,,,,,,,,,,,,,,,,,,,,,,,,,
1763975388.135093,59035.0,0.0,4374.743652,4381.025879,4496.794922,4512.307617,4383.205078,4503.205078,4523.333496,4384.487305,4566.025879,4315.897461,4484.743652,4488.333496,4537.563965,4373.589844,4346.153809,4497.94873,4536.282227,4504.358887,4481.025879,4365.256348,4377.179688,4539.487305,4516.538574,4486.410156,4383.205078,4552.05127,4379.615234,4535.512695,4497.05127,4394.102539,4510.0,4485.512695,2984.0,0.0,14.0,2572.0,59934.0,,,,0.0,4.0,4.0,4.0,4.0,4.0,4.0,4.0,4.0,4.0,4.0,4.0,4.0,4.0,4.0,4.0,4.0,4.0,4.0,4.0,4.0,4.0,4.0,4.0,4.0,4.0,4.0,4.0,4.0,4.0,4.0,4.0,4.0,100.0,,,,,,,,,,,,,,,,,,,,,,,,,,,,,,,,,,,,,,,,,,,,,,,,,,,,,,,,,,,,,,,,,,,,,,,,,,,,,,,,,,,,,,,,,,,,,,,,,,,,,,,,,,,,,,,,,,,,,,,,,,,,,,,,,,,,,,,,,,,,,,,,,,,,,,,,,,,,,,,,,,,,,,,,,,,,,,,,,,,,,,,,,,,,,,,,,,,,,,,,,,,,,,
1763975388.138999,59036.0,0.0,4356.410156,4366.794922,4481.153809,4500.128418,4369.871582,4491.025879,4506.025879,4372.692383,4553.974121,4297.436035,4470.512695,4470.512695,4520.256348,4357.179688,4331.666504,4487.05127,4514.487305,4487.692383,4456.922852,4347.307617,4358.589844,4514.230957,4496.410156,4463.333496,4354.487305,4537.563965,4364.358887,4517.820313,4480.769043,4379.102539,4498.461426,4472.692383,2940.0,0.0,14.0,2573.0,59942.0,,,,0.0,4.0,4.0,4.0,4.0,4.0,4.0,4.0,4.0,4.0,4.0,4.0,4.0,4.0,4.0,4.0,4.0,4.0,4.0,4.0,4.0,4.0,4.0,4.0,4.0,4.0,4.0,4.0,4.0,4.0,4.0,4.0,4.0,100.0,,,,,,,,,,,,,,,,,,,,,,,,,,,,,,,,,,,,,,,,,,,,,,,,,,,,,,,,,,,,,,,,,,,,,,,,,,,,,,,,,,,,,,,,,,,,,,,,,,,,,,,,,,,,,,,,,,,,,,,,,,,,,,,,,,,,,,,,,,,,,,,,,,,,,,,,,,,,,,,,,,,,,,,,,,,,,,,,,,,,,,,,,,,,,,,,,,,,,,,,,,,,,,
1763975388.142905,59037.0,0.0,4351.153809,4365.128418,4477.820313,4502.436035,4367.307617,4488.974121,4501.153809,4370.256348,4557.307617,4320.384766,4472.692383,4466.794922,4518.589844,4360.897461,4340.384766,4488.974121,4505.0,4484.871582,4450.384766,4344.615234,4355.512695,4504.871582,4488.205078,4456.153809,4338.461426,4534.615234,4361.666504,4514.358887,4477.179688,4377.563965,4500.0,4473.974121,2807.0,0.0,14.0,2573.0,59942.0,,,,0.0,4.0,4.0,4.0,4.0,4.0,4.0,4.0,4.0,4.0,4.0,4.0,4.0,4.0,4.0,4.0,4.0,4.0,4.0,4.0,4.0,4.0,4.0,4.0,4.0,4.0,4.0,4.0,4.0,4.0,4.0,4.0,4.0,100.0,,,,,,,,,,,,,,,,,,,,,,,,,,,,,,,,,,,31143.0,0.0,0.484005,0.295715,0.21106,0.796082,0.905384,-0.452692,0.047369,35.5,-20.666666,-25.333334,,,,,,,,,,,,,,,,,,,,,,,,,,,,,,,,,,,,,,,,,,,,,,,,,,,,,,,,,,,,,,,,,,,,,,,,,,,,,,,,,,,,,,,,,,,,,,,,,,,,,,,,,,,,,,,,,,,,,,,,,,,,,,,,,,,,,,,,,,,,,,,,,,,,,,,,,,,,,,,,
1763975388.146811,59038.0,0.0,4361.538574,4377.563965,4488.717773,4518.077148,4377.563965,4499.358887,4512.05127,4379.230957,4574.230957,4372.436035,4491.410156,4480.128418,4536.282227,4385.128418,4367.94873,4508.974121,4514.358887,4503.205078,4471.666504,4357.179688,4370.384766,4518.205078,4496.538574,4468.846191,4346.538574,4545.384766,4372.307617,4526.153809,4488.717773,4390.0,4513.717773,4487.692383,3011.0,0.0,14.0,2574.0,59950.0,,,,0.0,4.0,4.0,4.0,4.0,4.0,4.0,4.0,4.0,4.0,4.0,4.0,4.0,4.0,4.0,4.0,4.0,4.0,4.0,4.0,4.0,4.0,4.0,4.0,4.0,4.0,4.0,4.0,4.0,4.0,4.0,4.0,4.0,100.0,,,,,,,,,,,,,,,,,,,,,,,,,,,,,,,,,,,,,,,,,,,,,,,,,,,,,,,,,,,,,,,,,,,,,,,,,,,,,,,,,,,,,,,,,,,,,,,,,,,,,,,,,,,,,,,,,,,,,,,,,,,,,,,,,,,,,,,,,,,,,,,,,,,,,,,,,,,,,,,,,,,,,,,,,,,,,,,,,,,,,,,,,,,,,,,,,,,,,,,,,,,,,,
1763975388.150717,59039.0,0.0,4383.333496,4399.615234,4510.0,4540.0,4396.922852,4518.717773,4534.615234,4396.538574,4596.410156,4428.461426,4518.974121,4505.769043,4567.307617,4419.743652,4401.922852,4541.025879,4539.743652,4536.666504,4514.102539,4379.358887,4397.179688,4549.230957,4518.846191,4495.641113,4378.846191,4566.538574,4391.922852,4548.077148,4510.512695,4410.897461,4533.974121,4507.820313,2924.0,0.0,14.0,2574.0,59950.0,,,,0.0,4.0,4.0,4.0,4.0,4.0,4.0,4.0,4.0,4.0,4.0,4.0,4.0,4.0,4.0,4.0,4.0,4.0,4.0,4.0,4.0,4.0,4.0,4.0,4.0,4.0,4.0,4.0,4.0,4.0,4.0,4.0,4.0,100.0,,,,,,,,,,,,,,,,,,,,,,,,,,,,,,,,,,,,,,,,,,,,,,,,,,,,,,,,,,,,,,,,,,,,,,,,,,,,,,,,,,,,,,,,,,,,,,,,,,,,,,,,,,,,,,,,,,,,,,,,,,,,,,,,,,,,,,,,,,,,,,,,,,,,,,,,,,,,,,,,,,,,,,,,,,,,,,,,,,,,,,,,,,,,,,,,,,,,,,,,,,,,,,
1763975388.154623,59040.0,0.0,4407.94873,4423.717773,4534.871582,4560.384766,4418.205078,4539.615234,4560.128418,4416.282227,4616.153809,4467.05127,4544.871582,4533.846191,4598.846191,4450.128418,4428.846191,4569.102539,4570.384766,4568.717773,4557.05127,4404.358887,4425.897461,4583.717773,4546.025879,4526.025879,4423.077148,4591.410156,4413.846191,4572.692383,4535.0,4433.461426,4555.256348,4528.333496,2851.0,0.0,14.0,2575.0,59958.0,,,,0.0,4.0,4.0,4.0,4.0,4.0,4.0,4.0,4.0,4.0,4.0,4.0,4.0,4.0,4.0,4.0,4.0,4.0,4.0,4.0,4.0,4.0,4.0,4.0,4.0,4.0,4.0,4.0,4.0,4.0,4.0,4.0,4.0,100.0,,,,,,,,,,,,,,,,,,,,,,,,,,,,,,,,,,,,,,,,,,,,,,,,,,,,,,,,,,,,,,,,,,,,,,,,,,,,,,,,,,,,,,,,,,,,,,,,,,,,,,,,,,,,,,,,,,,,,,,,,,,,,,,,,,,,,,,,,,,,,,,,,,,,,,,,,,,,,,,,,,,,,,,,,,,,,,,,,,,,,,,,,,,,,,,,,,,,,,,,,,,,,,
1763975388.158529,59041.0,0.0,4425.641113,4443.077148,4556.282227,4575.128418,4433.846191,4554.358887,4580.384766,4432.94873,4630.128418,4481.153809,4561.153809,4554.230957,4619.230957,4465.256348,4441.153809,4576.666504,4593.077148,4583.717773,4579.230957,4426.666504,4446.922852,4606.794922,4566.922852,4549.487305,4461.922852,4613.974121,4432.692383,4593.077148,4554.487305,4451.922852,4573.974121,4545.512695,2876.0,0.0,14.0,2575.0,59958.0,,,,0.0,4.0,4.0,4.0,4.0,4.0,4.0,4.0,4.0,4.0,4.0,4.0,4.0,4.0,4.0,4.0,4.0,4.0,4.0,4.0,4.0,4.0,4.0,4.0,4.0,4.0,4.0,4.0,4.0,4.0,4.0,4.0,4.0,100.0,,,,,,,,,,,,,,,,,,,,,,,,,,,,,,,,,,,31144.0,0.0,0.484047,0.295776,0.210876,0.796082,0.912709,-0.439995,0.0293,35.833332,-20.666666,-24.5,,,,,,,,,,,,,,,,,,,,,,,,,,,,,,,,,,,,,,,,,,,,,,,,,,,,,,,,,,,,,,,,,,,,,,,,,,,,,,,,,,,,,,,,,,,,,,,,,,,,,,,,,,,,,,,,,,,,,,,,,,,,,,,,,,,,,,,,,,,,,,,,,,,,,,,,,,,,,,,,
1763975388.162435,59042.0,0.0,4429.230957,4451.666504,4567.563965,4581.410156,4438.846191,4558.077148,4588.846191,4441.538574,4636.922852,4476.025879,4563.461426,4559.871582,4621.282227,4461.025879,4437.94873,4557.692383,4597.820313,4574.615234,4570.128418,4441.282227,4454.358887,4609.230957,4572.563965,4557.94873,4480.128418,4628.077148,4443.333496,4602.820313,4562.307617,4460.897461,4585.769043,4555.128418,2285.0,0.0,14.0,2576.0,59966.0,,,,0.0,4.0,4.0,4.0,4.0,4.0,4.0,4.0,4.0,4.0,4.0,4.0,4.0,4.0,4.0,4.0,4.0,4.0,4.0,4.0,4.0,4.0,4.0,4.0,4.0,4.0,4.0,4.0,4.0,4.0,4.0,4.0,4.0,100.0,,,,,,,,,,,,,,,,,,,,,,,,,,,,,,,,,,,,,,,,,,,,,,,,,,,,,,,,,,,,,,,,,,,,,,,,,,,,,,,,,,,,,,,,,,,,,,,,,,,,,,,,,,,,,,,,,,,,,,,,,,,,,,,,,,,,,,,,,,,,,,,,,,,,,,,,,,,,,,,,,,,,,,,,,,,,,,,,,,,,,,,,,,,,,,,,,,,,,,,,,,,,,,
1763975388.166341,59043.0,0.0,4415.641113,4445.641113,4562.563965,4576.538574,4431.025879,4548.846191,4582.179688,4437.94873,4633.846191,4458.333496,4551.282227,4548.077148,4604.743652,4441.153809,4422.05127,4519.743652,4582.179688,4546.153809,4535.0,4442.179688,4445.897461,4590.641113,4559.230957,4547.436035,4471.153809,4627.563965,4440.512695,4596.410156,4553.974121,4455.769043,4585.0,4551.794922,2974.0,0.0,14.0,2576.0,59966.0,,,,0.0,4.0,4.0,4.0,4.0,4.0,4.0,4.0,4.0,4.0,4.0,4.0,4.0,4.0,4.0,4.0,4.0,4.0,4.0,4.0,4.0,4.0,4.0,4.0,4.0,4.0,4.0,4.0,4.0,4.0,4.0,4.0,4.0,100.0,,,,,,,,,,,,,,,,,,,,,,,,,,,,,,,,,,,,,,,,,,,,,,,,,,,,,,,,,,,,,,,,,,,,,,,,,,,,,,,,,,,,,,,,,,,,,,,,,,,,,,,,,,,,,,,,,,,,,,,,,,,,,,,,,,,,,,,,,,,,,,,,,,,,,,,,,,,,,,,,,,,,,,,,,,,,,,,,,,,,,,,,,,,,,,,,,,,,,,,,,,,,,,
1763975388.170247,59044.0,0.0,4389.487305,4425.512695,4541.153809,4560.384766,4413.205078,4529.358887,4562.307617,4421.794922,4618.974121,4432.179688,4528.974121,4523.205078,4577.179688,4414.615234,4399.615234,4480.897461,4553.333496,4512.307617,4492.307617,4427.307617,4425.128418,4560.897461,4532.179688,4522.563965,4441.538574,4611.538574,4423.461426,4574.615234,4530.512695,4435.897461,4568.974121,4533.589844,2874.0,0.0,14.0,2576.0,59974.0,,,,0.0,4.0,4.0,4.0,4.0,4.0,4.0,4.0,4.0,4.0,4.0,4.0,4.0,4.0,4.0,4.0,4.0,4.0,4.0,4.0,4.0,4.0,4.0,4.0,4.0,4.0,4.0,4.0,4.0,4.0,4.0,4.0,4.0,100.0,,,,,,,,,,,,,,,,,,,,,,,,,,,,,,,,,,,,,,,,,,,,,,,,,,,,,,,,,,,,,,,,,,,,,,,,,,,,,,,,,,,,,,,,,,,,,,,,,,,,,,,,,,,,,,,,,,,,,,,,,,,,,,,,,,,,,,,,,,,,,,,,,,,,,,,,,,,,,,,,,,,,,,,,,,,,,,,,,,,,,,,,,,,,,,,,,,,,,,,,,,,,,,
1763975388.174153,59045.0,0.0,4362.563965,4399.615234,4512.563965,4538.974121,4393.717773,4507.94873,4538.461426,4399.871582,4596.666504,4403.077148,4506.282227,4496.666504,4551.794922,4393.077148,4379.230957,4460.128418,4525.641113,4489.230957,4464.743652,4403.461426,4402.563965,4536.025879,4504.487305,4496.410156,4409.102539,4588.077148,4399.487305,4547.563965,4502.436035,4409.743652,4544.358887,4508.205078,2426.0,0.0,14.0,2576.0,59974.0,,,,0.0,4.0,4.0,4.0,4.0,4.0,4.0,4.0,4.0,4.0,4.0,4.0,4.0,4.0,4.0,4.0,4.0,4.0,4.0,4.0,4.0,4.0,4.0,4.0,4.0,4.0,4.0,4.0,4.0,4.0,4.0,4.0,4.0,100.0,,,,,,,,,,,,,,,,,,,,,,,,,,,,,,,,,,,31145.0,0.0,0.483946,0.295898,0.210938,0.796082,0.895129,-0.449274,0.051764,36.5,-20.5,-24.333334,,,,,,,,,,,,,,,,,,,,,,,,,,,,,,,,,,,,,,,,,,,,,,,,,,,,,,,,,,,,,,,,,,,,,,,,,,,,,,,,,,,,,,,,,,,,,,,,,,,,,,,,,,,,,,,,,,,,,,,,,,,,,,,,,,,,,,,,,,,,,,,,,,,,,,,,,,,,,,,,
1763975388.178059,59046.0,0.0,4348.333496,4381.153809,4491.794922,4523.333496,4382.563965,4494.871582,4523.333496,4384.102539,4577.692383,4379.358887,4493.717773,4481.794922,4540.641113,4385.0,4368.846191,4466.282227,4513.333496,4487.563965,4465.769043,4384.358887,4391.282227,4530.256348,4491.025879,4484.102539,4392.307617,4571.025879,4381.922852,4530.769043,4484.487305,4391.538574,4524.487305,4489.230957,2986.0,0.0,14.0,2576.0,59981.0,,,,0.0,4.0,4.0,4.0,4.0,4.0,4.0,4.0,4.0,4.0,4.0,4.0,4.0,4.0,4.0,4.0,4.0,4.0,4.0,4.0,4.0,4.0,4.0,4.0,4.0,4.0,4.0,4.0,4.0,4.0,4.0,4.0,4.0,100.0,,,,,,,,,,,,,,,,,,,,,,,,,,,,,,,,,,,,,,,,,,,,,,,,,,,,,,,,,,,,,,,,,,,,,,,,,,,,,,,,,,,,,,,,,,,,,,,,,,,,,,,,,,,,,,,,,,,,,,,,,,,,,,,,,,,,,,,,,,,,,,,,,,,,,,,,,,,,,,,,,,,,,,,,,,,,,,,,,,,,,,,,,,,,,,,,,,,,,,,,,,,,,,
1763975388.181965,59047.0,0.0,4352.94873,4379.102539,4488.461426,4520.641113,4383.846191,4495.769043,4523.077148,4381.794922,4571.410156,4368.461426,4495.384766,4484.743652,4546.153809,4390.0,4370.128418,4491.922852,4520.769043,4504.743652,4490.897461,4380.0,4397.05127,4545.256348,4497.563965,4491.410156,4396.538574,4569.358887,4379.871582,4533.589844,4485.769043,4391.153809,4519.743652,4486.410156,2967.0,0.0,14.0,2576.0,59981.0,,,,0.0,4.0,4.0,4.0,4.0,4.0,4.0,4.0,4.0,4.0,4.0,4.0,4.0,4.0,4.0,4.0,4.0,4.0,4.0,4.0,4.0,4.0,4.0,4.0,4.0,4.0,4.0,4.0,4.0,4.0,4.0,4.0,4.0,100.0,,,,,,,,,,,,,,,,,,,,,,,,,,,,,,,,,,,,,,,,,,,,,,,,,,,,,,,,,,,,,,,,,,,,,,,,,,,,,,,,,,,,,,,,,,,,,,,,,,,,,,,,,,,,,,,,,,,,,,,,,,,,,,,,,,,,,,,,,,,,,,,,,,,,,,,,,,,,,,,,,,,,,,,,,,,,,,,,,,,,,,,,,,,,,,,,,,,,,,,,,,,,,,
