Timestamp,EEG.Counter,EEG.Interpolated,EEG.Cz,EEG.Fz,EEG.Fp1,EEG.F7,EEG.F3,EEG.FC1,EEG.C3,EEG.FC5,EEG.FT9,EEG.T7,EEG.CP5,EEG.CP1,EEG.P3,EEG.P7,EEG.PO9,EEG.O1,EEG.Pz,EEG.Oz,EEG.O2,EEG.PO10,EEG.P8,EEG.P4,EEG.CP2,EEG.CP6,EEG.T8,EEG.FT10,EEG.FC6,EEG.C4,EEG.FC2,EEG.F4,EEG.F8,EEG.Fp2,EEG.RawCq,EEG.Battery,EEG.BatteryPercent,EEG.FwBufferSize,EEG.FwClockTime,MarkerIndex,MarkerType,MarkerValueInt,EEG.MarkerHardware,CQ.Cz,CQ.Fz,CQ.Fp1,CQ.F7,CQ.F3,CQ.FC1,CQ.C3,CQ.FC5,CQ.FT9,CQ.T7,CQ.CP5,CQ.CP1,CQ.P3,CQ.P7,CQ.PO9,CQ.O1,CQ.Pz,CQ.Oz,CQ.O2,CQ.PO10,CQ.P8,CQ.P4,CQ.CP2,CQ.CP6,CQ.T8,CQ.FT10,CQ.FC6,CQ.C4,CQ.FC2,CQ.F4,CQ.F8,CQ.Fp2,CQ.Overall,EQ.SampleRateQuality,EQ.OVERALL,EQ.Cz,EQ.Fz,EQ.Fp1,EQ.F7,EQ.F3,EQ.FC1,EQ.C3,EQ.FC5,EQ.FT9,EQ.T7,EQ.CP5,EQ.CP1,EQ.P3,EQ.P7,EQ.PO9,EQ.O1,EQ.Pz,EQ.Oz,EQ.O2,EQ.PO10,EQ.P8,EQ.P4,EQ.CP2,EQ.CP6,EQ.T8,EQ.FT10,EQ.FC6,EQ.C4,EQ.FC2,EQ.F4,EQ.F8,EQ.Fp2,MOT.CounterMems,MOT.InterpolatedMems,MOT.Q0,MOT.Q1,MOT.Q2,MOT.Q3,MOT.AccX,MOT.AccY,MOT.AccZ,MOT.MagX,MOT.MagY,MOT.MagZ,POW.Cz.Theta,POW.Cz.Alpha,POW.Cz.BetaL,POW.Cz.BetaH,POW.Cz.Gamma,POW.Fz.Theta,POW.Fz.Alpha,POW.Fz.BetaL,POW.Fz.BetaH,POW.Fz.Gamma,POW.Fp1.Theta,POW.Fp1.Alpha,POW.Fp1.BetaL,POW.Fp1.BetaH,POW.Fp1.Gamma,POW.F7.Theta,POW.F7.Alpha,POW.F7.BetaL,POW.F7.BetaH,POW.F7.Gamma,POW.F3.Theta,POW.F3.Alpha,POW.F3.BetaL,POW.F3.BetaH,POW.F3.Gamma,POW.FC1.Theta,POW.FC1.Alpha,POW.FC1.BetaL,POW.FC1.BetaH,POW.FC1.Gamma,POW.C3.Theta,POW.C3.Alpha,POW.C3.BetaL,POW.C3.BetaH,POW.C3.Gamma,POW.FC5.Theta,POW.FC5.Alpha,POW.FC5.BetaL,POW.FC5.BetaH,POW.FC5.Gamma,POW.FT9.Theta,POW.FT9.Alpha,POW.FT9.BetaL,POW.FT9.BetaH,POW.FT9.Gamma,POW.T7.Theta,POW.T7.Alpha,POW.T7.BetaL,POW.T7.BetaH,POW.T7.Gamma,POW.CP5.Theta,POW.CP5.Alpha,POW.CP5.BetaL,POW.CP5.BetaH,POW.CP5.Gamma,POW.CP1.Theta,POW.CP1.Alpha,POW.CP1.BetaL,POW.CP1.BetaH,POW.CP1.Gamma,POW.P3.Theta,POW.P3.Alpha,POW.P3.BetaL,POW.P3.BetaH,POW.P3.Gamma,POW.P7.Theta,POW.P7.Alpha,POW.P7.BetaL,POW.P7.BetaH,POW.P7.Gamma,POW.PO9.Theta,POW.PO9.Alpha,POW.PO9.BetaL,POW.PO9.BetaH,POW.PO9.Gamma,POW.O1.Theta,POW.O1.Alpha,POW.O1.BetaL,POW.O1.BetaH,POW.O1.Gamma,POW.Pz.Theta,POW.Pz.Alpha,POW.Pz.BetaL,POW.Pz.BetaH,POW.Pz.Gamma,POW.Oz.Theta,POW.Oz.Alpha,POW.Oz.BetaL,POW.Oz.BetaH,POW.Oz.Gamma,POW.O2.Theta,POW.O2.Alpha,POW.O2.BetaL,POW.O2.BetaH,POW.O2.Gamma,POW.PO10.Theta,POW.PO10.Alpha,POW.PO10.BetaL,POW.PO10.BetaH,POW.PO10.Gamma,POW.P8.Theta,POW.P8.Alpha,POW.P8.BetaL,POW.P8.BetaH,POW.P8.Gamma,POW.P4.Theta,POW.P4.Alpha,POW.P4.BetaL,POW.P4.BetaH,POW.P4.Gamma,POW.CP2.Theta,POW.CP2.Alpha,POW.CP2.BetaL,POW.CP2.BetaH,POW.CP2.Gamma,POW.CP6.Theta,POW.CP6.Alpha,POW.CP6.BetaL,POW.CP6.BetaH,POW.CP6.Gamma,POW.T8.Theta,POW.T8.Alpha,POW.T8.BetaL,POW.T8.BetaH,POW.T8.Gamma,POW.FT10.Theta,POW.FT10.Alpha,POW.FT10.BetaL,POW.FT10.BetaH,POW.FT10.Gamma,POW.FC6.Theta,POW.FC6.Alpha,POW.FC6.BetaL,POW.FC6.BetaH,POW.FC6.Gamma,POW.C4.Theta,POW.C4.Alpha,POW.C4.BetaL,POW.C4.BetaH,POW.C4.Gamma,POW.FC2.Theta,POW.FC2.Alpha,POW.FC2.BetaL,POW.FC2.BetaH,POW.FC2.Gamma,POW.F4.Theta,POW.F4.Alpha,POW.F4.BetaL,POW.F4.BetaH,POW.F4.Gamma,POW.F8.Theta,POW.F8.Alpha,POW.F8.BetaL,POW.F8.BetaH,POW.F8.Gamma,POW.Fp2.Theta,POW.Fp2.Alpha,POW.Fp2.BetaL,POW.Fp2.BetaH,POW.Fp2.Gamma
1763975412.468098,65265.0,0.0,4419.487305,4421.410156,4544.871582,4562.563965,4437.692383,4536.025879,4562.563965,4418.974121,4612.05127,4459.487305,4506.410156,4539.358887,4590.512695,4409.102539,4394.102539,4540.0,4572.436035,4558.974121,4542.563965,4415.384766,4430.0,4606.410156,4548.717773,4531.025879,4437.05127,4622.436035,4434.615234,4596.538574,4542.563965,4447.307617,4569.487305,4547.179688,3075.0,0.0,14.0,2304.0,18730.0,3.0,1.0,5.0,0.0,4.0,4.0,4.0,4.0,4.0,4.0,4.0,4.0,4.0,4.0,4.0,4.0,4.0,4.0,4.0,4.0,4.0,4.0,4.0,4.0,4.0,4.0,4.0,4.0,4.0,4.0,4.0,4.0,4.0,4.0,4.0,4.0,100.0,,,,,,,,,,,,,,,,,,,,,,,,,,,,,,,,,,,32700.0,0.0,0.477279,0.297241,0.213379,0.79895,0.894152,-0.452204,0.055671,36.666668,-20.666666,-25.833334,,,,,,,,,,,,,,,,,,,,,,,,,,,,,,,,,,,,,,,,,,,,,,,,,,,,,,,,,,,,,,,,,,,,,,,,,,,,,,,,,,,,,,,,,,,,,,,,,,,,,,,,,,,,,,,,,,,,,,,,,,,,,,,,,,,,,,,,,,,,,,,,,,,,,,,,,,,,,,,,
1763975412.472004,65266.0,0.0,4403.974121,4406.153809,4530.641113,4550.128418,4426.153809,4525.384766,4547.94873,4404.358887,4601.282227,4452.820313,4495.128418,4526.666504,4579.615234,4405.769043,4387.563965,4532.179688,4558.846191,4544.358887,4519.615234,4399.358887,4411.153809,4593.077148,4535.256348,4516.410156,4423.589844,4608.974121,4421.666504,4583.077148,4526.410156,4435.0,4554.615234,4534.615234,2835.0,0.0,14.0,2560.0,18738.0,,,,0.0,4.0,4.0,4.0,4.0,4.0,4.0,4.0,4.0,4.0,4.0,4.0,4.0,4.0,4.0,4.0,4.0,4.0,4.0,4.0,4.0,4.0,4.0,4.0,4.0,4.0,4.0,4.0,4.0,4.0,4.0,4.0,4.0,100.0,,,,,,,,,,,,,,,,,,,,,,,,,,,,,,,,,,,,,,,,,,,,,,,,,,,,,,,,,,,,,,,,,,,,,,,,,,,,,,,,,,,,,,,,,,,,,,,,,,,,,,,,,,,,,,,,,,,,,,,,,,,,,,,,,,,,,,,,,,,,,,,,,,,,,,,,,,,,,,,,,,,,,,,,,,,,,,,,,,,,,,,,,,,,,,,,,,,,,,,,,,,,,,
1763975412.47591,65267.0,0.0,4392.05127,4393.461426,4517.820313,4540.0,4419.358887,4516.410156,4536.410156,4394.358887,4590.0,4425.512695,4486.282227,4516.666504,4571.282227,4403.205078,4380.512695,4522.436035,4548.333496,4534.615234,4504.230957,4385.769043,4392.820313,4581.794922,4525.769043,4503.205078,4409.102539,4591.794922,4407.436035,4570.897461,4512.436035,4421.282227,4539.871582,4519.358887,3039.0,0.0,14.0,2560.0,18738.0,,,,0.0,4.0,4.0,4.0,4.0,4.0,4.0,4.0,4.0,4.0,4.0,4.0,4.0,4.0,4.0,4.0,4.0,4.0,4.0,4.0,4.0,4.0,4.0,4.0,4.0,4.0,4.0,4.0,4.0,4.0,4.0,4.0,4.0,100.0,,,,,,,,,,,,,,,,,,,,,,,,,,,,,,,,,,,,,,,,,,,,,,,,,,,,,,,,,,,,,,,,,,,,,,,,,,,,,,,,,,,,,,,,,,,,,,,,,,,,,,,,,,,,,,,,,,,,,,,,,,,,,,,,,,,,,,,,,,,,,,,,,,,,,,,,,,,,,,,,,,,,,,,,,,,,,,,,,,,,,,,,,,,,,,,,,,,,,,,,,,,,,,
1763975412.479816,65268.0,0.0,4390.256348,4390.128418,4512.05127,4537.307617,4420.384766,4513.717773,4534.615234,4394.358887,4584.487305,4395.384766,4484.871582,4516.153809,4571.538574,4404.743652,4377.436035,4522.563965,4549.487305,4538.333496,4506.025879,4381.922852,4385.0,4580.512695,4526.282227,4498.974121,4401.538574,4580.256348,4400.0,4567.05127,4507.179688,4413.717773,4533.333496,4508.589844,3018.0,0.0,14.0,2560.0,18746.0,,,,0.0,4.0,4.0,4.0,4.0,4.0,4.0,4.0,4.0,4.0,4.0,4.0,4.0,4.0,4.0,4.0,4.0,4.0,4.0,4.0,4.0,4.0,4.0,4.0,4.0,4.0,4.0,4.0,4.0,4.0,4.0,4.0,4.0,100.0,,,,,,,,,,,,,,,,,,,,,,,,,,,,,,,,,,,,,,,,,,,,,,,,,,,,,,,,,,,,,,,,,,,,,,,,,,,,,,,,,,,,,,,,,,,,,,,,,,,,,,,,,,,,,,,,,,,,,,,,,,,,,,,,,,,,,,,,,,,,,,,,,,,,,,,,,,,,,,,,,,,,,,,,,,,,,,,,,,,,,,,,,,,,,,,,,,,,,,,,,,,,,,
1763975412.483722,65269.0,0.0,4393.717773,4392.820313,4510.384766,4537.179688,4422.94873,4514.487305,4538.974121,4398.846191,4583.077148,4378.589844,4486.922852,4521.666504,4576.538574,4406.666504,4376.666504,4532.563965,4558.589844,4549.871582,4518.717773,4384.487305,4386.666504,4585.256348,4531.538574,4500.641113,4400.0,4575.0,4397.307617,4568.077148,4507.436035,4411.025879,4532.94873,4502.820313,2948.0,0.0,14.0,2560.0,18746.0,,,,0.0,4.0,4.0,4.0,4.0,4.0,4.0,4.0,4.0,4.0,4.0,4.0,4.0,4.0,4.0,4.0,4.0,4.0,4.0,4.0,4.0,4.0,4.0,4.0,4.0,4.0,4.0,4.0,4.0,4.0,4.0,4.0,4.0,100.0,,,,,,,,,,,,,,,,,,,,,,,,,,,,,,,,,,,32701.0,0.0,0.477213,0.297424,0.213501,0.798889,0.89757,-0.460994,0.054206,36.666668,-21.833334,-25.333334,,,,,,,,,,,,,,,,,,,,,,,,,,,,,,,,,,,,,,,,,,,,,,,,,,,,,,,,,,,,,,,,,,,,,,,,,,,,,,,,,,,,,,,,,,,,,,,,,,,,,,,,,,,,,,,,,,,,,,,,,,,,,,,,,,,,,,,,,,,,,,,,,,,,,,,,,,,,,,,,
1763975412.487628,65270.0,0.0,4392.563965,4392.94873,4504.871582,4530.897461,4418.205078,4511.538574,4539.487305,4397.179688,4579.230957,4377.94873,4484.615234,4522.820313,4577.563965,4402.94873,4373.461426,4539.358887,4564.358887,4553.717773,4525.897461,4384.871582,4388.846191,4585.128418,4530.384766,4498.717773,4397.307617,4570.641113,4391.153809,4564.871582,4504.487305,4406.538574,4530.512695,4497.179688,3022.0,0.0,14.0,1536.0,18754.0,,,,0.0,4.0,4.0,4.0,4.0,4.0,4.0,4.0,4.0,4.0,4.0,4.0,4.0,4.0,4.0,4.0,4.0,4.0,4.0,4.0,4.0,4.0,4.0,4.0,4.0,4.0,4.0,4.0,4.0,4.0,4.0,4.0,4.0,100.0,,,,,,,,,,,,,,,,,,,,,,,,,,,,,,,,,,,,,,,,,,,,,,,,,,,,,,,,,,,,,,,,,,,,,,,,,,,,,,,,,,,,,,,,,,,,,,,,,,,,,,,,,,,,,,,,,,,,,,,,,,,,,,,,,,,,,,,,,,,,,,,,,,,,,,,,,,,,,,,,,,,,,,,,,,,,,,,,,,,,,,,,,,,,,,,,,,,,,,,,,,,,,,
1763975412.491534,65271.0,0.0,4381.922852,4385.641113,4492.179688,4515.897461,4403.589844,4501.153809,4530.384766,4384.230957,4569.230957,4385.0,4474.615234,4513.589844,4569.615234,4391.666504,4366.025879,4531.538574,4558.333496,4540.641113,4516.282227,4378.974121,4384.102539,4573.589844,4517.820313,4488.077148,4388.974121,4562.820313,4377.563965,4553.461426,4494.615234,4396.282227,4521.025879,4488.846191,2958.0,0.0,14.0,1536.0,18754.0,,,,0.0,4.0,4.0,4.0,4.0,4.0,4.0,4.0,4.0,4.0,4.0,4.0,4.0,4.0,4.0,4.0,4.0,4.0,4.0,4.0,4.0,4.0,4.0,4.0,4.0,4.0,4.0,4.0,4.0,4.0,4.0,4.0,4.0,100.0,,,,,,,,,,,,,,,,,,,,,,,,,,,,,,,,,,,,,,,,,,,,,,,,,,,,,,,,,,,,,,,,,,,,,,,,,,,,,,,,,,,,,,,,,,,,,,,,,,,,,,,,,,,,,,,,,,,,,,,,,,,,,,,,,,,,,,,,,,,,,,,,,,,,,,,,,,,,,,,,,,,,,,,,,,,,,,,,,,,,,,,,,,,,,,,,,,,,,,,,,,,,,,
1763975412.49544,65272.0,0.0,4366.794922,4374.358887,4477.563965,4499.102539,4386.282227,4487.563965,4515.769043,4365.897461,4556.538574,4388.077148,4461.410156,4497.563965,4557.179688,4377.820313,4357.563965,4511.538574,4543.077148,4516.666504,4494.102539,4369.615234,4373.589844,4554.615234,4500.0,4472.692383,4377.94873,4553.205078,4361.666504,4538.333496,4482.436035,4383.974121,4508.589844,4480.512695,2889.0,0.0,14.0,256.0,18762.0,,,,0.0,4.0,4.0,4.0,4.0,4.0,4.0,4.0,4.0,4.0,4.0,4.0,4.0,4.0,4.0,4.0,4.0,4.0,4.0,4.0,4.0,4.0,4.0,4.0,4.0,4.0,4.0,4.0,4.0,4.0,4.0,4.0,4.0,100.0,,,,,,,,,,,,,,,,,,,,,,,,,,,,,,,,,,,,,,,,,,,,,,,,,,,,,,,,,,,,,,,,,,,,,,,,,,,,,,,,,,,,,,,,,,,,,,,,,,,,,,,,,,,,,,,,,,,,,,,,,,,,,,,,,,,,,,,,,,,,,,,,,,,,,,,,,,,,,,,,,,,,,,,,,,,,,,,,,,,,,,,,,,,,,,,,,,,,,,,,,,,,,,
1763975412.499346,65273.0,0.0,4356.282227,4365.897461,4469.615234,4491.282227,4376.666504,4477.563965,4505.0,4353.589844,4548.461426,4381.538574,4453.461426,4484.615234,4548.461426,4368.846191,4352.94873,4493.333496,4528.717773,4497.563965,4475.128418,4362.307617,4364.743652,4538.974121,4487.563965,4461.282227,4371.153809,4547.436035,4352.692383,4528.205078,4475.641113,4376.282227,4501.025879,4477.05127,2877.0,0.0,14.0,256.0,18762.0,,,,0.0,4.0,4.0,4.0,4.0,4.0,4.0,4.0,4.0,4.0,4.0,4.0,4.0,4.0,4.0,4.0,4.0,4.0,4.0,4.0,4.0,4.0,4.0,4.0,4.0,4.0,4.0,4.0,4.0,4.0,4.0,4.0,4.0,100.0,,,,,,,,,,,,,,,,,,,,,,,,,,,,,,,,,,,32702.0,0.0,0.477137,0.297546,0.213501,0.798889,0.884874,-0.447809,0.057624,37.166668,-20.666666,-25.333334,,,,,,,,,,,,,,,,,,,,,,,,,,,,,,,,,,,,,,,,,,,,,,,,,,,,,,,,,,,,,,,,,,,,,,,,,,,,,,,,,,,,,,,,,,,,,,,,,,,,,,,,,,,,,,,,,,,,,,,,,,,,,,,,,,,,,,,,,,,,,,,,,,,,,,,,,,,,,,,,
1763975412.503252,65274.0,0.0,4355.256348,4364.743652,4471.922852,4496.538574,4379.871582,4475.256348,4503.717773,4354.230957,4549.358887,4368.974121,4455.0,4481.922852,4547.820313,4368.717773,4354.871582,4488.461426,4523.589844,4494.871582,4472.179688,4360.512695,4363.974121,4534.358887,4486.538574,4459.358887,4372.563965,4548.589844,4355.256348,4527.307617,4477.692383,4376.538574,4502.179688,4479.358887,2804.0,0.0,14.0,512.0,18770.0,,,,0.0,4.0,4.0,4.0,4.0,4.0,4.0,4.0,4.0,4.0,4.0,4.0,4.0,4.0,4.0,4.0,4.0,4.0,4.0,4.0,4.0,4.0,4.0,4.0,4.0,4.0,4.0,4.0,4.0,4.0,4.0,4.0,4.0,100.0,,,,,,,,,,,,,,,,,,,,,,,,,,,,,,,,,,,,,,,,,,,,,,,,,,,,,,,,,,,,,,,,,,,,,,,,,,,,,,,,,,,,,,,,,,,,,,,,,,,,,,,,,,,,,,,,,,,,,,,,,,,,,,,,,,,,,,,,,,,,,,,,,,,,,,,,,,,,,,,,,,,,,,,,,,,,,,,,,,,,,,,,,,,,,,,,,,,,,,,,,,,,,,
1763975412.507158,65275.0,0.0,4361.922852,4370.0,4481.666504,4510.384766,4391.922852,4479.615234,4510.769043,4365.512695,4558.077148,4360.897461,4464.487305,4489.230957,4553.333496,4376.025879,4363.077148,4496.666504,4528.077148,4507.05127,4485.384766,4363.974121,4371.922852,4540.512695,4494.871582,4466.025879,4381.282227,4556.025879,4366.153809,4533.974121,4485.384766,4382.820313,4509.871582,4484.871582,3028.0,0.0,14.0,512.0,18770.0,,,,0.0,4.0,4.0,4.0,4.0,4.0,4.0,4.0,4.0,4.0,4.0,4.0,4.0,4.0,4.0,4.0,4.0,4.0,4.0,4.0,4.0,4.0,4.0,4.0,4.0,4.0,4.0,4.0,4.0,4.0,4.0,4.0,4.0,100.0,,,,,,,,,,,,,,,,,,,,,,,,,,,,,,,,,,,,,,,,,,,,,,,,,,,,,,,,,,,,,,,,,,,,,,,,,,,,,,,,,,,,,,,,,,,,,,,,,,,,,,,,,,,,,,,,,,,,,,,,,,,,,,,,,,,,,,,,,,,,,,,,,,,,,,,,,,,,,,,,,,,,,,,,,,,,,,,,,,,,,,,,,,,,,,,,,,,,,,,,,,,,,,
1763975412.511064,65276.0,0.0,4371.666504,4378.846191,4493.333496,4524.743652,4405.384766,4487.563965,4521.025879,4380.128418,4570.0,4366.282227,4477.05127,4500.897461,4560.256348,4387.179688,4375.384766,4508.589844,4536.666504,4523.461426,4504.358887,4371.410156,4383.974121,4551.922852,4505.769043,4476.922852,4393.333496,4566.922852,4379.358887,4543.589844,4493.717773,4392.05127,4519.615234,4490.897461,2973.0,0.0,14.0,768.0,18777.0,,,,0.0,4.0,4.0,4.0,4.0,4.0,4.0,4.0,4.0,4.0,4.0,4.0,4.0,4.0,4.0,4.0,4.0,4.0,4.0,4.0,4.0,4.0,4.0,4.0,4.0,4.0,4.0,4.0,4.0,4.0,4.0,4.0,4.0,100.0,,,,,,,,,,,,,,,,,,,,,,,,,,,,,,,,,,,,,,,,,,,,,,,,,,,,,,,,,,,,,,,,,,,,,,,,,,,,,,,,,,,,,,,,,,,,,,,,,,,,,,,,,,,,,,,,,,,,,,,,,,,,,,,,,,,,,,,,,,,,,,,,,,,,,,,,,,,,,,,,,,,,,,,,,,,,,,,,,,,,,,,,,,,,,,,,,,,,,,,,,,,,,,
1763975412.51497,65277.0,0.0,4380.0,4388.461426,4502.820313,4533.974121,4414.358887,4496.410156,4529.743652,4391.666504,4580.256348,4385.0,4487.563965,4511.025879,4564.871582,4397.820313,4387.692383,4514.102539,4543.461426,4533.846191,4517.94873,4381.153809,4393.846191,4562.307617,4513.846191,4487.307617,4404.358887,4578.077148,4389.743652,4552.307617,4500.0,4400.897461,4528.589844,4496.922852,2841.0,0.0,14.0,768.0,18777.0,,,,0.0,4.0,4.0,4.0,4.0,4.0,4.0,4.0,4.0,4.0,4.0,4.0,4.0,4.0,4.0,4.0,4.0,4.0,4.0,4.0,4.0,4.0,4.0,4.0,4.0,4.0,4.0,4.0,4.0,4.0,4.0,4.0,4.0,100.0,,,,,,,,,,,,,,,,,,,,,,,,,,,,,,,,,,,32703.0,0.0,0.4771,0.297485,0.21344,0.79895,0.885362,-0.443902,0.049811,38.166668,-20.0,-26.833334,,,,,,,,,,,,,,,,,,,,,,,,,,,,,,,,,,,,,,,,,,,,,,,,,,,,,,,,,,,,,,,,,,,,,,,,,,,,,,,,,,,,,,,,,,,,,,,,,,,,,,,,,,,,,,,,,,,,,,,,,,,,,,,,,,,,,,,,,,,,,,,,,,,,,,,,,,,,,,,,
1763975412.518876,65278.0,0.0,4384.487305,4396.025879,4507.436035,4536.153809,4416.666504,4504.102539,4534.358887,4396.922852,4584.743652,4407.436035,4492.05127,4515.384766,4566.025879,4403.589844,4394.102539,4509.871582,4545.769043,4535.0,4521.922852,4389.871582,4397.179688,4567.179688,4516.025879,4493.846191,4409.743652,4585.384766,4395.0,4557.563965,4503.589844,4406.666504,4535.128418,4502.436035,3031.0,0.0,14.0,768.0,18785.0,,,,0.0,4.0,4.0,4.0,4.0,4.0,4.0,4.0,4.0,4.0,4.0,4.0,4.0,4.0,4.0,4.0,4.0,4.0,4.0,4.0,4.0,4.0,4.0,4.0,4.0,4.0,4.0,4.0,4.0,4.0,4.0,4.0,4.0,100.0,,,,,,,,,,,,,,,,,,,,,,,,,,,,,,,,,,,,,,,,,,,,,,,,,,,,,,,,,,,,,,,,,,,,,,,,,,,,,,,,,,,,,,,,,,,,,,,,,,,,,,,,,,,,,,,,,,,,,,,,,,,,,,,,,,,,,,,,,,,,,,,,,,,,,,,,,,,,,,,,,,,,,,,,,,,,,,,,,,,,,,,,,,,,,,,,,,,,,,,,,,,,,,
1763975412.522782,65279.0,0.0,4383.974121,4398.205078,4506.282227,4532.436035,4413.974121,4508.974121,4533.846191,4395.128418,4582.179688,4421.538574,4488.974121,4513.333496,4563.717773,4401.282227,4390.256348,4499.743652,4543.461426,4530.256348,4518.846191,4393.589844,4393.717773,4565.384766,4512.692383,4495.256348,4407.436035,4586.025879,4394.743652,4558.333496,4504.487305,4407.05127,4537.94873,4506.025879,2945.0,0.0,14.0,768.0,18785.0,,,,0.0,4.0,4.0,4.0,4.0,4.0,4.0,4.0,4.0,4.0,4.0,4.0,4.0,4.0,4.0,4.0,4.0,4.0,4.0,4.0,4.0,4.0,4.0,4.0,4.0,4.0,4.0,4.0,4.0,4.0,4.0,4.0,4.0,100.0,,,,,,,,,,,,,,,,,,,,,,,,,,,,,,,,,,,,,,,,,,,,,,,,,,,,,,,,,,,,,,,,,,,,,,,,,,,,,,,,,,,,,,,,,,,,,,,,,,,,,,,,,,,,,,,,,,,,,,,,,,,,,,,,,,,,,,,,,,,,,,,,,,,,,,,,,,,,,,,,,,,,,,,,,,,,,,,,,,,,,,,,,,,,,,,,,,,,,,,,,,,,,,
1763975412.526688,65280.0,0.0,4380.769043,4394.871582,4501.922852,4527.307617,4410.128418,4510.256348,4530.384766,4389.230957,4574.871582,4421.538574,4481.538574,4507.692383,4559.871582,4392.179688,4378.333496,4491.794922,4538.589844,4525.641113,4514.102539,4392.179688,4388.077148,4559.487305,4507.179688,4492.563965,4399.871582,4581.410156,4391.410156,4555.769043,4503.589844,4403.077148,4536.922852,4506.794922,2862.0,0.0,14.0,1024.0,18793.0,,,,0.0,4.0,4.0,4.0,4.0,4.0,4.0,4.0,4.0,4.0,4.0,4.0,4.0,4.0,4.0,4.0,4.0,4.0,4.0,4.0,4.0,4.0,4.0,4.0,4.0,4.0,4.0,4.0,4.0,4.0,4.0,4.0,4.0,100.0,,,,,,,,,,,,,,,,,,,,,,,,,,,,,,,,,,,,,,,,,,,,,,,,,,,,,,,,,,,,,,,,,,,,,,,,,,,,,,,,,,,,,,,,,,,,,,,,,,,,,,,,,,,,,,,,,,,,,,,,,,,,,,,,,,,,,,,,,,,,,,,,,,,,,,,,,,,,,,,,,,,,,,,,,,,,,,,,,,,,,,,,,,,,,,,,,,,,,,,,,,,,,,
1763975412.530594,65281.0,0.0,4379.358887,4390.641113,4500.384766,4527.05127,4409.871582,4510.897461,4528.461426,4385.641113,4569.487305,4411.666504,4476.153809,4504.102539,4558.205078,4382.692383,4366.922852,4493.077148,4534.615234,4525.897461,4512.563965,4390.384766,4387.436035,4555.128418,4504.743652,4490.256348,4395.128418,4577.94873,4390.0,4554.230957,4503.461426,4400.0,4535.256348,4507.179688,2876.0,0.0,14.0,1024.0,18793.0,,,,0.0,4.0,4.0,4.0,4.0,4.0,4.0,4.0,4.0,4.0,4.0,4.0,4.0,4.0,4.0,4.0,4.0,4.0,4.0,4.0,4.0,4.0,4.0,4.0,4.0,4.0,4.0,4.0,4.0,4.0,4.0,4.0,4.0,100.0,,,,,,,,,,,,,,,,,,,,,,,,,,,,,,,,,,,32704.0,0.0,0.477129,0.297363,0.213318,0.799011,0.895129,-0.452204,0.043462,35.333332,-20.5,-26.0,,,,,,,,,,,,,,,,,,,,,,,,,,,,,,,,,,,,,,,,,,,,,,,,,,,,,,,,,,,,,,,,,,,,,,,,,,,,,,,,,,,,,,,,,,,,,,,,,,,,,,,,,,,,,,,,,,,,,,,,,,,,,,,,,,,,,,,,,,,,,,,,,,,,,,,,,,,,,,,,
1763975412.5345,65282.0,0.0,4384.102539,4392.563965,4508.205078,4536.538574,4416.538574,4515.641113,4532.820313,4390.769043,4573.077148,4403.461426,4478.974121,4507.94873,4562.692383,4380.641113,4365.897461,4504.871582,4535.512695,4533.589844,4517.05127,4395.512695,4396.922852,4558.589844,4510.0,4494.102539,4400.769043,4582.94873,4396.153809,4559.230957,4508.333496,4404.102539,4538.589844,4511.922852,2297.0,0.0,14.0,1280.0,18801.0,,,,0.0,4.0,4.0,4.0,4.0,4.0,4.0,4.0,4.0,4.0,4.0,4.0,4.0,4.0,4.0,4.0,4.0,4.0,4.0,4.0,4.0,4.0,4.0,4.0,4.0,4.0,4.0,4.0,4.0,4.0,4.0,4.0,4.0,100.0,,,,,,,,,,,,,,,,,,,,,,,,,,,,,,,,,,,,,,,,,,,,,,,,,,,,,,,,,,,,,,,,,,,,,,,,,,,,,,,,,,,,,,,,,,,,,,,,,,,,,,,,,,,,,,,,,,,,,,,,,,,,,,,,,,,,,,,,,,,,,,,,,,,,,,,,,,,,,,,,,,,,,,,,,,,,,,,,,,,,,,,,,,,,,,,,,,,,,,,,,,,,,,
1763975412.538406,65283.0,0.0,4395.769043,4403.846191,4525.897461,4554.230957,4429.102539,4527.307617,4544.230957,4405.0,4586.922852,4406.282227,4491.282227,4519.871582,4574.230957,4389.871582,4379.230957,4522.563965,4543.589844,4548.077148,4527.94873,4409.487305,4415.256348,4570.897461,4523.077148,4506.538574,4417.179688,4597.563965,4411.410156,4572.820313,4519.615234,4417.05127,4549.487305,4523.846191,2992.0,0.0,14.0,1280.0,18801.0,,,,0.0,4.0,4.0,4.0,4.0,4.0,4.0,4.0,4.0,4.0,4.0,4.0,4.0,4.0,4.0,4.0,4.0,4.0,4.0,4.0,4.0,4.0,4.0,4.0,4.0,4.0,4.0,4.0,4.0,4.0,4.0,4.0,4.0,100.0,,,,,,,,,,,,,,,,,,,,,,,,,,,,,,,,,,,,,,,,,,,,,,,,,,,,,,,,,,,,,,,,,,,,,,,,,,,,,,,,,,,,,,,,,,,,,,,,,,,,,,,,,,,,,,,,,,,,,,,,,,,,,,,,,,,,,,,,,,,,,,,,,,,,,,,,,,,,,,,,,,,,,,,,,,,,,,,,,,,,,,,,,,,,,,,,,,,,,,,,,,,,,,
1763975412.542312,65284.0,0.0,4407.820313,4418.974121,4544.743652,4570.0,4440.897461,4540.897461,4556.538574,4420.128418,4602.94873,4419.230957,4506.025879,4533.077148,4587.179688,4405.128418,4398.974121,4537.307617,4554.615234,4563.589844,4540.256348,4424.615234,4433.077148,4585.384766,4536.666504,4521.410156,4434.871582,4614.230957,4428.461426,4588.589844,4532.436035,4432.436035,4562.94873,4538.333496,2903.0,0.0,14.0,1536.0,18809.0,,,,0.0,4.0,4.0,4.0,4.0,4.0,4.0,4.0,4.0,4.0,4.0,4.0,4.0,4.0,4.0,4.0,4.0,4.0,4.0,4.0,4.0,4.0,4.0,4.0,4.0,4.0,4.0,4.0,4.0,4.0,4.0,4.0,4.0,100.0,,,,,,,,,,,,,,,,,,,,,,,,,,,,,,,,,,,,,,,,,,,,,,,,,,,,,,,,,,,,,,,,,,,,,,,,,,,,,,,,,,,,,,,,,,,,,,,,,,,,,,,,,,,,,,,,,,,,,,,,,,,,,,,,,,,,,,,,,,,,,,,,,,,,,,,,,,,,,,,,,,,,,,,,,,,,,,,,,,,,,,,,,,,,,,,,,,,,,,,,,,,,,,
1763975412.546218,65285.0,0.0,4409.230957,4425.128418,4549.615234,4570.641113,4442.307617,4545.0,4558.461426,4422.436035,4607.179688,4430.0,4510.256348,4535.512695,4590.128418,4413.461426,4409.615234,4540.128418,4558.974121,4569.230957,4544.230957,4427.307617,4437.05127,4589.743652,4538.846191,4526.410156,4438.077148,4619.102539,4434.102539,4593.974121,4535.897461,4437.563965,4567.307617,4543.461426,2436.0,0.0,14.0,1536.0,18809.0,,,,0.0,4.0,4.0,4.0,4.0,4.0,4.0,4.0,4.0,4.0,4.0,4.0,4.0,4.0,4.0,4.0,4.0,4.0,4.0,4.0,4.0,4.0,4.0,4.0,4.0,4.0,4.0,4.0,4.0,4.0,4.0,4.0,4.0,100.0,,,,,,,,,,,,,,,,,,,,,,,,,,,,,,,,,,,32705.0,0.0,0.477205,0.297241,0.213318,0.799011,0.895129,-0.452204,0.043462,37.0,-21.666666,-26.833334,,,,,,,,,,,,,,,,,,,,,,,,,,,,,,,,,,,,,,,,,,,,,,,,,,,,,,,,,,,,,,,,,,,,,,,,,,,,,,,,,,,,,,,,,,,,,,,,,,,,,,,,,,,,,,,,,,,,,,,,,,,,,,,,,,,,,,,,,,,,,,,,,,,,,,,,,,,,,,,,
1763975412.550124,65286.0,0.0,4393.077148,4412.820313,4531.666504,4549.487305,4427.692383,4530.256348,4542.692383,4403.717773,4590.897461,4425.641113,4495.769043,4520.0,4574.615234,4404.102539,4398.461426,4526.410156,4547.820313,4555.897461,4531.282227,4408.589844,4418.846191,4575.641113,4522.307617,4512.436035,4418.205078,4602.94873,4418.461426,4579.230957,4522.179688,4422.94873,4552.563965,4529.487305,3002.0,0.0,14.0,1792.0,18816.0,,,,0.0,4.0,4.0,4.0,4.0,4.0,4.0,4.0,4.0,4.0,4.0,4.0,4.0,4.0,4.0,4.0,4.0,4.0,4.0,4.0,4.0,4.0,4.0,4.0,4.0,4.0,4.0,4.0,4.0,4.0,4.0,4.0,4.0,100.0,,,,,,,,,,,,,,,,,,,,,,,,,,,,,,,,,,,,,,,,,,,,,,,,,,,,,,,,,,,,,,,,,,,,,,,,,,,,,,,,,,,,,,,,,,,,,,,,,,,,,,,,,,,,,,,,,,,,,,,,,,,,,,,,,,,,,,,,,,,,,,,,,,,,,,,,,,,,,,,,,,,,,,,,,,,,,,,,,,,,,,,,,,,,,,,,,,,,,,,,,,,,,,
1763975412.55403,65287.0,0.0,4365.0,4386.025879,4498.461426,4515.384766,4402.820313,4501.410156,4514.615234,4371.282227,4561.025879,4405.384766,4467.563965,4492.436035,4545.256348,4379.230957,4368.077148,4501.282227,4523.589844,4526.282227,4502.94873,4374.743652,4384.871582,4547.94873,4492.692383,4483.717773,4382.563965,4571.410156,4386.538574,4549.102539,4495.512695,4393.205078,4522.179688,4499.871582,2993.0,0.0,14.0,1792.0,18816.0,,,,0.0,4.0,4.0,4.0,4.0,4.0,4.0,4.0,4.0,4.0,4.0,4.0,4.0,4.0,4.0,4.0,4.0,4.0,4.0,4.0,4.0,4.0,4.0,4.0,4.0,4.0,4.0,4.0,4.0,4.0,4.0,4.0,4.0,100.0,,,,,,,,,,,,,,,,,,,,,,,,,,,,,,,,,,,,,,,,,,,,,,,,,,,,,,,,,,,,,,,,,,,,,,,,,,,,,,,,,,,,,,,,,,,,,,,,,,,,,,,,,,,,,,,,,,,,,,,,,,,,,,,,,,,,,,,,,,,,,,,,,,,,,,,,,,,,,,,,,,,,,,,,,,,,,,,,,,,,,,,,,,,,,,,,,,,,,,,,,,,,,,
1763975412.557936,65288.0,0.0,4342.436035,4361.666504,4470.897461,4488.846191,4382.307617,4475.769043,4491.794922,4344.743652,4536.794922,4381.282227,4443.461426,4470.641113,4520.384766,4354.487305,4337.179688,4479.615234,4501.666504,4497.307617,4473.589844,4344.615234,4353.974121,4523.974121,4467.692383,4457.563965,4351.922852,4542.692383,4356.666504,4521.794922,4471.794922,4365.641113,4492.820313,4472.436035,2671.0,0.0,14.0,2048.0,18824.0,,,,0.0,4.0,4.0,4.0,4.0,4.0,4.0,4.0,4.0,4.0,4.0,4.0,4.0,4.0,4.0,4.0,4.0,4.0,4.0,4.0,4.0,4.0,4.0,4.0,4.0,4.0,4.0,4.0,4.0,4.0,4.0,4.0,4.0,100.0,,,,,,,,,,,,,,,,,,,,,,,,,,,,,,,,,,,,,,,,,,,,,,,3.570379,5.925653,4.384057,11.758924,5.557981,4.351858,5.164406,4.550733,12.742565,5.867914,2.821328,4.318451,3.285578,15.038388,6.853067,2.107741,3.365857,3.635118,14.237949,6.747159,2.255383,2.688631,3.194894,9.561285,4.42486,2.084435,2.811182,2.834246,8.783169,3.525837,2.316565,3.722674,4.065617,13.268188,5.633126,2.346422,4.038536,4.448391,14.767632,6.247463,1.656069,1.844818,3.009083,12.810658,6.270111,1.935208,4.261028,5.070924,14.869959,6.360417,2.154525,3.126425,3.7431,11.257136,5.148141,2.809372,5.418919,3.997193,11.644727,4.978429,2.453989,5.907659,4.662679,12.768595,5.324237,1.116473,1.502535,2.393751,9.175986,3.8358,1.560562,1.179371,1.378714,11.249828,5.119795,3.715243,5.619036,3.508058,11.862648,5.214226,3.022172,7.254298,3.529935,11.05285,4.627039,3.982835,6.198531,3.823163,13.505937,6.123376,4.686836,5.126791,4.036949,11.189422,6.34551,3.312885,3.605475,2.914453,14.480473,7.29415,5.280652,4.034184,3.333495,11.342159,5.943607,4.603863,6.824914,4.28034,12.581825,6.316088,3.862498,6.547903,5.10883,14.121787,6.215534,3.463374,5.624485,3.384226,12.31554,5.951569,2.722145,4.489582,4.896638,12.043864,7.318543,3.363034,4.113972,4.487816,14.726995,7.400204,3.889376,5.922407,4.390284,15.235745,6.539558,2.709945,5.817201,4.461896,14.11609,6.046352,3.154443,5.611101,4.619755,12.200167,5.639904,4.274632,6.818679,4.803569,13.963318,6.377212,4.312948,5.13522,4.929854,14.477462,6.740425,3.120811,4.95859,3.587485,14.500363,6.533229
1763975412.561843,65289.0,0.0,4340.897461,4356.410156,4466.538574,4486.410156,4378.974121,4469.871582,4490.384766,4341.538574,4534.615234,4367.05127,4440.0,4470.384766,4518.205078,4347.179688,4326.538574,4478.205078,4498.717773,4488.974121,4460.897461,4335.769043,4343.717773,4520.384766,4463.974121,4450.384766,4344.871582,4533.461426,4347.179688,4515.128418,4466.666504,4357.563965,4481.282227,4465.256348,2860.0,0.0,14.0,2048.0,18824.0,,,,0.0,4.0,4.0,4.0,4.0,4.0,4.0,4.0,4.0,4.0,4.0,4.0,4.0,4.0,4.0,4.0,4.0,4.0,4.0,4.0,4.0,4.0,4.0,4.0,4.0,4.0,4.0,4.0,4.0,4.0,4.0,4.0,4.0,100.0,,,,,,,,,,,,,,,,,,,,,,,,,,,,,,,,,,,32706.0,0.0,0.477095,0.297241,0.213562,0.799011,0.889269,-0.458064,0.059578,35.5,-21.5,-26.166666,,,,,,,,,,,,,,,,,,,,,,,,,,,,,,,,,,,,,,,,,,,,,,,,,,,,,,,,,,,,,,,,,,,,,,,,,,,,,,,,,,,,,,,,,,,,,,,,,,,,,,,,,,,,,,,,,,,,,,,,,,,,,,,,,,,,,,,,,,,,,,,,,,,,,,,,,,,,,,,,
1763975412.565749,65290.0,0.0,4360.128418,4371.538574,4484.615234,4506.410156,4392.436035,4485.641113,4510.769043,4362.179688,4553.333496,4367.563965,4458.846191,4491.666504,4541.282227,4362.05127,4341.922852,4501.153809,4518.717773,4507.05127,4471.538574,4350.256348,4356.666504,4539.871582,4483.717773,4464.615234,4362.05127,4545.641113,4360.897461,4531.794922,4481.922852,4370.897461,4491.410156,4480.641113,2677.0,0.0,14.0,2304.0,18832.0,,,,0.0,4.0,4.0,4.0,4.0,4.0,4.0,4.0,4.0,4.0,4.0,4.0,4.0,4.0,4.0,4.0,4.0,4.0,4.0,4.0,4.0,4.0,4.0,4.0,4.0,4.0,4.0,4.0,4.0,4.0,4.0,4.0,4.0,100.0,,,,,,,,,,,,,,,,,,,,,,,,,,,,,,,,,,,,,,,,,,,,,,,,,,,,,,,,,,,,,,,,,,,,,,,,,,,,,,,,,,,,,,,,,,,,,,,,,,,,,,,,,,,,,,,,,,,,,,,,,,,,,,,,,,,,,,,,,,,,,,,,,,,,,,,,,,,,,,,,,,,,,,,,,,,,,,,,,,,,,,,,,,,,,,,,,,,,,,,,,,,,,,
1763975412.569655,65291.0,0.0,4385.0,4393.077148,4507.436035,4530.897461,4410.384766,4508.717773,4537.05127,4389.487305,4576.538574,4376.922852,4485.384766,4518.846191,4573.717773,4387.563965,4370.641113,4533.974121,4548.589844,4537.820313,4496.922852,4374.230957,4380.512695,4568.717773,4512.563965,4487.307617,4387.692383,4565.897461,4384.102539,4557.436035,4503.974121,4392.307617,4511.538574,4503.717773,3009.0,0.0,14.0,2304.0,18832.0,,,,0.0,4.0,4.0,4.0,4.0,4.0,4.0,4.0,4.0,4.0,4.0,4.0,4.0,4.0,4.0,4.0,4.0,4.0,4.0,4.0,4.0,4.0,4.0,4.0,4.0,4.0,4.0,4.0,4.0,4.0,4.0,4.0,4.0,100.0,,,,,,,,,,,,,,,,,,,,,,,,,,,,,,,,,,,,,,,,,,,,,,,,,,,,,,,,,,,,,,,,,,,,,,,,,,,,,,,,,,,,,,,,,,,,,,,,,,,,,,,,,,,,,,,,,,,,,,,,,,,,,,,,,,,,,,,,,,,,,,,,,,,,,,,,,,,,,,,,,,,,,,,,,,,,,,,,,,,,,,,,,,,,,,,,,,,,,,,,,,,,,,
1763975412.573561,65292.0,0.0,4397.94873,4404.102539,4517.05127,4540.769043,4419.102539,4522.05127,4551.410156,4403.589844,4587.436035,4387.820313,4502.307617,4534.230957,4594.615234,4407.05127,4393.974121,4553.589844,4570.384766,4560.256348,4520.384766,4390.384766,4398.974121,4589.743652,4532.307617,4503.333496,4403.589844,4578.846191,4399.487305,4573.461426,4517.05127,4405.256348,4525.897461,4515.512695,2960.0,0.0,14.0,2560.0,18840.0,,,,0.0,4.0,4.0,4.0,4.0,4.0,4.0,4.0,4.0,4.0,4.0,4.0,4.0,4.0,4.0,4.0,4.0,4.0,4.0,4.0,4.0,4.0,4.0,4.0,4.0,4.0,4.0,4.0,4.0,4.0,4.0,4.0,4.0,100.0,,,,,,,,,,,,,,,,,,,,,,,,,,,,,,,,,,,,,,,,,,,,,,,,,,,,,,,,,,,,,,,,,,,,,,,,,,,,,,,,,,,,,,,,,,,,,,,,,,,,,,,,,,,,,,,,,,,,,,,,,,,,,,,,,,,,,,,,,,,,,,,,,,,,,,,,,,,,,,,,,,,,,,,,,,,,,,,,,,,,,,,,,,,,,,,,,,,,,,,,,,,,,,
1763975412.577467,65293.0,0.0,4393.077148,4398.717773,4509.102539,4531.922852,4414.230957,4518.846191,4547.05127,4397.436035,4581.922852,4397.179688,4502.436035,4530.897461,4594.102539,4411.410156,4400.897461,4546.410156,4574.102539,4561.794922,4530.769043,4390.897461,4404.615234,4594.615234,4534.102539,4506.410156,4403.205078,4578.461426,4398.974121,4571.410156,4515.128418,4402.820313,4527.05127,4508.589844,2736.0,0.0,14.0,2560.0,18840.0,,,,0.0,4.0,4.0,4.0,4.0,4.0,4.0,4.0,4.0,4.0,4.0,4.0,4.0,4.0,4.0,4.0,4.0,4.0,4.0,4.0,4.0,4.0,4.0,4.0,4.0,4.0,4.0,4.0,4.0,4.0,4.0,4.0,4.0,100.0,,,,,,,,,,,,,,,,,,,,,,,,,,,,,,,,,,,32707.0,0.0,0.477133,0.29718,0.213562,0.799011,0.889269,-0.458064,0.059578,35.5,-21.5,-26.166666,,,,,,,,,,,,,,,,,,,,,,,,,,,,,,,,,,,,,,,,,,,,,,,,,,,,,,,,,,,,,,,,,,,,,,,,,,,,,,,,,,,,,,,,,,,,,,,,,,,,,,,,,,,,,,,,,,,,,,,,,,,,,,,,,,,,,,,,,,,,,,,,,,,,,,,,,,,,,,,,
1763975412.581373,65294.0,0.0,4377.179688,4382.94873,4492.94873,4514.871582,4401.025879,4505.128418,4530.897461,4379.487305,4568.846191,4405.256348,4490.384766,4515.512695,4578.077148,4403.461426,4393.333496,4518.333496,4563.333496,4545.256348,4526.666504,4380.0,4399.615234,4586.666504,4521.922852,4500.384766,4393.205078,4569.487305,4387.05127,4556.538574,4503.461426,4389.615234,4518.077148,4489.871582,2743.0,0.0,14.0,2560.0,18848.0,,,,0.0,4.0,4.0,4.0,4.0,4.0,4.0,4.0,4.0,4.0,4.0,4.0,4.0,4.0,4.0,4.0,4.0,4.0,4.0,4.0,4.0,4.0,4.0,4.0,4.0,4.0,4.0,4.0,4.0,4.0,4.0,4.0,4.0,100.0,,,,,,,,,,,,,,,,,,,,,,,,,,,,,,,,,,,,,,,,,,,,,,,,,,,,,,,,,,,,,,,,,,,,,,,,,,,,,,,,,,,,,,,,,,,,,,,,,,,,,,,,,,,,,,,,,,,,,,,,,,,,,,,,,,,,,,,,,,,,,,,,,,,,,,,,,,,,,,,,,,,,,,,,,,,,,,,,,,,,,,,,,,,,,,,,,,,,,,,,,,,,,,
1763975412.585279,65295.0,0.0,4360.769043,4366.538574,4479.743652,4502.05127,4387.307617,4490.384766,4513.205078,4362.307617,4558.461426,4409.358887,4475.384766,4498.461426,4558.461426,4391.153809,4379.487305,4487.692383,4547.563965,4522.307617,4513.717773,4366.666504,4389.871582,4573.717773,4505.0,4491.153809,4382.692383,4559.102539,4372.436035,4539.358887,4489.871582,4374.743652,4505.641113,4471.666504,2861.0,0.0,14.0,2560.0,18848.0,,,,0.0,4.0,4.0,4.0,4.0,4.0,4.0,4.0,4.0,4.0,4.0,4.0,4.0,4.0,4.0,4.0,4.0,4.0,4.0,4.0,4.0,4.0,4.0,4.0,4.0,4.0,4.0,4.0,4.0,4.0,4.0,4.0,4.0,100.0,,,,,,,,,,,,,,,,,,,,,,,,,,,,,,,,,,,,,,,,,,,,,,,,,,,,,,,,,,,,,,,,,,,,,,,,,,,,,,,,,,,,,,,,,,,,,,,,,,,,,,,,,,,,,,,,,,,,,,,,,,,,,,,,,,,,,,,,,,,,,,,,,,,,,,,,,,,,,,,,,,,,,,,,,,,,,,,,,,,,,,,,,,,,,,,,,,,,,,,,,,,,,,
1763975412.589185,65296.0,0.0,4348.589844,4353.846191,4473.205078,4497.179688,4376.922852,4479.615234,4499.615234,4351.794922,4554.102539,4402.179688,4462.563965,4485.897461,4542.692383,4379.871582,4366.538574,4469.230957,4533.589844,4503.589844,4498.974121,4356.153809,4378.974121,4560.256348,4489.358887,4480.512695,4374.871582,4550.0,4359.743652,4526.282227,4477.692383,4362.94873,4493.717773,4461.282227,2962.0,0.0,14.0,2561.0,18855.0,,,,0.0,4.0,4.0,4.0,4.0,4.0,4.0,4.0,4.0,4.0,4.0,4.0,4.0,4.0,4.0,4.0,4.0,4.0,4.0,4.0,4.0,4.0,4.0,4.0,4.0,4.0,4.0,4.0,4.0,4.0,4.0,4.0,4.0,100.0,,,,,,,,,,,,,,,,,,,,,,,,,,,,,,,,,,,,,,,,,,,,,,,,,,,,,,,,,,,,,,,,,,,,,,,,,,,,,,,,,,,,,,,,,,,,,,,,,,,,,,,,,,,,,,,,,,,,,,,,,,,,,,,,,,,,,,,,,,,,,,,,,,,,,,,,,,,,,,,,,,,,,,,,,,,,,,,,,,,,,,,,,,,,,,,,,,,,,,,,,,,,,,
1763975412.593091,65297.0,0.0,4339.487305,4343.589844,4469.487305,4495.0,4369.487305,4472.179688,4489.487305,4345.512695,4551.922852,4380.641113,4452.307617,4477.307617,4531.794922,4371.025879,4356.153809,4466.410156,4522.692383,4493.589844,4488.589844,4349.358887,4368.333496,4547.436035,4476.410156,4468.333496,4367.179688,4541.025879,4349.358887,4517.563965,4466.538574,4353.974121,4483.461426,4458.717773,3069.0,0.0,14.0,2561.0,18855.0,,,,0.0,4.0,4.0,4.0,4.0,4.0,4.0,4.0,4.0,4.0,4.0,4.0,4.0,4.0,4.0,4.0,4.0,4.0,4.0,4.0,4.0,4.0,4.0,4.0,4.0,4.0,4.0,4.0,4.0,4.0,4.0,4.0,4.0,100.0,,,,,,,,,,,,,,,,,,,,,,,,,,,,,,,,,,,32708.0,0.0,0.47708,0.297058,0.213623,0.799072,0.890245,-0.450739,0.071786,35.333332,-20.5,-25.5,,,,,,,,,,,,,,,,,,,,,,,,,,,,,,,,,,,,,,,,,,,,,,,,,,,,,,,,,,,,,,,,,,,,,,,,,,,,,,,,,,,,,,,,,,,,,,,,,,,,,,,,,,,,,,,,,,,,,,,,,,,,,,,,,,,,,,,,,,,,,,,,,,,,,,,,,,,,,,,,
1763975412.596997,65298.0,0.0,4333.589844,4336.410156,4466.025879,4491.666504,4365.769043,4467.563965,4483.205078,4341.410156,4549.487305,4353.333496,4445.641113,4472.563965,4525.641113,4365.769043,4348.846191,4474.102539,4516.025879,4493.077148,4487.692383,4347.820313,4362.05127,4537.94873,4468.589844,4458.589844,4359.487305,4534.230957,4342.692383,4513.205078,4457.692383,4348.461426,4477.692383,4461.538574,2837.0,0.0,14.0,1792.0,18863.0,,,,0.0,4.0,4.0,4.0,4.0,4.0,4.0,4.0,4.0,4.0,4.0,4.0,4.0,4.0,4.0,4.0,4.0,4.0,4.0,4.0,4.0,4.0,4.0,4.0,4.0,4.0,4.0,4.0,4.0,4.0,4.0,4.0,4.0,100.0,,,,,,,,,,,,,,,,,,,,,,,,,,,,,,,,,,,,,,,,,,,,,,,,,,,,,,,,,,,,,,,,,,,,,,,,,,,,,,,,,,,,,,,,,,,,,,,,,,,,,,,,,,,,,,,,,,,,,,,,,,,,,,,,,,,,,,,,,,,,,,,,,,,,,,,,,,,,,,,,,,,,,,,,,,,,,,,,,,,,,,,,,,,,,,,,,,,,,,,,,,,,,,
1763975412.600903,65299.0,0.0,4336.538574,4337.94873,4467.692383,4491.666504,4370.256348,4469.871582,4485.256348,4343.333496,4551.282227,4339.487305,4447.563965,4475.256348,4528.205078,4367.436035,4348.717773,4487.307617,4517.179688,4502.820313,4498.461426,4356.666504,4366.922852,4538.333496,4472.05127,4459.615234,4358.974121,4537.692383,4345.897461,4517.563965,4458.205078,4351.794922,4482.692383,4470.512695,3027.0,0.0,14.0,1792.0,18863.0,,,,0.0,4.0,4.0,4.0,4.0,4.0,4.0,4.0,4.0,4.0,4.0,4.0,4.0,4.0,4.0,4.0,4.0,4.0,4.0,4.0,4.0,4.0,4.0,4.0,4.0,4.0,4.0,4.0,4.0,4.0,4.0,4.0,4.0,100.0,,,,,,,,,,,,,,,,,,,,,,,,,,,,,,,,,,,,,,,,,,,,,,,,,,,,,,,,,,,,,,,,,,,,,,,,,,,,,,,,,,,,,,,,,,,,,,,,,,,,,,,,,,,,,,,,,,,,,,,,,,,,,,,,,,,,,,,,,,,,,,,,,,,,,,,,,,,,,,,,,,,,,,,,,,,,,,,,,,,,,,,,,,,,,,,,,,,,,,,,,,,,,,
1763975412.604809,65300.0,0.0,4354.230957,4354.358887,4482.436035,4504.102539,4386.666504,4484.487305,4501.410156,4358.077148,4564.358887,4353.461426,4462.307617,4490.256348,4544.102539,4379.230957,4361.410156,4504.358887,4530.128418,4522.307617,4518.461426,4379.487305,4386.794922,4553.461426,4491.025879,4477.563965,4374.358887,4558.461426,4365.128418,4535.384766,4474.871582,4370.256348,4503.717773,4488.717773,3002.0,0.0,14.0,1792.0,18871.0,,,,0.0,4.0,4.0,4.0,4.0,4.0,4.0,4.0,4.0,4.0,4.0,4.0,4.0,4.0,4.0,4.0,4.0,4.0,4.0,4.0,4.0,4.0,4.0,4.0,4.0,4.0,4.0,4.0,4.0,4.0,4.0,4.0,4.0,100.0,,,,,,,,,,,,,,,,,,,,,,,,,,,,,,,,,,,,,,,,,,,,,,,,,,,,,,,,,,,,,,,,,,,,,,,,,,,,,,,,,,,,,,,,,,,,,,,,,,,,,,,,,,,,,,,,,,,,,,,,,,,,,,,,,,,,,,,,,,,,,,,,,,,,,,,,,,,,,,,,,,,,,,,,,,,,,,,,,,,,,,,,,,,,,,,,,,,,,,,,,,,,,,
1763975412.608715,65301.0,0.0,4383.717773,4383.846191,4510.512695,4530.769043,4411.922852,4509.358887,4530.0,4385.256348,4589.230957,4391.922852,4487.436035,4515.769043,4570.897461,4399.102539,4387.307617,4523.205078,4552.563965,4546.410156,4538.846191,4411.410156,4415.384766,4578.717773,4520.641113,4507.563965,4405.641113,4593.077148,4397.820313,4563.974121,4505.384766,4401.538574,4537.179688,4514.743652,2935.0,0.0,14.0,1792.0,18871.0,,,,0.0,4.0,4.0,4.0,4.0,4.0,4.0,4.0,4.0,4.0,4.0,4.0,4.0,4.0,4.0,4.0,4.0,4.0,4.0,4.0,4.0,4.0,4.0,4.0,4.0,4.0,4.0,4.0,4.0,4.0,4.0,4.0,4.0,100.0,,,,,,,,,,,,,,,,,,,,,,,,,,,,,,,,,,,32709.0,0.0,0.477155,0.297058,0.213684,0.799011,0.882432,-0.453669,0.061043,36.5,-20.833334,-25.5,,,,,,,,,,,,,,,,,,,,,,,,,,,,,,,,,,,,,,,,,,,,,,,,,,,,,,,,,,,,,,,,,,,,,,,,,,,,,,,,,,,,,,,,,,,,,,,,,,,,,,,,,,,,,,,,,,,,,,,,,,,,,,,,,,,,,,,,,,,,,,,,,,,,,,,,,,,,,,,,
1763975412.612621,65302.0,0.0,4410.769043,4413.077148,4540.128418,4560.128418,4434.871582,4532.94873,4558.461426,4413.461426,4615.641113,4433.077148,4510.897461,4540.256348,4596.282227,4417.94873,4416.922852,4536.538574,4573.589844,4564.230957,4548.333496,4437.563965,4437.436035,4599.871582,4546.025879,4533.717773,4438.589844,4625.512695,4429.230957,4590.641113,4535.769043,4432.05127,4568.846191,4539.358887,3006.0,0.0,14.0,1024.0,18879.0,,,,0.0,4.0,4.0,4.0,4.0,4.0,4.0,4.0,4.0,4.0,4.0,4.0,4.0,4.0,4.0,4.0,4.0,4.0,4.0,4.0,4.0,4.0,4.0,4.0,4.0,4.0,4.0,4.0,4.0,4.0,4.0,4.0,4.0,100.0,,,,,,,,,,,,,,,,,,,,,,,,,,,,,,,,,,,,,,,,,,,,,,,,,,,,,,,,,,,,,,,,,,,,,,,,,,,,,,,,,,,,,,,,,,,,,,,,,,,,,,,,,,,,,,,,,,,,,,,,,,,,,,,,,,,,,,,,,,,,,,,,,,,,,,,,,,,,,,,,,,,,,,,,,,,,,,,,,,,,,,,,,,,,,,,,,,,,,,,,,,,,,,
1763975412.616527,65303.0,0.0,4419.615234,4426.025879,4554.102539,4575.0,4443.077148,4540.641113,4571.538574,4426.666504,4629.230957,4451.922852,4519.743652,4549.230957,4605.128418,4425.641113,4434.230957,4534.871582,4580.0,4565.256348,4541.025879,4442.820313,4439.358887,4602.179688,4552.05127,4539.615234,4454.230957,4638.077148,4441.922852,4599.743652,4548.717773,4445.256348,4582.179688,4550.256348,2943.0,0.0,14.0,1024.0,18879.0,,,,0.0,4.0,4.0,4.0,4.0,4.0,4.0,4.0,4.0,4.0,4.0,4.0,4.0,4.0,4.0,4.0,4.0,4.0,4.0,4.0,4.0,4.0,4.0,4.0,4.0,4.0,4.0,4.0,4.0,4.0,4.0,4.0,4.0,100.0,,,,,,,,,,,,,,,,,,,,,,,,,,,,,,,,,,,,,,,,,,,,,,,,,,,,,,,,,,,,,,,,,,,,,,,,,,,,,,,,,,,,,,,,,,,,,,,,,,,,,,,,,,,,,,,,,,,,,,,,,,,,,,,,,,,,,,,,,,,,,,,,,,,,,,,,,,,,,,,,,,,,,,,,,,,,,,,,,,,,,,,,,,,,,,,,,,,,,,,,,,,,,,
1763975412.620433,65304.0,0.0,4405.384766,4416.153809,4545.128418,4567.179688,4433.974121,4527.563965,4562.94873,4417.692383,4623.205078,4438.846191,4510.0,4537.179688,4592.179688,4418.461426,4429.487305,4516.025879,4567.05127,4548.717773,4521.282227,4424.230957,4420.384766,4582.563965,4534.871582,4521.666504,4443.205078,4624.871582,4429.358887,4585.769043,4537.820313,4434.615234,4571.025879,4541.922852,2875.0,0.0,14.0,256.0,18887.0,,,,0.0,4.0,4.0,4.0,4.0,4.0,4.0,4.0,4.0,4.0,4.0,4.0,4.0,4.0,4.0,4.0,4.0,4.0,4.0,4.0,4.0,4.0,4.0,4.0,4.0,4.0,4.0,4.0,4.0,4.0,4.0,4.0,4.0,100.0,,,,,,,,,,,,,,,,,,,,,,,,,,,,,,,,,,,,,,,,,,,,,,,,,,,,,,,,,,,,,,,,,,,,,,,,,,,,,,,,,,,,,,,,,,,,,,,,,,,,,,,,,,,,,,,,,,,,,,,,,,,,,,,,,,,,,,,,,,,,,,,,,,,,,,,,,,,,,,,,,,,,,,,,,,,,,,,,,,,,,,,,,,,,,,,,,,,,,,,,,,,,,,
1763975412.624339,65305.0,0.0,4379.230957,4392.563965,4521.922852,4544.743652,4415.897461,4502.820313,4541.025879,4395.0,4603.846191,4406.153809,4489.487305,4512.05127,4566.410156,4402.05127,4406.410156,4490.512695,4542.692383,4525.897461,4502.179688,4394.615234,4393.974121,4552.820313,4506.410156,4492.05127,4413.717773,4596.538574,4401.666504,4558.205078,4511.922852,4408.333496,4543.846191,4520.128418,2867.0,0.0,14.0,256.0,18887.0,,,,0.0,4.0,4.0,4.0,4.0,4.0,4.0,4.0,4.0,4.0,4.0,4.0,4.0,4.0,4.0,4.0,4.0,4.0,4.0,4.0,4.0,4.0,4.0,4.0,4.0,4.0,4.0,4.0,4.0,4.0,4.0,4.0,4.0,100.0,,,,,,,,,,,,,,,,,,,,,,,,,,,,,,,,,,,32710.0,0.0,0.477118,0.296997,0.213623,0.799072,0.870223,-0.460505,0.056648,35.0,-21.0,-27.0,,,,,,,,,,,,,,,,,,,,,,,,,,,,,,,,,,,,,,,,,,,,,,,,,,,,,,,,,,,,,,,,,,,,,,,,,,,,,,,,,,,,,,,,,,,,,,,,,,,,,,,,,,,,,,,,,,,,,,,,,,,,,,,,,,,,,,,,,,,,,,,,,,,,,,,,,,,,,,,,
1763975412.628245,65306.0,0.0,4358.717773,4372.05127,4502.05127,4525.0,4401.922852,4483.589844,4522.05127,4375.0,4585.512695,4378.077148,4472.179688,4489.487305,4545.0,4387.436035,4380.384766,4475.128418,4521.410156,4511.922852,4494.743652,4371.538574,4377.05127,4531.025879,4484.358887,4469.615234,4384.230957,4570.897461,4376.538574,4534.743652,4488.717773,4383.077148,4517.436035,4498.333496,2788.0,0.0,14.0,512.0,18895.0,,,,0.0,4.0,4.0,4.0,4.0,4.0,4.0,4.0,4.0,4.0,4.0,4.0,4.0,4.0,4.0,4.0,4.0,4.0,4.0,4.0,4.0,4.0,4.0,4.0,4.0,4.0,4.0,4.0,4.0,4.0,4.0,4.0,4.0,100.0,,,,,,,,,,,,,,,,,,,,,,,,,,,,,,,,,,,,,,,,,,,,,,,,,,,,,,,,,,,,,,,,,,,,,,,,,,,,,,,,,,,,,,,,,,,,,,,,,,,,,,,,,,,,,,,,,,,,,,,,,,,,,,,,,,,,,,,,,,,,,,,,,,,,,,,,,,,,,,,,,,,,,,,,,,,,,,,,,,,,,,,,,,,,,,,,,,,,,,,,,,,,,,
1763975412.632151,65307.0,0.0,4353.974121,4365.256348,4496.666504,4520.256348,4399.102539,4481.025879,4517.179688,4369.102539,4578.589844,4372.05127,4466.538574,4479.743652,4539.358887,4381.922852,4366.153809,4479.487305,4513.589844,4513.589844,4500.256348,4365.512695,4377.307617,4526.922852,4479.358887,4464.615234,4369.487305,4560.384766,4365.641113,4527.05127,4480.0,4370.897461,4504.358887,4487.307617,3018.0,0.0,14.0,512.0,18895.0,,,,0.0,4.0,4.0,4.0,4.0,4.0,4.0,4.0,4.0,4.0,4.0,4.0,4.0,4.0,4.0,4.0,4.0,4.0,4.0,4.0,4.0,4.0,4.0,4.0,4.0,4.0,4.0,4.0,4.0,4.0,4.0,4.0,4.0,100.0,,,,,,,,,,,,,,,,,,,,,,,,,,,,,,,,,,,,,,,,,,,,,,,,,,,,,,,,,,,,,,,,,,,,,,,,,,,,,,,,,,,,,,,,,,,,,,,,,,,,,,,,,,,,,,,,,,,,,,,,,,,,,,,,,,,,,,,,,,,,,,,,,,,,,,,,,,,,,,,,,,,,,,,,,,,,,,,,,,,,,,,,,,,,,,,,,,,,,,,,,,,,,,
1763975412.636057,65308.0,0.0,4360.512695,4369.487305,4502.94873,4527.820313,4404.230957,4492.692383,4523.333496,4375.256348,4581.794922,4384.743652,4470.0,4481.538574,4546.666504,4383.974121,4366.410156,4497.692383,4517.563965,4523.077148,4508.717773,4373.205078,4388.077148,4536.410156,4487.05127,4472.820313,4370.512695,4563.589844,4367.179688,4532.94873,4483.717773,4371.794922,4505.0,4487.820313,2960.0,0.0,14.0,768.0,18902.0,,,,0.0,4.0,4.0,4.0,4.0,4.0,4.0,4.0,4.0,4.0,4.0,4.0,4.0,4.0,4.0,4.0,4.0,4.0,4.0,4.0,4.0,4.0,4.0,4.0,4.0,4.0,4.0,4.0,4.0,4.0,4.0,4.0,4.0,100.0,,,,,,,,,,,,,,,,,,,,,,,,,,,,,,,,,,,,,,,,,,,,,,,,,,,,,,,,,,,,,,,,,,,,,,,,,,,,,,,,,,,,,,,,,,,,,,,,,,,,,,,,,,,,,,,,,,,,,,,,,,,,,,,,,,,,,,,,,,,,,,,,,,,,,,,,,,,,,,,,,,,,,,,,,,,,,,,,,,,,,,,,,,,,,,,,,,,,,,,,,,,,,,
1763975412.639963,65309.0,0.0,4366.153809,4373.717773,4508.846191,4535.128418,4408.461426,4505.769043,4528.974121,4382.307617,4586.282227,4397.820313,4473.461426,4485.384766,4553.974121,4386.538574,4372.05127,4513.589844,4523.205078,4527.307617,4508.717773,4383.589844,4396.794922,4546.666504,4495.128418,4481.410156,4378.077148,4569.871582,4371.153809,4540.897461,4488.974121,4377.05127,4510.256348,4492.692383,2832.0,0.0,14.0,768.0,18902.0,,,,0.0,4.0,4.0,4.0,4.0,4.0,4.0,4.0,4.0,4.0,4.0,4.0,4.0,4.0,4.0,4.0,4.0,4.0,4.0,4.0,4.0,4.0,4.0,4.0,4.0,4.0,4.0,4.0,4.0,4.0,4.0,4.0,4.0,100.0,,,,,,,,,,,,,,,,,,,,,,,,,,,,,,,,,,,32711.0,0.0,0.477015,0.297119,0.213684,0.799072,0.898547,-0.45318,0.045416,37.666668,-20.833334,-26.0,,,,,,,,,,,,,,,,,,,,,,,,,,,,,,,,,,,,,,,,,,,,,,,,,,,,,,,,,,,,,,,,,,,,,,,,,,,,,,,,,,,,,,,,,,,,,,,,,,,,,,,,,,,,,,,,,,,,,,,,,,,,,,,,,,,,,,,,,,,,,,,,,,,,,,,,,,,,,,,,
1763975412.643869,65310.0,0.0,4364.102539,4370.384766,4507.307617,4533.461426,4406.282227,4510.0,4525.641113,4382.05127,4585.128418,4395.641113,4471.538574,4484.102539,4551.666504,4384.615234,4373.461426,4515.769043,4523.333496,4521.794922,4499.358887,4388.333496,4397.307617,4549.743652,4495.128418,4483.077148,4383.717773,4571.538574,4371.282227,4542.563965,4488.846191,4379.358887,4512.563965,4495.641113,3011.0,0.0,14.0,1024.0,18910.0,,,,0.0,4.0,4.0,4.0,4.0,4.0,4.0,4.0,4.0,4.0,4.0,4.0,4.0,4.0,4.0,4.0,4.0,4.0,4.0,4.0,4.0,4.0,4.0,4.0,4.0,4.0,4.0,4.0,4.0,4.0,4.0,4.0,4.0,100.0,,,,,,,,,,,,,,,,,,,,,,,,,,,,,,,,,,,,,,,,,,,,,,,,,,,,,,,,,,,,,,,,,,,,,,,,,,,,,,,,,,,,,,,,,,,,,,,,,,,,,,,,,,,,,,,,,,,,,,,,,,,,,,,,,,,,,,,,,,,,,,,,,,,,,,,,,,,,,,,,,,,,,,,,,,,,,,,,,,,,,,,,,,,,,,,,,,,,,,,,,,,,,,
1763975412.647775,65311.0,0.0,4359.102539,4363.205078,4502.692383,4525.897461,4401.410156,4506.282227,4517.307617,4376.794922,4580.512695,4380.0,4467.692383,4480.128418,4543.333496,4381.025879,4370.897461,4507.307617,4520.0,4516.282227,4492.307617,4387.94873,4395.256348,4549.743652,4490.897461,4482.179688,4387.692383,4570.384766,4370.897461,4540.512695,4485.769043,4379.743652,4512.307617,4496.666504,2924.0,0.0,14.0,1024.0,18910.0,,,,0.0,4.0,4.0,4.0,4.0,4.0,4.0,4.0,4.0,4.0,4.0,4.0,4.0,4.0,4.0,4.0,4.0,4.0,4.0,4.0,4.0,4.0,4.0,4.0,4.0,4.0,4.0,4.0,4.0,4.0,4.0,4.0,4.0,100.0,,,,,,,,,,,,,,,,,,,,,,,,,,,,,,,,,,,,,,,,,,,,,,,,,,,,,,,,,,,,,,,,,,,,,,,,,,,,,,,,,,,,,,,,,,,,,,,,,,,,,,,,,,,,,,,,,,,,,,,,,,,,,,,,,,,,,,,,,,,,,,,,,,,,,,,,,,,,,,,,,,,,,,,,,,,,,,,,,,,,,,,,,,,,,,,,,,,,,,,,,,,,,,
1763975412.651681,65312.0,0.0,4361.025879,4361.666504,4504.487305,4522.94873,4401.538574,4502.94873,4514.487305,4375.512695,4579.743652,4366.410156,4470.128418,4481.282227,4541.025879,4382.820313,4372.436035,4502.563965,4521.666504,4523.589844,4499.871582,4387.563965,4399.358887,4555.769043,4492.05127,4487.436035,4395.512695,4573.205078,4376.794922,4543.461426,4487.436035,4383.333496,4515.0,4500.128418,2853.0,0.0,14.0,1280.0,18918.0,,,,0.0,4.0,4.0,4.0,4.0,4.0,4.0,4.0,4.0,4.0,4.0,4.0,4.0,4.0,4.0,4.0,4.0,4.0,4.0,4.0,4.0,4.0,4.0,4.0,4.0,4.0,4.0,4.0,4.0,4.0,4.0,4.0,4.0,100.0,,,,,,,,,,,,,,,,,,,,,,,,,,,,,,,,,,,,,,,,,,,,,,,,,,,,,,,,,,,,,,,,,,,,,,,,,,,,,,,,,,,,,,,,,,,,,,,,,,,,,,,,,,,,,,,,,,,,,,,,,,,,,,,,,,,,,,,,,,,,,,,,,,,,,,,,,,,,,,,,,,,,,,,,,,,,,,,,,,,,,,,,,,,,,,,,,,,,,,,,,,,,,,
1763975412.655587,65313.0,0.0,4373.205078,4369.615234,4515.0,4529.615234,4409.230957,4506.025879,4522.436035,4382.692383,4586.282227,4368.974121,4481.666504,4491.153809,4551.538574,4392.94873,4382.692383,4511.410156,4531.282227,4544.102539,4520.512695,4389.871582,4410.641113,4570.769043,4502.692383,4500.512695,4408.461426,4582.307617,4389.358887,4554.487305,4496.025879,4391.282227,4522.820313,4506.922852,2876.0,0.0,14.0,1280.0,18918.0,,,,0.0,4.0,4.0,4.0,4.0,4.0,4.0,4.0,4.0,4.0,4.0,4.0,4.0,4.0,4.0,4.0,4.0,4.0,4.0,4.0,4.0,4.0,4.0,4.0,4.0,4.0,4.0,4.0,4.0,4.0,4.0,4.0,4.0,100.0,,,,,,,,,,,,,,,,,,,,,,,,,,,,,,,,,,,32712.0,0.0,0.477015,0.297119,0.213684,0.799072,0.898547,-0.458552,0.053229,36.166668,-19.166666,-26.0,,,,,,,,,,,,,,,,,,,,,,,,,,,,,,,,,,,,,,,,,,,,,,,,,,,,,,,,,,,,,,,,,,,,,,,,,,,,,,,,,,,,,,,,,,,,,,,,,,,,,,,,,,,,,,,,,,,,,,,,,,,,,,,,,,,,,,,,,,,,,,,,,,,,,,,,,,,,,,,,
1763975412.659493,65314.0,0.0,4388.461426,4381.282227,4526.282227,4540.512695,4419.487305,4513.461426,4536.025879,4393.461426,4595.256348,4388.077148,4495.769043,4503.974121,4568.974121,4405.512695,4395.128418,4528.974121,4542.94873,4563.205078,4538.461426,4392.179688,4420.256348,4586.666504,4516.410156,4513.333496,4420.0,4591.538574,4400.641113,4567.692383,4506.153809,4398.461426,4530.512695,4512.436035,2283.0,0.0,14.0,1536.0,18926.0,,,,0.0,4.0,4.0,4.0,4.0,4.0,4.0,4.0,4.0,4.0,4.0,4.0,4.0,4.0,4.0,4.0,4.0,4.0,4.0,4.0,4.0,4.0,4.0,4.0,4.0,4.0,4.0,4.0,4.0,4.0,4.0,4.0,4.0,100.0,,,,,,,,,,,,,,,,,,,,,,,,,,,,,,,,,,,,,,,,,,,,,,,,,,,,,,,,,,,,,,,,,,,,,,,,,,,,,,,,,,,,,,,,,,,,,,,,,,,,,,,,,,,,,,,,,,,,,,,,,,,,,,,,,,,,,,,,,,,,,,,,,,,,,,,,,,,,,,,,,,,,,,,,,,,,,,,,,,,,,,,,,,,,,,,,,,,,,,,,,,,,,,
1763975412.663399,65315.0,0.0,4395.128418,4386.794922,4527.94873,4545.128418,4424.230957,4518.077148,4544.358887,4398.461426,4599.230957,4411.666504,4501.282227,4510.256348,4579.871582,4410.384766,4398.333496,4538.333496,4547.307617,4563.461426,4537.179688,4391.025879,4418.717773,4591.538574,4522.820313,4515.641113,4421.410156,4592.563965,4401.410156,4573.077148,4509.230957,4398.589844,4531.153809,4511.794922,2980.0,0.0,14.0,1536.0,18926.0,,,,0.0,4.0,4.0,4.0,4.0,4.0,4.0,4.0,4.0,4.0,4.0,4.0,4.0,4.0,4.0,4.0,4.0,4.0,4.0,4.0,4.0,4.0,4.0,4.0,4.0,4.0,4.0,4.0,4.0,4.0,4.0,4.0,4.0,100.0,,,,,,,,,,,,,,,,,,,,,,,,,,,,,,,,,,,,,,,,,,,,,,,,,,,,,,,,,,,,,,,,,,,,,,,,,,,,,,,,,,,,,,,,,,,,,,,,,,,,,,,,,,,,,,,,,,,,,,,,,,,,,,,,,,,,,,,,,,,,,,,,,,,,,,,,,,,,,,,,,,,,,,,,,,,,,,,,,,,,,,,,,,,,,,,,,,,,,,,,,,,,,,
1763975412.667305,65316.0,0.0,4387.692383,4380.897461,4516.410156,4538.589844,4419.230957,4514.487305,4540.769043,4392.436035,4593.589844,4423.846191,4492.179688,4504.487305,4575.384766,4400.897461,4386.153809,4526.282227,4540.769043,4541.794922,4515.256348,4384.871582,4404.102539,4580.897461,4516.538574,4504.615234,4409.871582,4582.307617,4389.487305,4566.282227,4501.666504,4390.256348,4522.307617,4503.846191,2890.0,0.0,14.0,1792.0,18934.0,,,,0.0,4.0,4.0,4.0,4.0,4.0,4.0,4.0,4.0,4.0,4.0,4.0,4.0,4.0,4.0,4.0,4.0,4.0,4.0,4.0,4.0,4.0,4.0,4.0,4.0,4.0,4.0,4.0,4.0,4.0,4.0,4.0,4.0,100.0,,,,,,,,,,,,,,,,,,,,,,,,,,,,,,,,,,,,,,,,,,,,,,,,,,,,,,,,,,,,,,,,,,,,,,,,,,,,,,,,,,,,,,,,,,,,,,,,,,,,,,,,,,,,,,,,,,,,,,,,,,,,,,,,,,,,,,,,,,,,,,,,,,,,,,,,,,,,,,,,,,,,,,,,,,,,,,,,,,,,,,,,,,,,,,,,,,,,,,,,,,,,,,
1763975412.671211,65317.0,0.0,4369.871582,4366.025879,4496.922852,4523.974121,4406.282227,4503.077148,4526.538574,4377.692383,4579.230957,4415.384766,4471.153809,4488.589844,4557.563965,4379.230957,4363.589844,4495.897461,4527.563965,4510.769043,4487.179688,4375.384766,4382.94873,4559.743652,4500.641113,4485.769043,4390.128418,4564.743652,4370.256348,4550.0,4486.410156,4377.05127,4507.436035,4491.666504,2419.0,0.0,14.0,1792.0,18934.0,,,,0.0,4.0,4.0,4.0,4.0,4.0,4.0,4.0,4.0,4.0,4.0,4.0,4.0,4.0,4.0,4.0,4.0,4.0,4.0,4.0,4.0,4.0,4.0,4.0,4.0,4.0,4.0,4.0,4.0,4.0,4.0,4.0,4.0,100.0,,,,,,,,,,,,,,,,,,,,,,,,,,,,,,,,,,,32713.0,0.0,0.476979,0.296936,0.213562,0.799194,0.89757,-0.45318,0.055671,37.333332,-20.5,-25.5,,,,,,,,,,,,,,,,,,,,,,,,,,,,,,,,,,,,,,,,,,,,,,,,,,,,,,,,,,,,,,,,,,,,,,,,,,,,,,,,,,,,,,,,,,,,,,,,,,,,,,,,,,,,,,,,,,,,,,,,,,,,,,,,,,,,,,,,,,,,,,,,,,,,,,,,,,,,,,,,
1763975412.675117,65318.0,0.0,4351.025879,4349.615234,4479.487305,4509.743652,4391.410156,4489.871582,4509.102539,4362.05127,4561.922852,4390.256348,4448.717773,4471.025879,4537.563965,4355.512695,4343.461426,4464.871582,4515.897461,4489.230957,4471.153809,4366.410156,4365.641113,4539.743652,4483.974121,4469.102539,4370.897461,4547.307617,4352.436035,4532.563965,4470.641113,4364.487305,4492.436035,4479.230957,2985.0,0.0,14.0,2048.0,18941.0,,,,0.0,4.0,4.0,4.0,4.0,4.0,4.0,4.0,4.0,4.0,4.0,4.0,4.0,4.0,4.0,4.0,4.0,4.0,4.0,4.0,4.0,4.0,4.0,4.0,4.0,4.0,4.0,4.0,4.0,4.0,4.0,4.0,4.0,100.0,,,,,,,,,,,,,,,,,,,,,,,,,,,,,,,,,,,,,,,,,,,,,,,,,,,,,,,,,,,,,,,,,,,,,,,,,,,,,,,,,,,,,,,,,,,,,,,,,,,,,,,,,,,,,,,,,,,,,,,,,,,,,,,,,,,,,,,,,,,,,,,,,,,,,,,,,,,,,,,,,,,,,,,,,,,,,,,,,,,,,,,,,,,,,,,,,,,,,,,,,,,,,,
1763975412.679023,65319.0,0.0,4341.153809,4340.384766,4473.589844,4503.974121,4382.179688,4483.077148,4498.333496,4354.102539,4550.384766,4364.871582,4437.179688,4462.05127,4528.333496,4343.205078,4338.589844,4453.077148,4513.333496,4488.461426,4475.512695,4362.179688,4360.128418,4531.666504,4475.769043,4462.179688,4361.666504,4538.077148,4344.102539,4522.692383,4462.820313,4357.820313,4483.846191,4471.666504,2972.0,0.0,14.0,2048.0,18941.0,,,,0.0,4.0,4.0,4.0,4.0,4.0,4.0,4.0,4.0,4.0,4.0,4.0,4.0,4.0,4.0,4.0,4.0,4.0,4.0,4.0,4.0,4.0,4.0,4.0,4.0,4.0,4.0,4.0,4.0,4.0,4.0,4.0,4.0,100.0,,,,,,,,,,,,,,,,,,,,,,,,,,,,,,,,,,,,,,,,,,,,,,,,,,,,,,,,,,,,,,,,,,,,,,,,,,,,,,,,,,,,,,,,,,,,,,,,,,,,,,,,,,,,,,,,,,,,,,,,,,,,,,,,,,,,,,,,,,,,,,,,,,,,,,,,,,,,,,,,,,,,,,,,,,,,,,,,,,,,,,,,,,,,,,,,,,,,,,,,,,,,,,
1763975412.682929,65320.0,0.0,4345.641113,4344.102539,4482.820313,4509.871582,4383.974121,4487.820313,4500.641113,4358.974121,4551.410156,4357.94873,4443.974121,4468.077148,4536.410156,4351.025879,4353.846191,4468.846191,4522.692383,4506.794922,4493.717773,4366.282227,4367.563965,4538.974121,4480.641113,4467.563965,4366.922852,4541.794922,4349.102539,4525.897461,4467.692383,4361.025879,4486.666504,4473.333496,2654.0,0.0,14.0,2304.0,18949.0,,,,0.0,4.0,4.0,4.0,4.0,4.0,4.0,4.0,4.0,4.0,4.0,4.0,4.0,4.0,4.0,4.0,4.0,4.0,4.0,4.0,4.0,4.0,4.0,4.0,4.0,4.0,4.0,4.0,4.0,4.0,4.0,4.0,4.0,100.0,,,,,,,,,,,,,,,,,,,,,,,,,,,,,,,,,,,,,,,,,,,,,,,4.181053,6.473305,4.720532,11.719466,5.269954,5.04699,5.452291,4.843548,12.890025,5.51575,2.934791,4.619044,3.542207,15.061649,6.380241,2.160562,3.610137,3.769312,14.358661,6.411125,2.333913,2.914556,3.329326,9.649679,4.176095,2.454232,3.00564,3.216094,8.914435,3.295774,2.717062,4.06066,4.236446,13.418761,5.343269,2.61452,4.160882,4.384468,15.048624,5.927058,1.635705,2.098121,3.133914,12.877295,5.890714,1.997061,4.598544,5.790694,13.537765,5.889615,2.569595,3.389591,3.603148,11.568666,4.936915,3.389931,5.602836,4.176846,11.905801,4.719555,2.885657,5.428538,4.770647,13.118305,4.972356,1.203212,1.553448,2.326223,9.246671,3.600864,1.701277,1.206305,1.37018,11.629972,4.918513,4.137479,5.698544,3.716526,12.775409,4.784178,3.346017,6.318083,3.462053,11.246031,4.393484,4.525403,6.46125,3.775774,14.045646,5.870485,4.881248,5.391173,3.997908,11.536982,6.204686,3.78957,3.910406,2.971071,14.205214,6.806552,5.770991,4.324942,3.449728,11.452007,5.584748,5.214242,6.793763,4.24178,12.911045,5.970724,4.398628,6.962571,5.467181,14.23186,5.945143,3.864093,6.187245,3.72984,12.528636,5.581541,3.138079,5.134483,5.310835,11.9577,6.841954,3.816141,4.823605,4.648157,14.685421,6.910262,4.465719,6.953612,4.721339,15.284174,6.196947,3.128067,6.565073,4.834317,14.238107,5.685512,3.508925,6.315442,4.989129,12.299192,5.290148,4.734496,7.685751,5.112544,14.160361,6.005168,4.530669,6.136287,5.107987,14.582558,6.347437,3.281893,5.620409,3.887721,14.513184,6.301937
1763975412.686835,65321.0,0.0,4361.794922,4359.743652,4502.307617,4524.358887,4395.897461,4501.922852,4514.871582,4374.230957,4564.487305,4375.128418,4465.512695,4486.538574,4557.94873,4375.897461,4381.410156,4503.205078,4539.743652,4531.666504,4510.897461,4377.94873,4381.282227,4556.153809,4495.769043,4480.641113,4382.563965,4556.153809,4363.974121,4539.615234,4482.692383,4372.436035,4500.641113,4485.0,2839.0,0.0,14.0,2304.0,18949.0,,,,0.0,4.0,4.0,4.0,4.0,4.0,4.0,4.0,4.0,4.0,4.0,4.0,4.0,4.0,4.0,4.0,4.0,4.0,4.0,4.0,4.0,4.0,4.0,4.0,4.0,4.0,4.0,4.0,4.0,4.0,4.0,4.0,4.0,100.0,,,,,,,,,,,,,,,,,,,,,,,,,,,,,,,,,,,32714.0,0.0,0.477017,0.296875,0.213562,0.799194,0.889757,-0.460994,0.046881,36.5,-18.833334,-26.0,,,,,,,,,,,,,,,,,,,,,,,,,,,,,,,,,,,,,,,,,,,,,,,,,,,,,,,,,,,,,,,,,,,,,,,,,,,,,,,,,,,,,,,,,,,,,,,,,,,,,,,,,,,,,,,,,,,,,,,,,,,,,,,,,,,,,,,,,,,,,,,,,,,,,,,,,,,,,,,,
1763975412.690741,65322.0,0.0,4380.128418,4379.102539,4521.025879,4538.461426,4410.512695,4516.666504,4531.922852,4391.538574,4580.256348,4402.05127,4488.717773,4506.153809,4580.0,4403.461426,4404.871582,4535.256348,4554.743652,4548.077148,4514.871582,4391.153809,4391.282227,4571.410156,4511.025879,4492.436035,4397.692383,4572.692383,4379.871582,4554.102539,4498.589844,4385.384766,4518.333496,4500.897461,2663.0,0.0,14.0,2560.0,18957.0,,,,0.0,4.0,4.0,4.0,4.0,4.0,4.0,4.0,4.0,4.0,4.0,4.0,4.0,4.0,4.0,4.0,4.0,4.0,4.0,4.0,4.0,4.0,4.0,4.0,4.0,4.0,4.0,4.0,4.0,4.0,4.0,4.0,4.0,100.0,,,,,,,,,,,,,,,,,,,,,,,,,,,,,,,,,,,,,,,,,,,,,,,,,,,,,,,,,,,,,,,,,,,,,,,,,,,,,,,,,,,,,,,,,,,,,,,,,,,,,,,,,,,,,,,,,,,,,,,,,,,,,,,,,,,,,,,,,,,,,,,,,,,,,,,,,,,,,,,,,,,,,,,,,,,,,,,,,,,,,,,,,,,,,,,,,,,,,,,,,,,,,,
1763975412.694647,65323.0,0.0,4390.384766,4392.436035,4529.358887,4544.871582,4419.358887,4523.461426,4541.025879,4401.282227,4588.333496,4414.743652,4499.743652,4515.897461,4590.128418,4417.94873,4410.897461,4546.410156,4558.846191,4548.717773,4505.0,4398.461426,4391.410156,4575.128418,4517.563965,4496.538574,4402.05127,4582.05127,4388.077148,4559.615234,4506.538574,4392.307617,4529.615234,4513.333496,2977.0,0.0,14.0,2560.0,18957.0,,,,0.0,4.0,4.0,4.0,4.0,4.0,4.0,4.0,4.0,4.0,4.0,4.0,4.0,4.0,4.0,4.0,4.0,4.0,4.0,4.0,4.0,4.0,4.0,4.0,4.0,4.0,4.0,4.0,4.0,4.0,4.0,4.0,4.0,100.0,,,,,,,,,,,,,,,,,,,,,,,,,,,,,,,,,,,,,,,,,,,,,,,,,,,,,,,,,,,,,,,,,,,,,,,,,,,,,,,,,,,,,,,,,,,,,,,,,,,,,,,,,,,,,,,,,,,,,,,,,,,,,,,,,,,,,,,,,,,,,,,,,,,,,,,,,,,,,,,,,,,,,,,,,,,,,,,,,,,,,,,,,,,,,,,,,,,,,,,,,,,,,,
1763975412.698553,65324.0,0.0,4389.358887,4395.641113,4526.025879,4542.05127,4419.230957,4520.0,4537.94873,4399.871582,4585.384766,4401.025879,4493.717773,4512.05127,4584.487305,4412.692383,4398.333496,4533.461426,4550.128418,4536.794922,4491.922852,4396.538574,4383.461426,4566.282227,4513.205078,4492.436035,4395.0,4580.769043,4386.538574,4553.974121,4504.487305,4391.410156,4529.871582,4517.563965,2937.0,0.0,14.0,2560.0,18965.0,,,,0.0,4.0,4.0,4.0,4.0,4.0,4.0,4.0,4.0,4.0,4.0,4.0,4.0,4.0,4.0,4.0,4.0,4.0,4.0,4.0,4.0,4.0,4.0,4.0,4.0,4.0,4.0,4.0,4.0,4.0,4.0,4.0,4.0,100.0,,,,,,,,,,,,,,,,,,,,,,,,,,,,,,,,,,,,,,,,,,,,,,,,,,,,,,,,,,,,,,,,,,,,,,,,,,,,,,,,,,,,,,,,,,,,,,,,,,,,,,,,,,,,,,,,,,,,,,,,,,,,,,,,,,,,,,,,,,,,,,,,,,,,,,,,,,,,,,,,,,,,,,,,,,,,,,,,,,,,,,,,,,,,,,,,,,,,,,,,,,,,,,
1763975412.702459,65325.0,0.0,4380.769043,4391.666504,4517.436035,4534.230957,4412.436035,4511.282227,4526.025879,4390.641113,4576.538574,4370.256348,4476.794922,4500.0,4568.974121,4394.102539,4378.205078,4507.563965,4534.358887,4521.538574,4486.794922,4387.05127,4373.205078,4551.922852,4503.077148,4484.615234,4384.871582,4573.077148,4379.358887,4543.077148,4496.794922,4385.897461,4522.05127,4514.743652,2709.0,0.0,14.0,2560.0,18965.0,,,,0.0,4.0,4.0,4.0,4.0,4.0,4.0,4.0,4.0,4.0,4.0,4.0,4.0,4.0,4.0,4.0,4.0,4.0,4.0,4.0,4.0,4.0,4.0,4.0,4.0,4.0,4.0,4.0,4.0,4.0,4.0,4.0,4.0,100.0,,,,,,,,,,,,,,,,,,,,,,,,,,,,,,,,,,,32715.0,0.0,0.47698,0.296814,0.213501,0.799255,0.889757,-0.460994,0.046881,36.166668,-21.166666,-24.666666,,,,,,,,,,,,,,,,,,,,,,,,,,,,,,,,,,,,,,,,,,,,,,,,,,,,,,,,,,,,,,,,,,,,,,,,,,,,,,,,,,,,,,,,,,,,,,,,,,,,,,,,,,,,,,,,,,,,,,,,,,,,,,,,,,,,,,,,,,,,,,,,,,,,,,,,,,,,,,,,
1763975412.706365,65326.0,0.0,4371.794922,4385.512695,4510.897461,4526.410156,4403.974121,4504.102539,4512.563965,4380.0,4569.871582,4346.153809,4459.871582,4488.077148,4553.333496,4374.871582,4363.461426,4483.333496,4520.0,4509.871582,4491.794922,4375.0,4364.871582,4540.0,4493.589844,4477.563965,4379.871582,4566.025879,4372.436035,4533.717773,4489.615234,4379.487305,4513.589844,4508.589844,2720.0,0.0,14.0,2560.0,18973.0,,,,0.0,4.0,4.0,4.0,4.0,4.0,4.0,4.0,4.0,4.0,4.0,4.0,4.0,4.0,4.0,4.0,4.0,4.0,4.0,4.0,4.0,4.0,4.0,4.0,4.0,4.0,4.0,4.0,4.0,4.0,4.0,4.0,4.0,100.0,,,,,,,,,,,,,,,,,,,,,,,,,,,,,,,,,,,,,,,,,,,,,,,,,,,,,,,,,,,,,,,,,,,,,,,,,,,,,,,,,,,,,,,,,,,,,,,,,,,,,,,,,,,,,,,,,,,,,,,,,,,,,,,,,,,,,,,,,,,,,,,,,,,,,,,,,,,,,,,,,,,,,,,,,,,,,,,,,,,,,,,,,,,,,,,,,,,,,,,,,,,,,,
1763975412.710271,65327.0,0.0,4366.153809,4380.128418,4509.102539,4521.282227,4397.563965,4500.769043,4503.333496,4372.307617,4569.743652,4346.794922,4450.641113,4481.153809,4544.487305,4364.743652,4360.128418,4469.230957,4512.692383,4502.94873,4498.589844,4365.897461,4359.743652,4533.461426,4487.436035,4472.692383,4382.436035,4564.487305,4369.102539,4529.230957,4486.025879,4374.358887,4509.487305,4502.436035,2835.0,0.0,14.0,2560.0,18973.0,,,,0.0,4.0,4.0,4.0,4.0,4.0,4.0,4.0,4.0,4.0,4.0,4.0,4.0,4.0,4.0,4.0,4.0,4.0,4.0,4.0,4.0,4.0,4.0,4.0,4.0,4.0,4.0,4.0,4.0,4.0,4.0,4.0,4.0,100.0,,,,,,,,,,,,,,,,,,,,,,,,,,,,,,,,,,,,,,,,,,,,,,,,,,,,,,,,,,,,,,,,,,,,,,,,,,,,,,,,,,,,,,,,,,,,,,,,,,,,,,,,,,,,,,,,,,,,,,,,,,,,,,,,,,,,,,,,,,,,,,,,,,,,,,,,,,,,,,,,,,,,,,,,,,,,,,,,,,,,,,,,,,,,,,,,,,,,,,,,,,,,,,
1763975412.714177,65328.0,0.0,4364.102539,4376.282227,4510.0,4519.358887,4394.487305,4499.615234,4500.384766,4368.717773,4574.358887,4371.282227,4450.128418,4479.230957,4542.692383,4365.0,4364.871582,4465.769043,4512.179688,4499.102539,4497.692383,4363.077148,4356.922852,4530.512695,4483.333496,4469.487305,4387.692383,4568.461426,4369.358887,4528.461426,4484.871582,4370.769043,4509.871582,4498.077148,2939.0,0.0,14.0,1280.0,18980.0,,,,0.0,4.0,4.0,4.0,4.0,4.0,4.0,4.0,4.0,4.0,4.0,4.0,4.0,4.0,4.0,4.0,4.0,4.0,4.0,4.0,4.0,4.0,4.0,4.0,4.0,4.0,4.0,4.0,4.0,4.0,4.0,4.0,4.0,100.0,,,,,,,,,,,,,,,,,,,,,,,,,,,,,,,,,,,,,,,,,,,,,,,,,,,,,,,,,,,,,,,,,,,,,,,,,,,,,,,,,,,,,,,,,,,,,,,,,,,,,,,,,,,,,,,,,,,,,,,,,,,,,,,,,,,,,,,,,,,,,,,,,,,,,,,,,,,,,,,,,,,,,,,,,,,,,,,,,,,,,,,,,,,,,,,,,,,,,,,,,,,,,,
1763975412.718083,65329.0,0.0,4364.102539,4373.974121,4511.282227,4520.897461,4394.743652,4498.461426,4503.205078,4368.846191,4579.743652,4402.05127,4454.871582,4480.641113,4545.641113,4370.769043,4371.794922,4470.641113,4515.512695,4499.358887,4489.230957,4367.436035,4358.077148,4529.871582,4480.512695,4468.717773,4390.897461,4575.256348,4372.179688,4529.487305,4484.615234,4369.743652,4512.94873,4497.179688,3044.0,0.0,14.0,1280.0,18980.0,,,,0.0,4.0,4.0,4.0,4.0,4.0,4.0,4.0,4.0,4.0,4.0,4.0,4.0,4.0,4.0,4.0,4.0,4.0,4.0,4.0,4.0,4.0,4.0,4.0,4.0,4.0,4.0,4.0,4.0,4.0,4.0,4.0,4.0,100.0,,,,,,,,,,,,,,,,,,,,,,,,,,,,,,,,,,,32716.0,0.0,0.477016,0.296997,0.213623,0.799133,0.895129,-0.45025,0.048834,35.833332,-20.666666,-25.833334,,,,,,,,,,,,,,,,,,,,,,,,,,,,,,,,,,,,,,,,,,,,,,,,,,,,,,,,,,,,,,,,,,,,,,,,,,,,,,,,,,,,,,,,,,,,,,,,,,,,,,,,,,,,,,,,,,,,,,,,,,,,,,,,,,,,,,,,,,,,,,,,,,,,,,,,,,,,,,,,
1763975412.721989,65330.0,0.0,4367.179688,4375.897461,4514.487305,4527.179688,4398.717773,4498.333496,4511.538574,4374.230957,4584.230957,4421.025879,4462.307617,4485.128418,4552.179688,4378.589844,4378.846191,4483.333496,4521.410156,4508.077148,4484.358887,4378.333496,4366.922852,4534.615234,4482.05127,4473.717773,4392.307617,4583.461426,4377.94873,4533.205078,4486.025879,4373.974121,4518.717773,4502.179688,2812.0,0.0,14.0,256.0,18988.0,,,,0.0,4.0,4.0,4.0,4.0,4.0,4.0,4.0,4.0,4.0,4.0,4.0,4.0,4.0,4.0,4.0,4.0,4.0,4.0,4.0,4.0,4.0,4.0,4.0,4.0,4.0,4.0,4.0,4.0,4.0,4.0,4.0,4.0,100.0,,,,,,,,,,,,,,,,,,,,,,,,,,,,,,,,,,,,,,,,,,,,,,,,,,,,,,,,,,,,,,,,,,,,,,,,,,,,,,,,,,,,,,,,,,,,,,,,,,,,,,,,,,,,,,,,,,,,,,,,,,,,,,,,,,,,,,,,,,,,,,,,,,,,,,,,,,,,,,,,,,,,,,,,,,,,,,,,,,,,,,,,,,,,,,,,,,,,,,,,,,,,,,
1763975412.725895,65331.0,0.0,4375.769043,4384.487305,4522.692383,4539.102539,4407.436035,4502.307617,4524.871582,4386.794922,4590.128418,4423.333496,4472.692383,4494.615234,4562.94873,4388.717773,4388.846191,4503.974121,4531.025879,4528.077148,4495.769043,4394.102539,4386.410156,4549.230957,4492.307617,4487.563965,4398.077148,4593.717773,4388.333496,4542.692383,4492.563965,4385.512695,4529.487305,4514.230957,2997.0,0.0,14.0,256.0,18988.0,,,,0.0,4.0,4.0,4.0,4.0,4.0,4.0,4.0,4.0,4.0,4.0,4.0,4.0,4.0,4.0,4.0,4.0,4.0,4.0,4.0,4.0,4.0,4.0,4.0,4.0,4.0,4.0,4.0,4.0,4.0,4.0,4.0,4.0,100.0,,,,,,,,,,,,,,,,,,,,,,,,,,,,,,,,,,,,,,,,,,,,,,,,,,,,,,,,,,,,,,,,,,,,,,,,,,,,,,,,,,,,,,,,,,,,,,,,,,,,,,,,,,,,,,,,,,,,,,,,,,,,,,,,,,,,,,,,,,,,,,,,,,,,,,,,,,,,,,,,,,,,,,,,,,,,,,,,,,,,,,,,,,,,,,,,,,,,,,,,,,,,,,
1763975412.729801,65332.0,0.0,4389.358887,4398.205078,4535.384766,4553.333496,4418.461426,4510.641113,4540.128418,4404.358887,4598.974121,4416.794922,4485.641113,4508.717773,4576.282227,4402.563965,4403.717773,4528.589844,4543.974121,4554.102539,4522.692383,4410.256348,4412.436035,4572.05127,4510.0,4507.307617,4411.410156,4604.871582,4402.05127,4557.692383,4504.615234,4401.538574,4543.333496,4529.358887,2976.0,0.0,14.0,512.0,18996.0,,,,0.0,4.0,4.0,4.0,4.0,4.0,4.0,4.0,4.0,4.0,4.0,4.0,4.0,4.0,4.0,4.0,4.0,4.0,4.0,4.0,4.0,4.0,4.0,4.0,4.0,4.0,4.0,4.0,4.0,4.0,4.0,4.0,4.0,100.0,,,,,,,,,,,,,,,,,,,,,,,,,,,,,,,,,,,,,,,,,,,,,,,,,,,,,,,,,,,,,,,,,,,,,,,,,,,,,,,,,,,,,,,,,,,,,,,,,,,,,,,,,,,,,,,,,,,,,,,,,,,,,,,,,,,,,,,,,,,,,,,,,,,,,,,,,,,,,,,,,,,,,,,,,,,,,,,,,,,,,,,,,,,,,,,,,,,,,,,,,,,,,,
1763975412.733707,65333.0,0.0,4400.641113,4408.589844,4544.487305,4561.794922,4425.128418,4517.820313,4550.384766,4418.589844,4607.05127,4409.358887,4495.769043,4520.256348,4584.871582,4416.153809,4418.589844,4546.282227,4553.333496,4571.794922,4547.179688,4417.820313,4432.307617,4591.282227,4525.128418,4522.05127,4425.641113,4610.641113,4411.666504,4570.641113,4516.282227,4412.94873,4552.179688,4537.05127,2907.0,0.0,14.0,512.0,18996.0,,,,0.0,4.0,4.0,4.0,4.0,4.0,4.0,4.0,4.0,4.0,4.0,4.0,4.0,4.0,4.0,4.0,4.0,4.0,4.0,4.0,4.0,4.0,4.0,4.0,4.0,4.0,4.0,4.0,4.0,4.0,4.0,4.0,4.0,100.0,,,,,,,,,,,,,,,,,,,,,,,,,,,,,,,,,,,32717.0,0.0,0.477026,0.296936,0.213684,0.799133,0.89464,-0.442437,0.083018,37.166668,-21.833334,-24.5,,,,,,,,,,,,,,,,,,,,,,,,,,,,,,,,,,,,,,,,,,,,,,,,,,,,,,,,,,,,,,,,,,,,,,,,,,,,,,,,,,,,,,,,,,,,,,,,,,,,,,,,,,,,,,,,,,,,,,,,,,,,,,,,,,,,,,,,,,,,,,,,,,,,,,,,,,,,,,,,
1763975412.737613,65334.0,0.0,4398.717773,4404.615234,4538.846191,4555.384766,4419.743652,4515.256348,4547.563965,4418.333496,4605.128418,4399.358887,4493.717773,4518.717773,4579.358887,4420.897461,4422.820313,4543.589844,4548.846191,4566.282227,4547.179688,4407.820313,4431.025879,4591.666504,4523.717773,4518.717773,4426.025879,4602.563965,4406.922852,4569.871582,4516.153809,4408.589844,4544.743652,4526.282227,2977.0,0.0,14.0,768.0,19004.0,,,,0.0,4.0,4.0,4.0,4.0,4.0,4.0,4.0,4.0,4.0,4.0,4.0,4.0,4.0,4.0,4.0,4.0,4.0,4.0,4.0,4.0,4.0,4.0,4.0,4.0,4.0,4.0,4.0,4.0,4.0,4.0,4.0,4.0,100.0,,,,,,,,,,,,,,,,,,,,,,,,,,,,,,,,,,,,,,,,,,,,,,,,,,,,,,,,,,,,,,,,,,,,,,,,,,,,,,,,,,,,,,,,,,,,,,,,,,,,,,,,,,,,,,,,,,,,,,,,,,,,,,,,,,,,,,,,,,,,,,,,,,,,,,,,,,,,,,,,,,,,,,,,,,,,,,,,,,,,,,,,,,,,,,,,,,,,,,,,,,,,,,
1763975412.741519,65335.0,0.0,4377.179688,4381.282227,4513.589844,4531.282227,4400.0,4498.589844,4528.333496,4398.589844,4586.538574,4380.384766,4474.487305,4497.692383,4555.769043,4408.333496,4408.333496,4515.128418,4525.641113,4534.230957,4515.512695,4379.615234,4404.102539,4566.666504,4499.230957,4492.94873,4403.077148,4576.410156,4382.307617,4548.461426,4497.436035,4383.974121,4516.538574,4495.256348,2914.0,0.0,14.0,768.0,19004.0,,,,0.0,4.0,4.0,4.0,4.0,4.0,4.0,4.0,4.0,4.0,4.0,4.0,4.0,4.0,4.0,4.0,4.0,4.0,4.0,4.0,4.0,4.0,4.0,4.0,4.0,4.0,4.0,4.0,4.0,4.0,4.0,4.0,4.0,100.0,,,,,,,,,,,,,,,,,,,,,,,,,,,,,,,,,,,,,,,,,,,,,,,,,,,,,,,,,,,,,,,,,,,,,,,,,,,,,,,,,,,,,,,,,,,,,,,,,,,,,,,,,,,,,,,,,,,,,,,,,,,,,,,,,,,,,,,,,,,,,,,,,,,,,,,,,,,,,,,,,,,,,,,,,,,,,,,,,,,,,,,,,,,,,,,,,,,,,,,,,,,,,,
1763975412.745425,65336.0,0.0,4342.436035,4346.025879,4475.512695,4496.922852,4372.307617,4472.436035,4498.461426,4365.769043,4554.230957,4351.538574,4443.077148,4462.692383,4520.897461,4379.743652,4377.436035,4469.615234,4490.128418,4488.589844,4467.820313,4343.717773,4362.436035,4526.538574,4459.743652,4453.974121,4361.922852,4538.846191,4344.102539,4512.179688,4464.615234,4346.922852,4476.153809,4455.512695,2853.0,0.0,14.0,256.0,19012.0,,,,0.0,4.0,4.0,4.0,4.0,4.0,4.0,4.0,4.0,4.0,4.0,4.0,4.0,4.0,4.0,4.0,4.0,4.0,4.0,4.0,4.0,4.0,4.0,4.0,4.0,4.0,4.0,4.0,4.0,4.0,4.0,4.0,4.0,100.0,,,,,,,,,,,,,,,,,,,,,,,,,,,,,,,,,,,,,,,,,,,,,,,,,,,,,,,,,,,,,,,,,,,,,,,,,,,,,,,,,,,,,,,,,,,,,,,,,,,,,,,,,,,,,,,,,,,,,,,,,,,,,,,,,,,,,,,,,,,,,,,,,,,,,,,,,,,,,,,,,,,,,,,,,,,,,,,,,,,,,,,,,,,,,,,,,,,,,,,,,,,,,,
1763975412.749331,65337.0,0.0,4311.666504,4316.153809,4441.922852,4467.820313,4349.615234,4450.0,4471.538574,4335.256348,4522.307617,4323.974121,4414.871582,4431.282227,4491.025879,4347.436035,4343.717773,4428.077148,4459.230957,4452.692383,4432.05127,4317.436035,4327.563965,4493.205078,4425.769043,4422.05127,4322.436035,4506.025879,4309.871582,4478.589844,4434.358887,4315.384766,4442.563965,4426.410156,2838.0,0.0,14.0,256.0,19012.0,,,,0.0,4.0,4.0,4.0,4.0,4.0,4.0,4.0,4.0,4.0,4.0,4.0,4.0,4.0,4.0,4.0,4.0,4.0,4.0,4.0,4.0,4.0,4.0,4.0,4.0,4.0,4.0,4.0,4.0,4.0,4.0,4.0,4.0,100.0,,,,,,,,,,,,,,,,,,,,,,,,,,,,,,,,,,,32718.0,0.0,0.476828,0.297363,0.213989,0.799011,0.899524,-0.455134,0.060066,35.833332,-21.5,-25.0,,,,,,,,,,,,,,,,,,,,,,,,,,,,,,,,,,,,,,,,,,,,,,,,,,,,,,,,,,,,,,,,,,,,,,,,,,,,,,,,,,,,,,,,,,,,,,,,,,,,,,,,,,,,,,,,,,,,,,,,,,,,,,,,,,,,,,,,,,,,,,,,,,,,,,,,,,,,,,,,
1763975412.753237,65338.0,0.0,4304.358887,4310.256348,4431.666504,4460.0,4345.128418,4446.025879,4463.589844,4325.0,4509.743652,4316.282227,4407.692383,4422.820313,4483.974121,4330.256348,4324.615234,4413.077148,4451.410156,4446.666504,4429.871582,4315.512695,4319.615234,4488.077148,4418.974121,4416.666504,4307.820313,4496.538574,4300.128418,4468.461426,4426.282227,4308.717773,4435.384766,4425.128418,2763.0,0.0,14.0,512.0,19020.0,,,,0.0,4.0,4.0,4.0,4.0,4.0,4.0,4.0,4.0,4.0,4.0,4.0,4.0,4.0,4.0,4.0,4.0,4.0,4.0,4.0,4.0,4.0,4.0,4.0,4.0,4.0,4.0,4.0,4.0,4.0,4.0,4.0,4.0,100.0,,,,,,,,,,,,,,,,,,,,,,,,,,,,,,,,,,,,,,,,,,,,,,,,,,,,,,,,,,,,,,,,,,,,,,,,,,,,,,,,,,,,,,,,,,,,,,,,,,,,,,,,,,,,,,,,,,,,,,,,,,,,,,,,,,,,,,,,,,,,,,,,,,,,,,,,,,,,,,,,,,,,,,,,,,,,,,,,,,,,,,,,,,,,,,,,,,,,,,,,,,,,,,
1763975412.757143,65339.0,0.0,4330.512695,4336.410156,4453.077148,4481.282227,4365.0,4468.077148,4483.717773,4344.743652,4527.820313,4339.871582,4430.769043,4447.179688,4508.717773,4340.897461,4332.436035,4436.410156,4476.538574,4476.666504,4463.461426,4341.410156,4344.871582,4518.333496,4448.461426,4445.0,4330.641113,4519.615234,4324.871582,4492.563965,4450.384766,4335.128418,4462.563965,4455.256348,2989.0,0.0,14.0,512.0,19020.0,,,,0.0,4.0,4.0,4.0,4.0,4.0,4.0,4.0,4.0,4.0,4.0,4.0,4.0,4.0,4.0,4.0,4.0,4.0,4.0,4.0,4.0,4.0,4.0,4.0,4.0,4.0,4.0,4.0,4.0,4.0,4.0,4.0,4.0,100.0,,,,,,,,,,,,,,,,,,,,,,,,,,,,,,,,,,,,,,,,,,,,,,,,,,,,,,,,,,,,,,,,,,,,,,,,,,,,,,,,,,,,,,,,,,,,,,,,,,,,,,,,,,,,,,,,,,,,,,,,,,,,,,,,,,,,,,,,,,,,,,,,,,,,,,,,,,,,,,,,,,,,,,,,,,,,,,,,,,,,,,,,,,,,,,,,,,,,,,,,,,,,,,
1763975412.761049,65340.0,0.0,4381.666504,4385.128418,4497.820313,4525.128418,4402.563965,4508.846191,4526.538574,4388.077148,4570.897461,4387.820313,4476.538574,4496.153809,4558.589844,4376.666504,4364.871582,4490.384766,4527.563965,4529.743652,4515.897461,4383.589844,4390.897461,4571.538574,4503.461426,4495.384766,4381.922852,4566.666504,4375.128418,4542.94873,4497.94873,4384.358887,4513.077148,4503.333496,2932.0,0.0,14.0,768.0,19027.0,,,,0.0,4.0,4.0,4.0,4.0,4.0,4.0,4.0,4.0,4.0,4.0,4.0,4.0,4.0,4.0,4.0,4.0,4.0,4.0,4.0,4.0,4.0,4.0,4.0,4.0,4.0,4.0,4.0,4.0,4.0,4.0,4.0,4.0,100.0,,,,,,,,,,,,,,,,,,,,,,,,,,,,,,,,,,,,,,,,,,,,,,,,,,,,,,,,,,,,,,,,,,,,,,,,,,,,,,,,,,,,,,,,,,,,,,,,,,,,,,,,,,,,,,,,,,,,,,,,,,,,,,,,,,,,,,,,,,,,,,,,,,,,,,,,,,,,,,,,,,,,,,,,,,,,,,,,,,,,,,,,,,,,,,,,,,,,,,,,,,,,,,
1763975412.764955,65341.0,0.0,4433.974121,4432.820313,4543.205078,4571.282227,4439.615234,4549.230957,4572.94873,4434.743652,4618.077148,4437.692383,4523.461426,4546.922852,4612.307617,4419.230957,4405.128418,4551.410156,4581.922852,4580.512695,4561.025879,4422.179688,4433.717773,4621.666504,4558.077148,4542.820313,4435.256348,4613.461426,4425.641113,4594.871582,4546.025879,4431.538574,4561.153809,4545.128418,2809.0,0.0,14.0,768.0,19027.0,,,,0.0,4.0,4.0,4.0,4.0,4.0,4.0,4.0,4.0,4.0,4.0,4.0,4.0,4.0,4.0,4.0,4.0,4.0,4.0,4.0,4.0,4.0,4.0,4.0,4.0,4.0,4.0,4.0,4.0,4.0,4.0,4.0,4.0,100.0,,,,,,,,,,,,,,,,,,,,,,,,,,,,,,,,,,,32719.0,0.0,0.4769,0.297607,0.214172,0.798828,0.898547,-0.458552,0.063973,37.166668,-22.166666,-24.166666,,,,,,,,,,,,,,,,,,,,,,,,,,,,,,,,,,,,,,,,,,,,,,,,,,,,,,,,,,,,,,,,,,,,,,,,,,,,,,,,,,,,,,,,,,,,,,,,,,,,,,,,,,,,,,,,,,,,,,,,,,,,,,,,,,,,,,,,,,,,,,,,,,,,,,,,,,,,,,,,
1763975412.768861,65342.0,0.0,4462.179688,4456.922852,4566.410156,4597.436035,4457.563965,4569.102539,4600.769043,4461.025879,4645.769043,4466.538574,4549.102539,4575.769043,4645.769043,4446.153809,4432.692383,4591.538574,4615.0,4606.153809,4578.974121,4439.615234,4452.820313,4645.0,4586.922852,4564.102539,4462.692383,4634.615234,4450.384766,4622.307617,4570.641113,4453.077148,4581.538574,4560.0,2989.0,0.0,14.0,1024.0,19035.0,,,,0.0,4.0,4.0,4.0,4.0,4.0,4.0,4.0,4.0,4.0,4.0,4.0,4.0,4.0,4.0,4.0,4.0,4.0,4.0,4.0,4.0,4.0,4.0,4.0,4.0,4.0,4.0,4.0,4.0,4.0,4.0,4.0,4.0,100.0,,,,,,,,,,,,,,,,,,,,,,,,,,,,,,,,,,,,,,,,,,,,,,,,,,,,,,,,,,,,,,,,,,,,,,,,,,,,,,,,,,,,,,,,,,,,,,,,,,,,,,,,,,,,,,,,,,,,,,,,,,,,,,,,,,,,,,,,,,,,,,,,,,,,,,,,,,,,,,,,,,,,,,,,,,,,,,,,,,,,,,,,,,,,,,,,,,,,,,,,,,,,,,
1763975412.772767,65343.0,0.0,4455.384766,4448.333496,4558.333496,4591.922852,4448.846191,4560.512695,4597.820313,4455.641113,4641.410156,4464.487305,4542.94873,4571.538574,4645.512695,4444.871582,4435.384766,4593.589844,4614.102539,4597.436035,4566.666504,4430.256348,4441.410156,4633.717773,4580.384766,4551.153809,4452.179688,4619.743652,4438.461426,4613.846191,4562.307617,4441.153809,4566.282227,4543.461426,2907.0,0.0,14.0,1024.0,19035.0,,,,0.0,4.0,4.0,4.0,4.0,4.0,4.0,4.0,4.0,4.0,4.0,4.0,4.0,4.0,4.0,4.0,4.0,4.0,4.0,4.0,4.0,4.0,4.0,4.0,4.0,4.0,4.0,4.0,4.0,4.0,4.0,4.0,4.0,100.0,,,,,,,,,,,,,,,,,,,,,,,,,,,,,,,,,,,,,,,,,,,,,,,,,,,,,,,,,,,,,,,,,,,,,,,,,,,,,,,,,,,,,,,,,,,,,,,,,,,,,,,,,,,,,,,,,,,,,,,,,,,,,,,,,,,,,,,,,,,,,,,,,,,,,,,,,,,,,,,,,,,,,,,,,,,,,,,,,,,,,,,,,,,,,,,,,,,,,,,,,,,,,,
1763975412.776673,65344.0,0.0,4421.794922,4416.025879,4527.179688,4559.615234,4420.512695,4531.538574,4568.846191,4423.974121,4610.0,4437.692383,4511.538574,4541.025879,4614.615234,4418.333496,4415.0,4557.05127,4584.743652,4561.666504,4535.0,4400.641113,4408.333496,4597.94873,4546.922852,4513.461426,4412.692383,4578.717773,4398.974121,4577.307617,4528.589844,4405.897461,4526.922852,4507.820313,2825.0,0.0,14.0,1280.0,19043.0,,,,0.0,4.0,4.0,4.0,4.0,4.0,4.0,4.0,4.0,4.0,4.0,4.0,4.0,4.0,4.0,4.0,4.0,4.0,4.0,4.0,4.0,4.0,4.0,4.0,4.0,4.0,4.0,4.0,4.0,4.0,4.0,4.0,4.0,100.0,,,,,,,,,,,,,,,,,,,,,,,,,,,,,,,,,,,,,,,,,,,,,,,,,,,,,,,,,,,,,,,,,,,,,,,,,,,,,,,,,,,,,,,,,,,,,,,,,,,,,,,,,,,,,,,,,,,,,,,,,,,,,,,,,,,,,,,,,,,,,,,,,,,,,,,,,,,,,,,,,,,,,,,,,,,,,,,,,,,,,,,,,,,,,,,,,,,,,,,,,,,,,,
1763975412.780579,65345.0,0.0,4380.384766,4377.563965,4490.512695,4518.077148,4388.077148,4499.102539,4529.487305,4383.846191,4568.205078,4399.615234,4471.666504,4501.794922,4569.230957,4380.769043,4383.077148,4498.333496,4544.487305,4516.153809,4500.512695,4363.846191,4369.102539,4556.666504,4505.0,4470.128418,4365.897461,4532.94873,4352.94873,4532.692383,4487.820313,4366.410156,4484.743652,4471.282227,2851.0,0.0,14.0,1280.0,19043.0,,,,0.0,4.0,4.0,4.0,4.0,4.0,4.0,4.0,4.0,4.0,4.0,4.0,4.0,4.0,4.0,4.0,4.0,4.0,4.0,4.0,4.0,4.0,4.0,4.0,4.0,4.0,4.0,4.0,4.0,4.0,4.0,4.0,4.0,100.0,,,,,,,,,,,,,,,,,,,,,,,,,,,,,,,,,,,32720.0,0.0,0.47699,0.297791,0.214172,0.798706,0.895129,-0.438042,0.048834,36.333332,-20.666666,-24.5,,,,,,,,,,,,,,,,,,,,,,,,,,,,,,,,,,,,,,,,,,,,,,,,,,,,,,,,,,,,,,,,,,,,,,,,,,,,,,,,,,,,,,,,,,,,,,,,,,,,,,,,,,,,,,,,,,,,,,,,,,,,,,,,,,,,,,,,,,,,,,,,,,,,,,,,,,,,,,,,
1763975412.784485,65346.0,0.0,4349.871582,4349.487305,4464.871582,4486.410156,4366.153809,4478.974121,4498.205078,4353.589844,4535.128418,4364.487305,4440.897461,4471.410156,4529.871582,4349.358887,4353.333496,4444.230957,4512.563965,4480.512695,4475.897461,4333.205078,4337.94873,4526.282227,4472.820313,4439.102539,4332.563965,4502.179688,4320.128418,4499.615234,4457.94873,4339.487305,4457.307617,4448.205078,2260.0,0.0,14.0,1536.0,19051.0,,,,0.0,4.0,4.0,4.0,4.0,4.0,4.0,4.0,4.0,4.0,4.0,4.0,4.0,4.0,4.0,4.0,4.0,4.0,4.0,4.0,4.0,4.0,4.0,4.0,4.0,4.0,4.0,4.0,4.0,4.0,4.0,4.0,4.0,100.0,,,,,,,,,,,,,,,,,,,,,,,,,,,,,,,,,,,,,,,,,,,,,,,,,,,,,,,,,,,,,,,,,,,,,,,,,,,,,,,,,,,,,,,,,,,,,,,,,,,,,,,,,,,,,,,,,,,,,,,,,,,,,,,,,,,,,,,,,,,,,,,,,,,,,,,,,,,,,,,,,,,,,,,,,,,,,,,,,,,,,,,,,,,,,,,,,,,,,,,,,,,,,,
1763975412.788391,65347.0,0.0,4341.282227,4341.794922,4458.974121,4477.436035,4362.436035,4478.846191,4487.94873,4345.384766,4523.846191,4342.94873,4431.025879,4461.794922,4513.333496,4336.922852,4336.153809,4420.641113,4501.538574,4468.974121,4468.205078,4319.358887,4324.743652,4516.153809,4461.282227,4430.897461,4323.846191,4496.538574,4311.922852,4490.384766,4449.743652,4333.717773,4452.179688,4444.487305,2954.0,0.0,14.0,1536.0,19051.0,,,,0.0,4.0,4.0,4.0,4.0,4.0,4.0,4.0,4.0,4.0,4.0,4.0,4.0,4.0,4.0,4.0,4.0,4.0,4.0,4.0,4.0,4.0,4.0,4.0,4.0,4.0,4.0,4.0,4.0,4.0,4.0,4.0,4.0,100.0,,,,,,,,,,,,,,,,,,,,,,,,,,,,,,,,,,,,,,,,,,,,,,,,,,,,,,,,,,,,,,,,,,,,,,,,,,,,,,,,,,,,,,,,,,,,,,,,,,,,,,,,,,,,,,,,,,,,,,,,,,,,,,,,,,,,,,,,,,,,,,,,,,,,,,,,,,,,,,,,,,,,,,,,,,,,,,,,,,,,,,,,,,,,,,,,,,,,,,,,,,,,,,
1763975412.792297,65348.0,0.0,4355.0,4355.512695,4472.820313,4492.94873,4376.666504,4496.153809,4501.794922,4361.282227,4537.94873,4341.666504,4444.102539,4474.871582,4525.128418,4347.692383,4337.179688,4439.230957,4513.333496,4485.128418,4478.205078,4326.794922,4333.205078,4527.05127,4472.94873,4445.769043,4339.743652,4514.615234,4328.333496,4506.282227,4464.102539,4349.102539,4468.205078,4459.102539,2864.0,0.0,14.0,1792.0,19059.0,,,,0.0,4.0,4.0,4.0,4.0,4.0,4.0,4.0,4.0,4.0,4.0,4.0,4.0,4.0,4.0,4.0,4.0,4.0,4.0,4.0,4.0,4.0,4.0,4.0,4.0,4.0,4.0,4.0,4.0,4.0,4.0,4.0,4.0,100.0,,,,,,,,,,,,,,,,,,,,,,,,,,,,,,,,,,,,,,,,,,,,,,,,,,,,,,,,,,,,,,,,,,,,,,,,,,,,,,,,,,,,,,,,,,,,,,,,,,,,,,,,,,,,,,,,,,,,,,,,,,,,,,,,,,,,,,,,,,,,,,,,,,,,,,,,,,,,,,,,,,,,,,,,,,,,,,,,,,,,,,,,,,,,,,,,,,,,,,,,,,,,,,
1763975412.796203,65349.0,0.0,4382.307617,4383.717773,4499.487305,4524.230957,4401.538574,4521.282227,4532.05127,4392.692383,4569.358887,4360.384766,4472.94873,4503.205078,4557.307617,4375.128418,4354.871582,4488.589844,4539.358887,4519.615234,4500.384766,4352.563965,4358.717773,4552.05127,4500.641113,4475.0,4371.153809,4546.922852,4359.743652,4537.563965,4492.692383,4378.077148,4497.692383,4485.128418,2398.0,0.0,14.0,1792.0,19059.0,,,,0.0,4.0,4.0,4.0,4.0,4.0,4.0,4.0,4.0,4.0,4.0,4.0,4.0,4.0,4.0,4.0,4.0,4.0,4.0,4.0,4.0,4.0,4.0,4.0,4.0,4.0,4.0,4.0,4.0,4.0,4.0,4.0,4.0,100.0,,,,,,,,,,,,,,,,,,,,,,,,,,,,,,,,,,,32721.0,0.0,0.476914,0.297913,0.214172,0.798706,0.883897,-0.466854,0.050787,35.0,-21.833334,-25.333334,,,,,,,,,,,,,,,,,,,,,,,,,,,,,,,,,,,,,,,,,,,,,,,,,,,,,,,,,,,,,,,,,,,,,,,,,,,,,,,,,,,,,,,,,,,,,,,,,,,,,,,,,,,,,,,,,,,,,,,,,,,,,,,,,,,,,,,,,,,,,,,,,,,,,,,,,,,,,,,,
1763975412.800109,65350.0,0.0,4409.230957,4413.333496,4527.05127,4556.538574,4425.897461,4542.436035,4563.461426,4424.743652,4602.94873,4390.256348,4503.461426,4531.794922,4591.025879,4405.0,4380.897461,4539.230957,4565.128418,4553.205078,4522.307617,4385.384766,4388.461426,4578.077148,4529.871582,4504.487305,4404.230957,4579.871582,4391.666504,4568.974121,4521.922852,4408.205078,4528.589844,4512.563965,2961.0,0.0,14.0,2048.0,19066.0,,,,0.0,4.0,4.0,4.0,4.0,4.0,4.0,4.0,4.0,4.0,4.0,4.0,4.0,4.0,4.0,4.0,4.0,4.0,4.0,4.0,4.0,4.0,4.0,4.0,4.0,4.0,4.0,4.0,4.0,4.0,4.0,4.0,4.0,100.0,,,,,,,,,,,,,,,,,,,,,,,,,,,,,,,,,,,,,,,,,,,,,,,,,,,,,,,,,,,,,,,,,,,,,,,,,,,,,,,,,,,,,,,,,,,,,,,,,,,,,,,,,,,,,,,,,,,,,,,,,,,,,,,,,,,,,,,,,,,,,,,,,,,,,,,,,,,,,,,,,,,,,,,,,,,,,,,,,,,,,,,,,,,,,,,,,,,,,,,,,,,,,,
1763975412.804015,65351.0,0.0,4422.307617,4430.384766,4543.974121,4575.769043,4439.487305,4550.384766,4580.897461,4442.563965,4623.077148,4416.153809,4521.410156,4546.410156,4607.692383,4422.179688,4402.94873,4562.05127,4576.794922,4567.179688,4530.384766,4409.871582,4407.563965,4591.153809,4545.769043,4520.897461,4424.743652,4601.153809,4410.641113,4585.897461,4538.589844,4426.922852,4548.589844,4531.153809,2947.0,0.0,14.0,2048.0,19066.0,,,,0.0,4.0,4.0,4.0,4.0,4.0,4.0,4.0,4.0,4.0,4.0,4.0,4.0,4.0,4.0,4.0,4.0,4.0,4.0,4.0,4.0,4.0,4.0,4.0,4.0,4.0,4.0,4.0,4.0,4.0,4.0,4.0,4.0,100.0,,,,,,,,,,,,,,,,,,,,,,,,,,,,,,,,,,,,,,,,,,,,,,,,,,,,,,,,,,,,,,,,,,,,,,,,,,,,,,,,,,,,,,,,,,,,,,,,,,,,,,,,,,,,,,,,,,,,,,,,,,,,,,,,,,,,,,,,,,,,,,,,,,,,,,,,,,,,,,,,,,,,,,,,,,,,,,,,,,,,,,,,,,,,,,,,,,,,,,,,,,,,,,
1763975412.807921,65352.0,0.0,4415.128418,4427.692383,4543.461426,4574.487305,4437.94873,4542.692383,4576.794922,4438.461426,4621.410156,4424.358887,4518.461426,4539.871582,4598.589844,4418.205078,4410.256348,4546.025879,4567.820313,4554.487305,4518.717773,4414.615234,4406.794922,4583.461426,4539.358887,4517.436035,4424.358887,4603.974121,4410.897461,4581.922852,4536.025879,4427.820313,4550.641113,4533.717773,2640.0,0.0,14.0,2304.0,19074.0,,,,0.0,4.0,4.0,4.0,4.0,4.0,4.0,4.0,4.0,4.0,4.0,4.0,4.0,4.0,4.0,4.0,4.0,4.0,4.0,4.0,4.0,4.0,4.0,4.0,4.0,4.0,4.0,4.0,4.0,4.0,4.0,4.0,4.0,100.0,1.0,25.0,1.0,1.0,1.0,1.0,1.0,1.0,1.0,1.0,1.0,1.0,1.0,1.0,1.0,1.0,1.0,1.0,1.0,1.0,1.0,1.0,1.0,1.0,1.0,1.0,1.0,1.0,1.0,1.0,1.0,1.0,1.0,1.0,,,,,,,,,,,,,4.428885,7.07478,4.900778,10.858433,4.860106,5.399524,5.979531,4.961746,12.035097,5.047811,2.843654,5.266803,3.863354,13.967043,5.709419,2.152754,4.150147,3.930125,13.395499,5.835455,2.269199,3.361131,3.376378,8.982326,3.798193,2.703988,3.319308,3.558174,8.350204,3.01533,3.011299,4.479709,4.24455,12.523499,4.927905,2.762252,4.496234,4.14853,14.154375,5.425192,1.667764,2.472955,3.216854,11.990571,5.354519,1.935574,5.015154,6.631622,11.805126,5.553395,2.737244,3.632251,3.345524,11.049071,4.629996,3.688138,5.868646,4.229617,11.326166,4.383609,3.13411,5.078931,4.69544,12.52121,4.595326,1.227666,1.593824,2.163198,8.676391,3.43083,1.757632,1.260434,1.33111,11.124207,4.719129,4.149436,5.514646,3.89061,12.826007,4.511853,3.460066,5.979564,3.46195,10.709749,4.139636,4.669357,6.366787,3.662931,13.64169,5.522137,4.683925,5.560236,3.851832,11.140897,6.059771,3.999965,4.183688,3.100571,12.843528,6.064609,5.708991,4.6505,3.585052,10.777786,5.082939,5.485132,7.256298,4.509641,12.327874,5.538567,4.688322,7.875677,5.889885,13.359856,5.568044,4.034539,7.029699,4.315264,11.896152,5.165361,3.35988,5.857394,5.650775,11.15787,6.231195,3.925947,5.611866,4.883904,13.652862,6.208193,4.675161,8.083855,5.157887,14.250299,5.706486,3.430785,7.583924,5.291296,13.351216,5.220439,3.611064,7.056122,5.24587,11.516395,4.833129,4.843133,8.623815,5.368524,13.341228,5.467621,4.447243,7.22193,5.387239,13.719868,5.769196,3.214743,6.524202,4.239145,13.539652,5.852654
1763975412.811827,65353.0,0.0,4391.282227,4408.846191,4528.077148,4555.769043,4424.230957,4524.230957,4554.743652,4416.025879,4601.025879,4411.153809,4496.922852,4516.153809,4570.128418,4395.769043,4399.487305,4503.717773,4542.307617,4523.589844,4493.333496,4399.615234,4387.94873,4558.077148,4513.717773,4496.794922,4405.0,4590.897461,4396.025879,4561.153809,4516.794922,4413.333496,4536.666504,4521.025879,2824.0,0.0,14.0,2304.0,19074.0,,,,0.0,4.0,4.0,4.0,4.0,4.0,4.0,4.0,4.0,4.0,4.0,4.0,4.0,4.0,4.0,4.0,4.0,4.0,4.0,4.0,4.0,4.0,4.0,4.0,4.0,4.0,4.0,4.0,4.0,4.0,4.0,4.0,4.0,100.0,,,,,,,,,,,,,,,,,,,,,,,,,,,,,,,,,,,32722.0,0.0,0.47696,0.298035,0.214355,0.798584,0.883897,-0.466854,0.050787,37.0,-21.666666,-25.5,,,,,,,,,,,,,,,,,,,,,,,,,,,,,,,,,,,,,,,,,,,,,,,,,,,,,,,,,,,,,,,,,,,,,,,,,,,,,,,,,,,,,,,,,,,,,,,,,,,,,,,,,,,,,,,,,,,,,,,,,,,,,,,,,,,,,,,,,,,,,,,,,,,,,,,,,,,,,,,,
1763975412.815733,65354.0,0.0,4363.461426,4386.794922,4508.205078,4531.666504,4407.179688,4505.384766,4528.205078,4388.461426,4574.743652,4386.153809,4468.846191,4488.846191,4538.974121,4367.820313,4378.461426,4462.563965,4512.94873,4493.333496,4469.487305,4377.307617,4364.230957,4528.461426,4482.563965,4471.410156,4379.102539,4571.794922,4377.179688,4536.410156,4492.820313,4393.589844,4516.794922,4502.05127,2639.0,0.0,14.0,1536.0,19082.0,,,,0.0,4.0,4.0,4.0,4.0,4.0,4.0,4.0,4.0,4.0,4.0,4.0,4.0,4.0,4.0,4.0,4.0,4.0,4.0,4.0,4.0,4.0,4.0,4.0,4.0,4.0,4.0,4.0,4.0,4.0,4.0,4.0,4.0,100.0,,,,,,,,,,,,,,,,,,,,,,,,,,,,,,,,,,,,,,,,,,,,,,,,,,,,,,,,,,,,,,,,,,,,,,,,,,,,,,,,,,,,,,,,,,,,,,,,,,,,,,,,,,,,,,,,,,,,,,,,,,,,,,,,,,,,,,,,,,,,,,,,,,,,,,,,,,,,,,,,,,,,,,,,,,,,,,,,,,,,,,,,,,,,,,,,,,,,,,,,,,,,,,
1763975412.819639,65355.0,0.0,4346.282227,4375.0,4496.922852,4516.794922,4396.666504,4495.641113,4512.05127,4370.897461,4557.563965,4366.666504,4449.487305,4472.307617,4522.179688,4349.871582,4361.794922,4445.897461,4494.487305,4481.282227,4461.025879,4364.487305,4351.282227,4510.641113,4463.205078,4455.897461,4362.692383,4559.487305,4366.410156,4521.922852,4477.563965,4380.641113,4503.974121,4489.487305,2964.0,0.0,14.0,1536.0,19082.0,,,,0.0,4.0,4.0,4.0,4.0,4.0,4.0,4.0,4.0,4.0,4.0,4.0,4.0,4.0,4.0,4.0,4.0,4.0,4.0,4.0,4.0,4.0,4.0,4.0,4.0,4.0,4.0,4.0,4.0,4.0,4.0,4.0,4.0,100.0,,,,,,,,,,,,,,,,,,,,,,,,,,,,,,,,,,,,,,,,,,,,,,,,,,,,,,,,,,,,,,,,,,,,,,,,,,,,,,,,,,,,,,,,,,,,,,,,,,,,,,,,,,,,,,,,,,,,,,,,,,,,,,,,,,,,,,,,,,,,,,,,,,,,,,,,,,,,,,,,,,,,,,,,,,,,,,,,,,,,,,,,,,,,,,,,,,,,,,,,,,,,,,
1763975412.823545,65356.0,0.0,4347.307617,4379.102539,4500.641113,4518.974121,4397.563965,4498.717773,4513.077148,4371.410156,4558.205078,4364.358887,4448.077148,4473.333496,4525.769043,4351.153809,4361.410156,4459.102539,4493.717773,4491.666504,4470.512695,4370.128418,4356.538574,4512.436035,4464.102539,4458.205078,4365.641113,4561.282227,4369.487305,4524.358887,4478.077148,4381.025879,4505.384766,4491.538574,2923.0,0.0,14.0,512.0,19090.0,,,,0.0,4.0,4.0,4.0,4.0,4.0,4.0,4.0,4.0,4.0,4.0,4.0,4.0,4.0,4.0,4.0,4.0,4.0,4.0,4.0,4.0,4.0,4.0,4.0,4.0,4.0,4.0,4.0,4.0,4.0,4.0,4.0,4.0,100.0,,,,,,,,,,,,,,,,,,,,,,,,,,,,,,,,,,,,,,,,,,,,,,,,,,,,,,,,,,,,,,,,,,,,,,,,,,,,,,,,,,,,,,,,,,,,,,,,,,,,,,,,,,,,,,,,,,,,,,,,,,,,,,,,,,,,,,,,,,,,,,,,,,,,,,,,,,,,,,,,,,,,,,,,,,,,,,,,,,,,,,,,,,,,,,,,,,,,,,,,,,,,,,
1763975412.827451,65357.0,0.0,4361.282227,4393.333496,4515.384766,4534.358887,4406.794922,4509.743652,4526.153809,4386.025879,4574.102539,4378.589844,4462.179688,4486.538574,4542.307617,4369.230957,4377.563965,4488.717773,4506.153809,4513.974121,4487.692383,4388.077148,4374.102539,4529.230957,4480.384766,4473.974121,4384.102539,4574.487305,4382.307617,4538.205078,4490.512695,4392.05127,4517.94873,4505.512695,2699.0,0.0,14.0,512.0,19090.0,,,,0.0,4.0,4.0,4.0,4.0,4.0,4.0,4.0,4.0,4.0,4.0,4.0,4.0,4.0,4.0,4.0,4.0,4.0,4.0,4.0,4.0,4.0,4.0,4.0,4.0,4.0,4.0,4.0,4.0,4.0,4.0,4.0,4.0,100.0,,,,,,,,,,,,,,,,,,,,,,,,,,,,,,,,,,,32723.0,0.0,0.476561,0.298157,0.214844,0.798645,0.895129,-0.45904,0.08839,37.5,-20.166666,-24.166666,,,,,,,,,,,,,,,,,,,,,,,,,,,,,,,,,,,,,,,,,,,,,,,,,,,,,,,,,,,,,,,,,,,,,,,,,,,,,,,,,,,,,,,,,,,,,,,,,,,,,,,,,,,,,,,,,,,,,,,,,,,,,,,,,,,,,,,,,,,,,,,,,,,,,,,,,,,,,,,,
1763975412.831357,65358.0,0.0,4375.769043,4405.0,4529.615234,4551.025879,4416.025879,4519.358887,4539.615234,4402.307617,4592.820313,4398.717773,4479.743652,4499.487305,4557.692383,4392.05127,4398.333496,4515.384766,4519.615234,4531.922852,4499.358887,4402.563965,4390.769043,4548.333496,4498.205078,4490.512695,4404.230957,4588.333496,4394.487305,4551.666504,4503.974121,4403.589844,4531.410156,4520.641113,2711.0,0.0,14.0,512.0,19098.0,,,,0.0,4.0,4.0,4.0,4.0,4.0,4.0,4.0,4.0,4.0,4.0,4.0,4.0,4.0,4.0,4.0,4.0,4.0,4.0,4.0,4.0,4.0,4.0,4.0,4.0,4.0,4.0,4.0,4.0,4.0,4.0,4.0,4.0,100.0,,,,,,,,,,,,,,,,,,,,,,,,,,,,,,,,,,,,,,,,,,,,,,,,,,,,,,,,,,,,,,,,,,,,,,,,,,,,,,,,,,,,,,,,,,,,,,,,,,,,,,,,,,,,,,,,,,,,,,,,,,,,,,,,,,,,,,,,,,,,,,,,,,,,,,,,,,,,,,,,,,,,,,,,,,,,,,,,,,,,,,,,,,,,,,,,,,,,,,,,,,,,,,
1763975412.835263,65359.0,0.0,4380.256348,4405.128418,4532.436035,4557.179688,4417.307617,4519.871582,4543.974121,4408.333496,4601.410156,4412.692383,4487.820313,4502.436035,4561.410156,4405.256348,4408.333496,4524.871582,4524.871582,4535.256348,4499.871582,4401.538574,4396.410156,4558.974121,4505.769043,4497.05127,4412.94873,4591.538574,4397.179688,4555.256348,4508.589844,4406.153809,4535.256348,4525.256348,2826.0,0.0,14.0,512.0,19098.0,,,,0.0,4.0,4.0,4.0,4.0,4.0,4.0,4.0,4.0,4.0,4.0,4.0,4.0,4.0,4.0,4.0,4.0,4.0,4.0,4.0,4.0,4.0,4.0,4.0,4.0,4.0,4.0,4.0,4.0,4.0,4.0,4.0,4.0,100.0,,,,,,,,,,,,,,,,,,,,,,,,,,,,,,,,,,,,,,,,,,,,,,,,,,,,,,,,,,,,,,,,,,,,,,,,,,,,,,,,,,,,,,,,,,,,,,,,,,,,,,,,,,,,,,,,,,,,,,,,,,,,,,,,,,,,,,,,,,,,,,,,,,,,,,,,,,,,,,,,,,,,,,,,,,,,,,,,,,,,,,,,,,,,,,,,,,,,,,,,,,,,,,
1763975412.839169,65360.0,0.0,4373.077148,4393.846191,4521.025879,4548.717773,4409.102539,4510.641113,4537.436035,4399.743652,4593.589844,4413.461426,4481.153809,4494.615234,4552.307617,4401.794922,4399.102539,4515.0,4520.512695,4524.743652,4492.820313,4385.641113,4389.615234,4558.846191,4500.641113,4491.410156,4406.410156,4580.641113,4388.717773,4548.461426,4502.05127,4397.307617,4526.153809,4515.641113,2932.0,0.0,14.0,512.0,19105.0,,,,0.0,4.0,4.0,4.0,4.0,4.0,4.0,4.0,4.0,4.0,4.0,4.0,4.0,4.0,4.0,4.0,4.0,4.0,4.0,4.0,4.0,4.0,4.0,4.0,4.0,4.0,4.0,4.0,4.0,4.0,4.0,4.0,4.0,100.0,,,,,,,,,,,,,,,,,,,,,,,,,,,,,,,,,,,,,,,,,,,,,,,,,,,,,,,,,,,,,,,,,,,,,,,,,,,,,,,,,,,,,,,,,,,,,,,,,,,,,,,,,,,,,,,,,,,,,,,,,,,,,,,,,,,,,,,,,,,,,,,,,,,,,,,,,,,,,,,,,,,,,,,,,,,,,,,,,,,,,,,,,,,,,,,,,,,,,,,,,,,,,,
1763975412.843075,65361.0,0.0,4361.282227,4379.358887,4502.05127,4531.922852,4396.666504,4498.333496,4525.769043,4383.461426,4573.717773,4400.256348,4465.0,4484.230957,4538.333496,4385.384766,4375.256348,4494.743652,4512.692383,4510.0,4486.410156,4367.307617,4377.563965,4553.333496,4490.641113,4480.512695,4391.794922,4562.94873,4375.384766,4538.846191,4490.128418,4382.94873,4510.641113,4498.461426,3030.0,0.0,14.0,512.0,19105.0,,,,0.0,4.0,4.0,4.0,4.0,4.0,4.0,4.0,4.0,4.0,4.0,4.0,4.0,4.0,4.0,4.0,4.0,4.0,4.0,4.0,4.0,4.0,4.0,4.0,4.0,4.0,4.0,4.0,4.0,4.0,4.0,4.0,4.0,100.0,,,,,,,,,,,,,,,,,,,,,,,,,,,,,,,,,,,32724.0,0.0,0.476583,0.298035,0.214966,0.798645,0.895129,-0.45904,0.08839,37.666668,-20.833334,-26.0,,,,,,,,,,,,,,,,,,,,,,,,,,,,,,,,,,,,,,,,,,,,,,,,,,,,,,,,,,,,,,,,,,,,,,,,,,,,,,,,,,,,,,,,,,,,,,,,,,,,,,,,,,,,,,,,,,,,,,,,,,,,,,,,,,,,,,,,,,,,,,,,,,,,,,,,,,,,,,,,
1763975412.846981,65362.0,0.0,4355.769043,4371.666504,4486.922852,4518.205078,4388.589844,4492.436035,4518.333496,4372.05127,4553.717773,4378.589844,4451.666504,4481.410156,4531.666504,4368.333496,4351.794922,4479.358887,4510.641113,4502.563965,4487.307617,4360.384766,4369.871582,4551.538574,4487.179688,4474.615234,4381.538574,4550.769043,4366.794922,4535.897461,4482.05127,4373.077148,4500.0,4485.512695,2802.0,0.0,14.0,512.0,19113.0,,,,0.0,4.0,4.0,4.0,4.0,4.0,4.0,4.0,4.0,4.0,4.0,4.0,4.0,4.0,4.0,4.0,4.0,4.0,4.0,4.0,4.0,4.0,4.0,4.0,4.0,4.0,4.0,4.0,4.0,4.0,4.0,4.0,4.0,100.0,,,,,,,,,,,,,,,,,,,,,,,,,,,,,,,,,,,,,,,,,,,,,,,,,,,,,,,,,,,,,,,,,,,,,,,,,,,,,,,,,,,,,,,,,,,,,,,,,,,,,,,,,,,,,,,,,,,,,,,,,,,,,,,,,,,,,,,,,,,,,,,,,,,,,,,,,,,,,,,,,,,,,,,,,,,,,,,,,,,,,,,,,,,,,,,,,,,,,,,,,,,,,,
1763975412.850887,65363.0,0.0,4362.05127,4374.871582,4483.333496,4516.025879,4389.358887,4497.94873,4520.641113,4373.846191,4544.102539,4357.05127,4450.641113,4490.512695,4538.974121,4361.666504,4343.077148,4478.974121,4519.615234,4507.179688,4496.410156,4367.820313,4372.05127,4558.974121,4496.025879,4478.589844,4382.692383,4551.153809,4367.820313,4543.333496,4483.589844,4373.461426,4500.641113,4484.358887,2992.0,0.0,14.0,512.0,19113.0,,,,0.0,4.0,4.0,4.0,4.0,4.0,4.0,4.0,4.0,4.0,4.0,4.0,4.0,4.0,4.0,4.0,4.0,4.0,4.0,4.0,4.0,4.0,4.0,4.0,4.0,4.0,4.0,4.0,4.0,4.0,4.0,4.0,4.0,100.0,,,,,,,,,,,,,,,,,,,,,,,,,,,,,,,,,,,,,,,,,,,,,,,,,,,,,,,,,,,,,,,,,,,,,,,,,,,,,,,,,,,,,,,,,,,,,,,,,,,,,,,,,,,,,,,,,,,,,,,,,,,,,,,,,,,,,,,,,,,,,,,,,,,,,,,,,,,,,,,,,,,,,,,,,,,,,,,,,,,,,,,,,,,,,,,,,,,,,,,,,,,,,,
1763975412.854793,65364.0,0.0,4376.153809,4383.205078,4489.230957,4523.589844,4395.769043,4510.769043,4529.615234,4385.384766,4547.179688,4343.974121,4461.666504,4505.641113,4556.922852,4366.922852,4351.794922,4490.897461,4536.922852,4518.717773,4508.205078,4379.230957,4380.641113,4572.307617,4512.05127,4488.077148,4391.410156,4559.102539,4374.230957,4554.743652,4491.794922,4380.0,4507.94873,4491.282227,2972.0,0.0,14.0,256.0,19121.0,,,,0.0,4.0,4.0,4.0,4.0,4.0,4.0,4.0,4.0,4.0,4.0,4.0,4.0,4.0,4.0,4.0,4.0,4.0,4.0,4.0,4.0,4.0,4.0,4.0,4.0,4.0,4.0,4.0,4.0,4.0,4.0,4.0,4.0,100.0,,,,,,,,,,,,,,,,,,,,,,,,,,,,,,,,,,,,,,,,,,,,,,,,,,,,,,,,,,,,,,,,,,,,,,,,,,,,,,,,,,,,,,,,,,,,,,,,,,,,,,,,,,,,,,,,,,,,,,,,,,,,,,,,,,,,,,,,,,,,,,,,,,,,,,,,,,,,,,,,,,,,,,,,,,,,,,,,,,,,,,,,,,,,,,,,,,,,,,,,,,,,,,
1763975412.858699,65365.0,0.0,4388.333496,4387.820313,4496.025879,4531.666504,4400.769043,4522.307617,4536.922852,4395.256348,4556.922852,4345.0,4476.153809,4517.436035,4574.358887,4376.922852,4369.230957,4503.846191,4553.461426,4527.94873,4514.871582,4381.410156,4387.179688,4583.077148,4524.487305,4493.846191,4397.179688,4563.333496,4376.410156,4560.384766,4498.846191,4384.358887,4511.282227,4495.769043,2901.0,0.0,14.0,256.0,19121.0,,,,0.0,4.0,4.0,4.0,4.0,4.0,4.0,4.0,4.0,4.0,4.0,4.0,4.0,4.0,4.0,4.0,4.0,4.0,4.0,4.0,4.0,4.0,4.0,4.0,4.0,4.0,4.0,4.0,4.0,4.0,4.0,4.0,4.0,100.0,,,,,,,,,,,,,,,,,,,,,,,,,,,,,,,,,,,32725.0,0.0,0.476586,0.297791,0.214844,0.798767,0.897082,-0.457087,0.082041,36.666668,-20.666666,-26.666666,,,,,,,,,,,,,,,,,,,,,,,,,,,,,,,,,,,,,,,,,,,,,,,,,,,,,,,,,,,,,,,,,,,,,,,,,,,,,,,,,,,,,,,,,,,,,,,,,,,,,,,,,,,,,,,,,,,,,,,,,,,,,,,,,,,,,,,,,,,,,,,,,,,,,,,,,,,,,,,,
1763975412.862605,65366.0,0.0,4393.589844,4385.641113,4498.333496,4534.230957,4400.769043,4527.179688,4538.589844,4396.666504,4566.666504,4362.05127,4486.794922,4521.666504,4584.615234,4385.512695,4384.615234,4511.025879,4563.461426,4531.666504,4514.230957,4372.307617,4387.820313,4586.666504,4528.333496,4492.692383,4394.743652,4559.102539,4371.666504,4557.692383,4501.025879,4382.820313,4506.538574,4492.563965,2975.0,0.0,14.0,512.0,19129.0,,,,0.0,4.0,4.0,4.0,4.0,4.0,4.0,4.0,4.0,4.0,4.0,4.0,4.0,4.0,4.0,4.0,4.0,4.0,4.0,4.0,4.0,4.0,4.0,4.0,4.0,4.0,4.0,4.0,4.0,4.0,4.0,4.0,4.0,100.0,,,,,,,,,,,,,,,,,,,,,,,,,,,,,,,,,,,,,,,,,,,,,,,,,,,,,,,,,,,,,,,,,,,,,,,,,,,,,,,,,,,,,,,,,,,,,,,,,,,,,,,,,,,,,,,,,,,,,,,,,,,,,,,,,,,,,,,,,,,,,,,,,,,,,,,,,,,,,,,,,,,,,,,,,,,,,,,,,,,,,,,,,,,,,,,,,,,,,,,,,,,,,,
1763975412.866511,65367.0,0.0,4396.025879,4383.717773,4499.358887,4534.230957,4400.769043,4528.846191,4539.358887,4394.230957,4574.871582,4392.179688,4494.358887,4524.102539,4590.897461,4393.205078,4395.0,4517.436035,4569.487305,4535.641113,4512.692383,4365.128418,4388.333496,4587.563965,4529.102539,4491.666504,4390.128418,4554.102539,4367.94873,4554.743652,4502.436035,4381.538574,4501.538574,4487.179688,2912.0,0.0,14.0,512.0,19129.0,,,,0.0,4.0,4.0,4.0,4.0,4.0,4.0,4.0,4.0,4.0,4.0,4.0,4.0,4.0,4.0,4.0,4.0,4.0,4.0,4.0,4.0,4.0,4.0,4.0,4.0,4.0,4.0,4.0,4.0,4.0,4.0,4.0,4.0,100.0,,,,,,,,,,,,,,,,,,,,,,,,,,,,,,,,,,,,,,,,,,,,,,,,,,,,,,,,,,,,,,,,,,,,,,,,,,,,,,,,,,,,,,,,,,,,,,,,,,,,,,,,,,,,,,,,,,,,,,,,,,,,,,,,,,,,,,,,,,,,,,,,,,,,,,,,,,,,,,,,,,,,,,,,,,,,,,,,,,,,,,,,,,,,,,,,,,,,,,,,,,,,,,
1763975412.870417,65368.0,0.0,4403.717773,4391.282227,4506.538574,4539.871582,4407.436035,4533.846191,4546.922852,4397.94873,4584.230957,4425.897461,4504.102539,4533.333496,4600.641113,4404.230957,4404.230957,4531.410156,4578.846191,4547.692383,4518.974121,4375.384766,4396.922852,4593.974121,4536.153809,4499.743652,4393.974121,4560.256348,4376.282227,4562.436035,4510.256348,4389.358887,4507.436035,4490.641113,2857.0,0.0,14.0,768.0,19137.0,,,,0.0,4.0,4.0,4.0,4.0,4.0,4.0,4.0,4.0,4.0,4.0,4.0,4.0,4.0,4.0,4.0,4.0,4.0,4.0,4.0,4.0,4.0,4.0,4.0,4.0,4.0,4.0,4.0,4.0,4.0,4.0,4.0,4.0,100.0,,,,,,,,,,,,,,,,,,,,,,,,,,,,,,,,,,,,,,,,,,,,,,,,,,,,,,,,,,,,,,,,,,,,,,,,,,,,,,,,,,,,,,,,,,,,,,,,,,,,,,,,,,,,,,,,,,,,,,,,,,,,,,,,,,,,,,,,,,,,,,,,,,,,,,,,,,,,,,,,,,,,,,,,,,,,,,,,,,,,,,,,,,,,,,,,,,,,,,,,,,,,,,
1763975412.874323,65369.0,0.0,4417.436035,4408.205078,4521.153809,4553.589844,4420.384766,4543.333496,4561.410156,4410.769043,4594.615234,4448.974121,4515.897461,4548.974121,4614.358887,4417.307617,4414.358887,4551.282227,4592.563965,4565.641113,4533.205078,4403.461426,4412.563965,4605.769043,4550.384766,4515.384766,4408.461426,4578.717773,4396.410156,4580.512695,4524.487305,4406.153809,4525.512695,4505.897461,2835.0,0.0,14.0,768.0,19137.0,,,,0.0,4.0,4.0,4.0,4.0,4.0,4.0,4.0,4.0,4.0,4.0,4.0,4.0,4.0,4.0,4.0,4.0,4.0,4.0,4.0,4.0,4.0,4.0,4.0,4.0,4.0,4.0,4.0,4.0,4.0,4.0,4.0,4.0,100.0,,,,,,,,,,,,,,,,,,,,,,,,,,,,,,,,,,,32726.0,0.0,0.476775,0.297424,0.214478,0.798889,0.890245,-0.44732,0.053717,35.5,-18.666666,-27.5,,,,,,,,,,,,,,,,,,,,,,,,,,,,,,,,,,,,,,,,,,,,,,,,,,,,,,,,,,,,,,,,,,,,,,,,,,,,,,,,,,,,,,,,,,,,,,,,,,,,,,,,,,,,,,,,,,,,,,,,,,,,,,,,,,,,,,,,,,,,,,,,,,,,,,,,,,,,,,,,
1763975412.878229,65370.0,0.0,4427.05127,4421.410156,4533.717773,4565.769043,4429.743652,4549.743652,4571.666504,4422.563965,4600.256348,4449.743652,4521.666504,4559.230957,4621.666504,4423.974121,4419.615234,4562.692383,4601.025879,4576.410156,4544.358887,4431.153809,4422.94873,4611.666504,4560.384766,4525.512695,4421.794922,4595.769043,4413.461426,4594.743652,4535.128418,4419.743652,4542.307617,4522.05127,2766.0,0.0,14.0,1024.0,19145.0,,,,0.0,4.0,4.0,4.0,4.0,4.0,4.0,4.0,4.0,4.0,4.0,4.0,4.0,4.0,4.0,4.0,4.0,4.0,4.0,4.0,4.0,4.0,4.0,4.0,4.0,4.0,4.0,4.0,4.0,4.0,4.0,4.0,4.0,100.0,,,,,,,,,,,,,,,,,,,,,,,,,,,,,,,,,,,,,,,,,,,,,,,,,,,,,,,,,,,,,,,,,,,,,,,,,,,,,,,,,,,,,,,,,,,,,,,,,,,,,,,,,,,,,,,,,,,,,,,,,,,,,,,,,,,,,,,,,,,,,,,,,,,,,,,,,,,,,,,,,,,,,,,,,,,,,,,,,,,,,,,,,,,,,,,,,,,,,,,,,,,,,,
1763975412.882135,65371.0,0.0,4420.256348,4416.666504,4531.922852,4563.205078,4425.0,4543.589844,4565.384766,4419.230957,4593.333496,4427.436035,4511.538574,4550.769043,4610.0,4414.615234,4411.922852,4549.487305,4591.922852,4565.384766,4539.230957,4436.025879,4415.128418,4598.846191,4552.436035,4516.153809,4418.333496,4594.487305,4410.641113,4588.846191,4529.871582,4415.512695,4540.897461,4523.077148,2979.0,0.0,14.0,1024.0,19145.0,,,,0.0,4.0,4.0,4.0,4.0,4.0,4.0,4.0,4.0,4.0,4.0,4.0,4.0,4.0,4.0,4.0,4.0,4.0,4.0,4.0,4.0,4.0,4.0,4.0,4.0,4.0,4.0,4.0,4.0,4.0,4.0,4.0,4.0,100.0,,,,,,,,,,,,,,,,,,,,,,,,,,,,,,,,,,,,,,,,,,,,,,,,,,,,,,,,,,,,,,,,,,,,,,,,,,,,,,,,,,,,,,,,,,,,,,,,,,,,,,,,,,,,,,,,,,,,,,,,,,,,,,,,,,,,,,,,,,,,,,,,,,,,,,,,,,,,,,,,,,,,,,,,,,,,,,,,,,,,,,,,,,,,,,,,,,,,,,,,,,,,,,
1763975412.886041,65372.0,0.0,4394.871582,4392.563965,4512.563965,4542.179688,4405.256348,4523.589844,4541.025879,4396.794922,4573.461426,4393.205078,4485.512695,4522.307617,4577.94873,4389.102539,4390.128418,4507.94873,4562.692383,4530.512695,4515.128418,4410.769043,4389.102539,4566.794922,4523.846191,4487.05127,4394.358887,4570.769043,4384.230957,4560.256348,4506.922852,4391.666504,4517.05127,4503.461426,2928.0,0.0,14.0,1280.0,19152.0,,,,0.0,4.0,4.0,4.0,4.0,4.0,4.0,4.0,4.0,4.0,4.0,4.0,4.0,4.0,4.0,4.0,4.0,4.0,4.0,4.0,4.0,4.0,4.0,4.0,4.0,4.0,4.0,4.0,4.0,4.0,4.0,4.0,4.0,100.0,,,,,,,,,,,,,,,,,,,,,,,,,,,,,,,,,,,,,,,,,,,,,,,,,,,,,,,,,,,,,,,,,,,,,,,,,,,,,,,,,,,,,,,,,,,,,,,,,,,,,,,,,,,,,,,,,,,,,,,,,,,,,,,,,,,,,,,,,,,,,,,,,,,,,,,,,,,,,,,,,,,,,,,,,,,,,,,,,,,,,,,,,,,,,,,,,,,,,,,,,,,,,,
1763975412.889947,65373.0,0.0,4363.333496,4363.846191,4486.410156,4513.461426,4381.282227,4499.358887,4511.282227,4366.794922,4550.128418,4363.717773,4455.641113,4488.205078,4539.358887,4359.358887,4364.615234,4454.615234,4525.897461,4487.563965,4484.230957,4371.538574,4359.615234,4530.641113,4488.333496,4454.102539,4363.333496,4538.461426,4349.102539,4523.717773,4478.461426,4361.794922,4484.615234,4473.717773,2803.0,0.0,14.0,1280.0,19152.0,,,,0.0,4.0,4.0,4.0,4.0,4.0,4.0,4.0,4.0,4.0,4.0,4.0,4.0,4.0,4.0,4.0,4.0,4.0,4.0,4.0,4.0,4.0,4.0,4.0,4.0,4.0,4.0,4.0,4.0,4.0,4.0,4.0,4.0,100.0,,,,,,,,,,,,,,,,,,,,,,,,,,,,,,,,,,,32727.0,0.0,0.477018,0.297058,0.213989,0.799011,0.892687,-0.45025,0.041997,34.0,-22.0,-25.166666,,,,,,,,,,,,,,,,,,,,,,,,,,,,,,,,,,,,,,,,,,,,,,,,,,,,,,,,,,,,,,,,,,,,,,,,,,,,,,,,,,,,,,,,,,,,,,,,,,,,,,,,,,,,,,,,,,,,,,,,,,,,,,,,,,,,,,,,,,,,,,,,,,,,,,,,,,,,,,,,
1763975412.893853,65374.0,0.0,4344.230957,4350.256348,4470.384766,4495.641113,4368.846191,4485.641113,4494.615234,4348.846191,4537.692383,4350.128418,4439.230957,4468.077148,4515.0,4343.461426,4350.769043,4418.333496,4500.897461,4461.282227,4464.743652,4345.256348,4345.256348,4510.384766,4466.025879,4438.717773,4346.025879,4519.871582,4328.205078,4501.794922,4462.563965,4345.384766,4465.512695,4453.846191,2983.0,0.0,14.0,1536.0,19160.0,,,,0.0,4.0,4.0,4.0,4.0,4.0,4.0,4.0,4.0,4.0,4.0,4.0,4.0,4.0,4.0,4.0,4.0,4.0,4.0,4.0,4.0,4.0,4.0,4.0,4.0,4.0,4.0,4.0,4.0,4.0,4.0,4.0,4.0,100.0,,,,,,,,,,,,,,,,,,,,,,,,,,,,,,,,,,,,,,,,,,,,,,,,,,,,,,,,,,,,,,,,,,,,,,,,,,,,,,,,,,,,,,,,,,,,,,,,,,,,,,,,,,,,,,,,,,,,,,,,,,,,,,,,,,,,,,,,,,,,,,,,,,,,,,,,,,,,,,,,,,,,,,,,,,,,,,,,,,,,,,,,,,,,,,,,,,,,,,,,,,,,,,
1763975412.89776,65375.0,0.0,4348.589844,4362.05127,4475.512695,4500.769043,4376.282227,4491.153809,4501.794922,4355.769043,4545.641113,4355.0,4446.282227,4472.94873,4518.717773,4352.94873,4359.102539,4422.94873,4500.769043,4468.846191,4468.589844,4349.743652,4354.871582,4517.307617,4469.102539,4450.512695,4354.102539,4528.205078,4335.256348,4507.179688,4469.230957,4353.077148,4473.589844,4457.820313,2903.0,0.0,14.0,1536.0,19160.0,,,,0.0,4.0,4.0,4.0,4.0,4.0,4.0,4.0,4.0,4.0,4.0,4.0,4.0,4.0,4.0,4.0,4.0,4.0,4.0,4.0,4.0,4.0,4.0,4.0,4.0,4.0,4.0,4.0,4.0,4.0,4.0,4.0,4.0,100.0,,,,,,,,,,,,,,,,,,,,,,,,,,,,,,,,,,,,,,,,,,,,,,,,,,,,,,,,,,,,,,,,,,,,,,,,,,,,,,,,,,,,,,,,,,,,,,,,,,,,,,,,,,,,,,,,,,,,,,,,,,,,,,,,,,,,,,,,,,,,,,,,,,,,,,,,,,,,,,,,,,,,,,,,,,,,,,,,,,,,,,,,,,,,,,,,,,,,,,,,,,,,,,
1763975412.901666,65376.0,0.0,4371.538574,4391.666504,4498.461426,4525.128418,4398.846191,4511.538574,4528.461426,4382.820313,4571.025879,4373.974121,4472.179688,4497.179688,4546.922852,4384.102539,4386.282227,4470.0,4521.794922,4506.410156,4492.307617,4380.256348,4380.256348,4544.358887,4492.307617,4480.256348,4381.666504,4557.436035,4364.358887,4533.461426,4492.820313,4378.589844,4503.077148,4482.94873,2821.0,0.0,14.0,1792.0,19168.0,,,,0.0,4.0,4.0,4.0,4.0,4.0,4.0,4.0,4.0,4.0,4.0,4.0,4.0,4.0,4.0,4.0,4.0,4.0,4.0,4.0,4.0,4.0,4.0,4.0,4.0,4.0,4.0,4.0,4.0,4.0,4.0,4.0,4.0,100.0,,,,,,,,,,,,,,,,,,,,,,,,,,,,,,,,,,,,,,,,,,,,,,,,,,,,,,,,,,,,,,,,,,,,,,,,,,,,,,,,,,,,,,,,,,,,,,,,,,,,,,,,,,,,,,,,,,,,,,,,,,,,,,,,,,,,,,,,,,,,,,,,,,,,,,,,,,,,,,,,,,,,,,,,,,,,,,,,,,,,,,,,,,,,,,,,,,,,,,,,,,,,,,
1763975412.905572,65377.0,0.0,4395.512695,4418.205078,4523.333496,4551.282227,4420.641113,4532.307617,4556.410156,4410.256348,4598.461426,4397.820313,4499.615234,4521.922852,4580.128418,4418.461426,4415.512695,4533.333496,4546.410156,4549.743652,4518.846191,4412.94873,4402.307617,4570.897461,4516.025879,4505.384766,4407.94873,4586.025879,4392.94873,4559.230957,4514.871582,4402.307617,4532.179688,4511.282227,2846.0,0.0,14.0,1792.0,19168.0,,,,0.0,4.0,4.0,4.0,4.0,4.0,4.0,4.0,4.0,4.0,4.0,4.0,4.0,4.0,4.0,4.0,4.0,4.0,4.0,4.0,4.0,4.0,4.0,4.0,4.0,4.0,4.0,4.0,4.0,4.0,4.0,4.0,4.0,100.0,,,,,,,,,,,,,,,,,,,,,,,,,,,,,,,,,,,32728.0,0.0,0.477099,0.29718,0.213867,0.79895,0.896594,-0.453669,0.064461,37.166668,-20.666666,-26.166666,,,,,,,,,,,,,,,,,,,,,,,,,,,,,,,,,,,,,,,,,,,,,,,,,,,,,,,,,,,,,,,,,,,,,,,,,,,,,,,,,,,,,,,,,,,,,,,,,,,,,,,,,,,,,,,,,,,,,,,,,,,,,,,,,,,,,,,,,,,,,,,,,,,,,,,,,,,,,,,,
1763975412.909478,65378.0,0.0,4401.538574,4421.794922,4531.666504,4559.102539,4425.641113,4537.436035,4565.897461,4416.538574,4609.615234,4415.256348,4509.743652,4527.307617,4594.871582,4434.358887,4427.692383,4573.846191,4554.102539,4569.230957,4528.717773,4422.179688,4403.846191,4575.641113,4519.871582,4505.641113,4411.922852,4591.666504,4398.077148,4563.589844,4517.05127,4405.641113,4538.205078,4521.410156,2260.0,0.0,14.0,2048.0,19176.0,,,,0.0,4.0,4.0,4.0,4.0,4.0,4.0,4.0,4.0,4.0,4.0,4.0,4.0,4.0,4.0,4.0,4.0,4.0,4.0,4.0,4.0,4.0,4.0,4.0,4.0,4.0,4.0,4.0,4.0,4.0,4.0,4.0,4.0,100.0,,,,,,,,,,,,,,,,,,,,,,,,,,,,,,,,,,,,,,,,,,,,,,,,,,,,,,,,,,,,,,,,,,,,,,,,,,,,,,,,,,,,,,,,,,,,,,,,,,,,,,,,,,,,,,,,,,,,,,,,,,,,,,,,,,,,,,,,,,,,,,,,,,,,,,,,,,,,,,,,,,,,,,,,,,,,,,,,,,,,,,,,,,,,,,,,,,,,,,,,,,,,,,
1763975412.913384,65379.0,0.0,4382.179688,4397.436035,4515.512695,4539.615234,4408.333496,4521.025879,4548.077148,4394.358887,4595.256348,4414.487305,4494.743652,4506.153809,4578.717773,4421.282227,4412.94873,4564.230957,4535.384766,4550.256348,4512.692383,4398.589844,4380.769043,4551.282227,4496.410156,4477.179688,4387.94873,4567.692383,4372.94873,4539.871582,4493.846191,4383.846191,4513.846191,4504.102539,2953.0,0.0,14.0,2048.0,19176.0,,,,0.0,4.0,4.0,4.0,4.0,4.0,4.0,4.0,4.0,4.0,4.0,4.0,4.0,4.0,4.0,4.0,4.0,4.0,4.0,4.0,4.0,4.0,4.0,4.0,4.0,4.0,4.0,4.0,4.0,4.0,4.0,4.0,4.0,100.0,,,,,,,,,,,,,,,,,,,,,,,,,,,,,,,,,,,,,,,,,,,,,,,,,,,,,,,,,,,,,,,,,,,,,,,,,,,,,,,,,,,,,,,,,,,,,,,,,,,,,,,,,,,,,,,,,,,,,,,,,,,,,,,,,,,,,,,,,,,,,,,,,,,,,,,,,,,,,,,,,,,,,,,,,,,,,,,,,,,,,,,,,,,,,,,,,,,,,,,,,,,,,,
1763975412.91729,65380.0,0.0,4346.538574,4357.692383,4482.563965,4502.179688,4377.820313,4491.282227,4511.794922,4355.897461,4561.794922,4390.897461,4462.563965,4468.846191,4538.589844,4387.05127,4378.077148,4508.846191,4498.717773,4502.563965,4478.077148,4354.487305,4344.102539,4509.230957,4456.538574,4434.743652,4348.717773,4528.333496,4331.794922,4500.641113,4456.666504,4348.974121,4473.077148,4468.846191,2861.0,0.0,14.0,2304.0,19184.0,,,,0.0,4.0,4.0,4.0,4.0,4.0,4.0,4.0,4.0,4.0,4.0,4.0,4.0,4.0,4.0,4.0,4.0,4.0,4.0,4.0,4.0,4.0,4.0,4.0,4.0,4.0,4.0,4.0,4.0,4.0,4.0,4.0,4.0,100.0,,,,,,,,,,,,,,,,,,,,,,,,,,,,,,,,,,,,,,,,,,,,,,,,,,,,,,,,,,,,,,,,,,,,,,,,,,,,,,,,,,,,,,,,,,,,,,,,,,,,,,,,,,,,,,,,,,,,,,,,,,,,,,,,,,,,,,,,,,,,,,,,,,,,,,,,,,,,,,,,,,,,,,,,,,,,,,,,,,,,,,,,,,,,,,,,,,,,,,,,,,,,,,
1763975412.921196,65381.0,0.0,4314.615234,4325.256348,4452.179688,4468.077148,4352.05127,4465.641113,4478.461426,4324.487305,4528.589844,4354.230957,4432.05127,4436.666504,4496.922852,4352.692383,4342.94873,4442.563965,4464.102539,4455.128418,4444.615234,4316.153809,4314.743652,4473.333496,4422.307617,4402.436035,4317.307617,4498.846191,4300.769043,4468.974121,4427.307617,4322.692383,4442.179688,4438.461426,2396.0,0.0,14.0,2304.0,19184.0,,,,0.0,4.0,4.0,4.0,4.0,4.0,4.0,4.0,4.0,4.0,4.0,4.0,4.0,4.0,4.0,4.0,4.0,4.0,4.0,4.0,4.0,4.0,4.0,4.0,4.0,4.0,4.0,4.0,4.0,4.0,4.0,4.0,4.0,100.0,,,,,,,,,,,,,,,,,,,,,,,,,,,,,,,,,,,32729.0,0.0,0.477126,0.29718,0.213806,0.79895,0.88878,-0.446832,0.059089,36.333332,-21.5,-25.333334,,,,,,,,,,,,,,,,,,,,,,,,,,,,,,,,,,,,,,,,,,,,,,,,,,,,,,,,,,,,,,,,,,,,,,,,,,,,,,,,,,,,,,,,,,,,,,,,,,,,,,,,,,,,,,,,,,,,,,,,,,,,,,,,,,,,,,,,,,,,,,,,,,,,,,,,,,,,,,,,
1763975412.925102,65382.0,0.0,4305.384766,4319.487305,4443.333496,4457.94873,4346.794922,4459.487305,4468.589844,4319.615234,4515.769043,4327.179688,4420.897461,4427.820313,4477.820313,4339.102539,4328.461426,4408.077148,4451.666504,4437.563965,4432.563965,4306.153809,4310.0,4464.743652,4413.974121,4399.102539,4313.077148,4498.589844,4300.769043,4465.256348,4423.974121,4322.307617,4442.05127,4434.230957,2959.0,0.0,14.0,1024.0,19191.0,,,,0.0,4.0,4.0,4.0,4.0,4.0,4.0,4.0,4.0,4.0,4.0,4.0,4.0,4.0,4.0,4.0,4.0,4.0,4.0,4.0,4.0,4.0,4.0,4.0,4.0,4.0,4.0,4.0,4.0,4.0,4.0,4.0,4.0,100.0,,,,,,,,,,,,,,,,,,,,,,,,,,,,,,,,,,,,,,,,,,,,,,,,,,,,,,,,,,,,,,,,,,,,,,,,,,,,,,,,,,,,,,,,,,,,,,,,,,,,,,,,,,,,,,,,,,,,,,,,,,,,,,,,,,,,,,,,,,,,,,,,,,,,,,,,,,,,,,,,,,,,,,,,,,,,,,,,,,,,,,,,,,,,,,,,,,,,,,,,,,,,,,
1763975412.929008,65383.0,0.0,4325.256348,4344.487305,4462.563965,4478.589844,4366.153809,4476.794922,4489.230957,4344.102539,4532.05127,4330.0,4434.871582,4446.922852,4491.794922,4353.717773,4343.461426,4426.025879,4468.461426,4460.897461,4449.102539,4330.256348,4333.717773,4488.846191,4437.692383,4427.179688,4339.230957,4528.461426,4333.846191,4493.461426,4450.256348,4350.0,4475.128418,4461.538574,2947.0,0.0,14.0,1024.0,19191.0,,,,0.0,4.0,4.0,4.0,4.0,4.0,4.0,4.0,4.0,4.0,4.0,4.0,4.0,4.0,4.0,4.0,4.0,4.0,4.0,4.0,4.0,4.0,4.0,4.0,4.0,4.0,4.0,4.0,4.0,4.0,4.0,4.0,4.0,100.0,,,,,,,,,,,,,,,,,,,,,,,,,,,,,,,,,,,,,,,,,,,,,,,,,,,,,,,,,,,,,,,,,,,,,,,,,,,,,,,,,,,,,,,,,,,,,,,,,,,,,,,,,,,,,,,,,,,,,,,,,,,,,,,,,,,,,,,,,,,,,,,,,,,,,,,,,,,,,,,,,,,,,,,,,,,,,,,,,,,,,,,,,,,,,,,,,,,,,,,,,,,,,,
1763975412.932914,65384.0,0.0,4364.358887,4387.436035,4500.897461,4519.487305,4400.512695,4508.077148,4529.102539,4384.358887,4568.717773,4365.0,4465.128418,4483.461426,4529.743652,4386.794922,4378.333496,4481.922852,4504.871582,4510.512695,4484.487305,4374.487305,4373.205078,4532.94873,4481.410156,4471.922852,4382.94873,4572.692383,4382.436035,4539.743652,4492.563965,4391.666504,4523.846191,4506.922852,2644.0,0.0,14.0,256.0,19199.0,,,,0.0,4.0,4.0,4.0,4.0,4.0,4.0,4.0,4.0,4.0,4.0,4.0,4.0,4.0,4.0,4.0,4.0,4.0,4.0,4.0,4.0,4.0,4.0,4.0,4.0,4.0,4.0,4.0,4.0,4.0,4.0,4.0,4.0,100.0,,,,,,,,,,,,,,,,,,,,,,,,,,,,,,,,,,,,,,,,,,,,,,,4.179578,7.30979,5.014297,9.305464,4.450874,5.23408,6.455069,5.058991,10.343515,4.576097,2.560764,6.021413,4.336211,11.971513,5.03702,2.038507,4.765428,4.193905,11.515389,5.175557,2.062495,3.858504,3.457446,7.68149,3.39606,2.728335,3.5738,3.889568,7.18765,2.769897,3.03322,4.687796,4.156488,10.718456,4.488755,2.724485,4.858909,3.885432,12.235426,4.871442,1.691757,2.844037,3.287705,10.305428,4.799631,1.688285,5.253088,7.373853,10.084086,5.447676,2.548899,3.670175,3.013153,9.735909,4.320614,3.546788,5.865869,4.182237,9.961755,4.070273,3.030589,4.644989,4.412115,11.023648,4.291214,1.164238,1.561072,1.921605,7.532517,3.369788,1.659929,1.25928,1.267716,9.768971,4.605869,3.684704,5.118587,3.999802,11.89493,4.434159,3.202223,5.868754,3.539584,9.443577,3.942975,4.273894,5.876497,3.549316,12.239984,5.172608,4.031354,5.433287,3.722655,9.965161,5.965786,3.813341,4.272389,3.435942,10.669508,5.334442,5.039211,4.815084,3.807011,9.368817,4.613082,5.1612,7.890844,5.072938,10.858709,5.152805,4.510573,8.673709,6.37475,11.590339,5.200258,3.801215,7.766634,5.13678,10.46279,4.814982,3.27464,6.390225,6.049436,9.726051,5.626394,3.650216,6.264157,5.332446,11.822408,5.486459,4.403701,8.906127,5.82664,12.324006,5.205915,3.430318,8.409952,5.908927,11.578641,4.783879,3.341426,7.481647,5.506541,9.962534,4.400133,4.528386,9.263427,5.701362,11.645401,4.907101,4.04612,8.061097,5.914761,12.029906,5.161528,2.903177,7.393028,4.782573,11.754775,5.289389
1763975412.93682,65385.0,0.0,4403.077148,4427.179688,4539.358887,4560.128418,4433.461426,4537.692383,4567.179688,4420.384766,4607.05127,4411.922852,4495.512695,4519.102539,4570.0,4419.102539,4412.94873,4539.230957,4541.153809,4557.307617,4519.358887,4415.256348,4408.717773,4575.128418,4523.333496,4511.666504,4423.461426,4609.230957,4422.563965,4582.05127,4530.256348,4427.05127,4563.974121,4547.179688,2828.0,0.0,14.0,256.0,19199.0,,,,0.0,4.0,4.0,4.0,4.0,4.0,4.0,4.0,4.0,4.0,4.0,4.0,4.0,4.0,4.0,4.0,4.0,4.0,4.0,4.0,4.0,4.0,4.0,4.0,4.0,4.0,4.0,4.0,4.0,4.0,4.0,4.0,4.0,100.0,,,,,,,,,,,,,,,,,,,,,,,,,,,,,,,,,,,32730.0,0.0,0.47717,0.297241,0.213623,0.79895,0.898059,-0.460994,0.041997,37.333332,-19.166666,-25.5,,,,,,,,,,,,,,,,,,,,,,,,,,,,,,,,,,,,,,,,,,,,,,,,,,,,,,,,,,,,,,,,,,,,,,,,,,,,,,,,,,,,,,,,,,,,,,,,,,,,,,,,,,,,,,,,,,,,,,,,,,,,,,,,,,,,,,,,,,,,,,,,,,,,,,,,,,,,,,,,
1763975412.940726,65386.0,0.0,4423.717773,4446.153809,4560.0,4581.794922,4450.769043,4553.077148,4586.025879,4437.05127,4628.205078,4442.179688,4511.282227,4538.717773,4592.692383,4434.102539,4428.974121,4565.384766,4560.512695,4576.538574,4537.94873,4433.077148,4426.025879,4598.589844,4545.256348,4530.256348,4444.230957,4622.692383,4438.077148,4602.820313,4547.563965,4441.025879,4578.205078,4563.461426,2642.0,0.0,14.0,256.0,19207.0,,,,0.0,4.0,4.0,4.0,4.0,4.0,4.0,4.0,4.0,4.0,4.0,4.0,4.0,4.0,4.0,4.0,4.0,4.0,4.0,4.0,4.0,4.0,4.0,4.0,4.0,4.0,4.0,4.0,4.0,4.0,4.0,4.0,4.0,100.0,,,,,,,,,,,,,,,,,,,,,,,,,,,,,,,,,,,,,,,,,,,,,,,,,,,,,,,,,,,,,,,,,,,,,,,,,,,,,,,,,,,,,,,,,,,,,,,,,,,,,,,,,,,,,,,,,,,,,,,,,,,,,,,,,,,,,,,,,,,,,,,,,,,,,,,,,,,,,,,,,,,,,,,,,,,,,,,,,,,,,,,,,,,,,,,,,,,,,,,,,,,,,,
1763975412.944632,65387.0,0.0,4418.846191,4438.077148,4553.974121,4575.641113,4446.153809,4549.230957,4579.615234,4428.717773,4622.692383,4437.563965,4506.282227,4535.769043,4589.487305,4425.641113,4419.230957,4549.871582,4556.794922,4560.641113,4534.358887,4421.538574,4420.897461,4597.436035,4540.0,4523.333496,4438.461426,4609.230957,4426.153809,4597.179688,4539.487305,4430.128418,4563.205078,4549.615234,2972.0,0.0,14.0,256.0,19207.0,,,,0.0,4.0,4.0,4.0,4.0,4.0,4.0,4.0,4.0,4.0,4.0,4.0,4.0,4.0,4.0,4.0,4.0,4.0,4.0,4.0,4.0,4.0,4.0,4.0,4.0,4.0,4.0,4.0,4.0,4.0,4.0,4.0,4.0,100.0,,,,,,,,,,,,,,,,,,,,,,,,,,,,,,,,,,,,,,,,,,,,,,,,,,,,,,,,,,,,,,,,,,,,,,,,,,,,,,,,,,,,,,,,,,,,,,,,,,,,,,,,,,,,,,,,,,,,,,,,,,,,,,,,,,,,,,,,,,,,,,,,,,,,,,,,,,,,,,,,,,,,,,,,,,,,,,,,,,,,,,,,,,,,,,,,,,,,,,,,,,,,,,
1763975412.948438,65388.0,0.0,4392.563965,4408.333496,4524.102539,4545.256348,4422.563965,4529.230957,4552.820313,4399.358887,4592.94873,4401.025879,4483.077148,4512.820313,4565.256348,4398.333496,4389.230957,4506.410156,4534.358887,4521.153809,4511.666504,4387.692383,4397.94873,4576.025879,4513.205078,4497.179688,4410.897461,4575.897461,4394.871582,4570.769043,4511.666504,4401.538574,4528.205078,4512.94873,2929.0,0.0,14.0,512.0,19215.0,,,,0.0,4.0,4.0,4.0,4.0,4.0,4.0,4.0,4.0,4.0,4.0,4.0,4.0,4.0,4.0,4.0,4.0,4.0,4.0,4.0,4.0,4.0,4.0,4.0,4.0,4.0,4.0,4.0,4.0,4.0,4.0,4.0,4.0,100.0,,,,,,,,,,,,,,,,,,,,,,,,,,,,,,,,,,,,,,,,,,,,,,,,,,,,,,,,,,,,,,,,,,,,,,,,,,,,,,,,,,,,,,,,,,,,,,,,,,,,,,,,,,,,,,,,,,,,,,,,,,,,,,,,,,,,,,,,,,,,,,,,,,,,,,,,,,,,,,,,,,,,,,,,,,,,,,,,,,,,,,,,,,,,,,,,,,,,,,,,,,,,,,
1763975412.952343,65389.0,0.0,4358.461426,4370.769043,4483.846191,4504.615234,4391.410156,4502.05127,4518.974121,4360.769043,4553.077148,4354.871582,4452.820313,4481.922852,4534.615234,4365.512695,4353.205078,4462.179688,4505.769043,4481.025879,4480.769043,4348.205078,4367.820313,4547.436035,4479.615234,4465.128418,4375.384766,4538.205078,4358.717773,4536.922852,4477.307617,4368.717773,4490.256348,4470.769043,2705.0,0.0,14.0,512.0,19215.0,,,,0.0,4.0,4.0,4.0,4.0,4.0,4.0,4.0,4.0,4.0,4.0,4.0,4.0,4.0,4.0,4.0,4.0,4.0,4.0,4.0,4.0,4.0,4.0,4.0,4.0,4.0,4.0,4.0,4.0,4.0,4.0,4.0,4.0,100.0,,,,,,,,,,,,,,,,,,,,,,,,,,,,,,,,,,,32731.0,0.0,0.477199,0.297119,0.213501,0.799011,0.900989,-0.451227,0.069344,36.166668,-18.833334,-24.666666,,,,,,,,,,,,,,,,,,,,,,,,,,,,,,,,,,,,,,,,,,,,,,,,,,,,,,,,,,,,,,,,,,,,,,,,,,,,,,,,,,,,,,,,,,,,,,,,,,,,,,,,,,,,,,,,,,,,,,,,,,,,,,,,,,,,,,,,,,,,,,,,,,,,,,,,,,,,,,,,
1763975412.956249,65390.0,0.0,4334.358887,4343.974121,4452.563965,4473.333496,4368.205078,4481.153809,4495.128418,4330.256348,4522.820313,4327.307617,4432.05127,4460.512695,4516.666504,4344.102539,4329.102539,4443.205078,4487.820313,4463.077148,4458.974121,4322.436035,4346.025879,4529.102539,4458.333496,4444.358887,4350.897461,4514.358887,4334.102539,4512.179688,4452.94873,4347.563965,4467.307617,4443.333496,2715.0,0.0,14.0,768.0,19223.0,,,,0.0,4.0,4.0,4.0,4.0,4.0,4.0,4.0,4.0,4.0,4.0,4.0,4.0,4.0,4.0,4.0,4.0,4.0,4.0,4.0,4.0,4.0,4.0,4.0,4.0,4.0,4.0,4.0,4.0,4.0,4.0,4.0,4.0,100.0,,,,,,,,,,,,,,,,,,,,,,,,,,,,,,,,,,,,,,,,,,,,,,,,,,,,,,,,,,,,,,,,,,,,,,,,,,,,,,,,,,,,,,,,,,,,,,,,,,,,,,,,,,,,,,,,,,,,,,,,,,,,,,,,,,,,,,,,,,,,,,,,,,,,,,,,,,,,,,,,,,,,,,,,,,,,,,,,,,,,,,,,,,,,,,,,,,,,,,,,,,,,,,
1763975412.960155,65391.0,0.0,4334.871582,4341.794922,4446.410156,4467.692383,4365.641113,4478.717773,4494.230957,4324.487305,4518.589844,4335.256348,4434.358887,4463.589844,4525.0,4346.922852,4329.487305,4460.256348,4494.358887,4478.589844,4461.922852,4323.717773,4347.307617,4535.641113,4463.974121,4448.077148,4351.666504,4516.794922,4333.333496,4510.256348,4451.922852,4348.974121,4470.0,4444.743652,2832.0,0.0,14.0,768.0,19223.0,,,,0.0,4.0,4.0,4.0,4.0,4.0,4.0,4.0,4.0,4.0,4.0,4.0,4.0,4.0,4.0,4.0,4.0,4.0,4.0,4.0,4.0,4.0,4.0,4.0,4.0,4.0,4.0,4.0,4.0,4.0,4.0,4.0,4.0,100.0,,,,,,,,,,,,,,,,,,,,,,,,,,,,,,,,,,,,,,,,,,,,,,,,,,,,,,,,,,,,,,,,,,,,,,,,,,,,,,,,,,,,,,,,,,,,,,,,,,,,,,,,,,,,,,,,,,,,,,,,,,,,,,,,,,,,,,,,,,,,,,,,,,,,,,,,,,,,,,,,,,,,,,,,,,,,,,,,,,,,,,,,,,,,,,,,,,,,,,,,,,,,,,
1763975412.964061,65392.0,0.0,4361.538574,4365.384766,4468.461426,4490.384766,4385.512695,4497.436035,4517.820313,4347.563965,4542.692383,4372.436035,4460.769043,4492.820313,4558.205078,4372.94873,4354.358887,4502.820313,4526.666504,4520.0,4492.436035,4351.666504,4374.871582,4568.077148,4496.410156,4476.410156,4377.179688,4544.102539,4356.410156,4532.692383,4475.512695,4371.794922,4495.256348,4473.846191,2937.0,0.0,14.0,256.0,19230.0,,,,0.0,4.0,4.0,4.0,4.0,4.0,4.0,4.0,4.0,4.0,4.0,4.0,4.0,4.0,4.0,4.0,4.0,4.0,4.0,4.0,4.0,4.0,4.0,4.0,4.0,4.0,4.0,4.0,4.0,4.0,4.0,4.0,4.0,100.0,,,,,,,,,,,,,,,,,,,,,,,,,,,,,,,,,,,,,,,,,,,,,,,,,,,,,,,,,,,,,,,,,,,,,,,,,,,,,,,,,,,,,,,,,,,,,,,,,,,,,,,,,,,,,,,,,,,,,,,,,,,,,,,,,,,,,,,,,,,,,,,,,,,,,,,,,,,,,,,,,,,,,,,,,,,,,,,,,,,,,,,,,,,,,,,,,,,,,,,,,,,,,,
1763975412.967966,65393.0,0.0,4399.615234,4399.358887,4504.487305,4526.922852,4415.256348,4526.666504,4552.436035,4386.538574,4580.0,4413.717773,4496.282227,4531.922852,4598.077148,4406.282227,4389.358887,4545.512695,4568.846191,4564.230957,4533.461426,4391.153809,4414.743652,4608.974121,4537.94873,4513.205078,4410.0,4579.487305,4388.589844,4565.512695,4509.615234,4401.153809,4526.282227,4512.436035,3034.0,0.0,14.0,256.0,19230.0,,,,0.0,4.0,4.0,4.0,4.0,4.0,4.0,4.0,4.0,4.0,4.0,4.0,4.0,4.0,4.0,4.0,4.0,4.0,4.0,4.0,4.0,4.0,4.0,4.0,4.0,4.0,4.0,4.0,4.0,4.0,4.0,4.0,4.0,100.0,,,,,,,,,,,,,,,,,,,,,,,,,,,,,,,,,,,32732.0,0.0,0.477237,0.297058,0.213501,0.799011,0.900989,-0.451227,0.069344,36.666668,-19.833334,-23.666666,,,,,,,,,,,,,,,,,,,,,,,,,,,,,,,,,,,,,,,,,,,,,,,,,,,,,,,,,,,,,,,,,,,,,,,,,,,,,,,,,,,,,,,,,,,,,,,,,,,,,,,,,,,,,,,,,,,,,,,,,,,,,,,,,,,,,,,,,,,,,,,,,,,,,,,,,,,,,,,,
1763975412.971872,65394.0,0.0,4425.769043,4421.153809,4531.410156,4554.102539,4435.256348,4547.820313,4577.05127,4417.563965,4607.179688,4434.102539,4518.717773,4556.794922,4621.025879,4426.794922,4415.0,4565.128418,4597.05127,4586.410156,4559.487305,4420.128418,4442.179688,4633.205078,4563.717773,4534.615234,4426.538574,4600.641113,4408.333496,4587.179688,4533.205078,4417.563965,4542.94873,4536.666504,2808.0,0.0,14.0,512.0,19238.0,,,,0.0,4.0,4.0,4.0,4.0,4.0,4.0,4.0,4.0,4.0,4.0,4.0,4.0,4.0,4.0,4.0,4.0,4.0,4.0,4.0,4.0,4.0,4.0,4.0,4.0,4.0,4.0,4.0,4.0,4.0,4.0,4.0,4.0,100.0,,,,,,,,,,,,,,,,,,,,,,,,,,,,,,,,,,,,,,,,,,,,,,,,,,,,,,,,,,,,,,,,,,,,,,,,,,,,,,,,,,,,,,,,,,,,,,,,,,,,,,,,,,,,,,,,,,,,,,,,,,,,,,,,,,,,,,,,,,,,,,,,,,,,,,,,,,,,,,,,,,,,,,,,,,,,,,,,,,,,,,,,,,,,,,,,,,,,,,,,,,,,,,
1763975412.975778,65395.0,0.0,4424.615234,4417.307617,4533.589844,4556.153809,4433.333496,4548.077148,4577.94873,4422.820313,4609.615234,4426.153809,4514.871582,4553.077148,4614.743652,4424.615234,4420.128418,4554.358887,4595.897461,4575.769043,4554.871582,4423.974121,4439.743652,4624.871582,4559.230957,4526.922852,4414.358887,4594.871582,4403.461426,4583.461426,4531.794922,4410.641113,4535.641113,4532.820313,3010.0,0.0,14.0,512.0,19238.0,,,,0.0,4.0,4.0,4.0,4.0,4.0,4.0,4.0,4.0,4.0,4.0,4.0,4.0,4.0,4.0,4.0,4.0,4.0,4.0,4.0,4.0,4.0,4.0,4.0,4.0,4.0,4.0,4.0,4.0,4.0,4.0,4.0,4.0,100.0,,,,,,,,,,,,,,,,,,,,,,,,,,,,,,,,,,,,,,,,,,,,,,,,,,,,,,,,,,,,,,,,,,,,,,,,,,,,,,,,,,,,,,,,,,,,,,,,,,,,,,,,,,,,,,,,,,,,,,,,,,,,,,,,,,,,,,,,,,,,,,,,,,,,,,,,,,,,,,,,,,,,,,,,,,,,,,,,,,,,,,,,,,,,,,,,,,,,,,,,,,,,,,
1763975412.979684,65396.0,0.0,4398.717773,4391.922852,4512.436035,4535.256348,4411.794922,4528.846191,4557.179688,4401.922852,4589.487305,4401.025879,4489.230957,4525.769043,4585.384766,4405.0,4407.307617,4522.94873,4569.102539,4540.769043,4525.769043,4403.589844,4409.615234,4589.358887,4529.358887,4494.743652,4381.153809,4567.563965,4378.205078,4556.922852,4507.94873,4385.769043,4511.025879,4506.025879,2993.0,0.0,14.0,768.0,19246.0,,,,0.0,4.0,4.0,4.0,4.0,4.0,4.0,4.0,4.0,4.0,4.0,4.0,4.0,4.0,4.0,4.0,4.0,4.0,4.0,4.0,4.0,4.0,4.0,4.0,4.0,4.0,4.0,4.0,4.0,4.0,4.0,4.0,4.0,100.0,,,,,,,,,,,,,,,,,,,,,,,,,,,,,,,,,,,,,,,,,,,,,,,,,,,,,,,,,,,,,,,,,,,,,,,,,,,,,,,,,,,,,,,,,,,,,,,,,,,,,,,,,,,,,,,,,,,,,,,,,,,,,,,,,,,,,,,,,,,,,,,,,,,,,,,,,,,,,,,,,,,,,,,,,,,,,,,,,,,,,,,,,,,,,,,,,,,,,,,,,,,,,,
1763975412.983589,65397.0,0.0,4365.256348,4361.666504,4482.436035,4506.666504,4385.0,4502.94873,4528.974121,4370.384766,4562.307617,4375.256348,4458.589844,4492.563965,4550.641113,4382.05127,4387.179688,4487.563965,4533.589844,4501.922852,4492.436035,4373.077148,4370.256348,4547.307617,4492.820313,4457.05127,4347.692383,4536.922852,4348.333496,4523.846191,4477.436035,4359.230957,4485.641113,4474.358887,2919.0,0.0,14.0,768.0,19246.0,,,,0.0,4.0,4.0,4.0,4.0,4.0,4.0,4.0,4.0,4.0,4.0,4.0,4.0,4.0,4.0,4.0,4.0,4.0,4.0,4.0,4.0,4.0,4.0,4.0,4.0,4.0,4.0,4.0,4.0,4.0,4.0,4.0,4.0,100.0,,,,,,,,,,,,,,,,,,,,,,,,,,,,,,,,,,,32733.0,0.0,0.47717,0.297241,0.213623,0.79895,0.907826,-0.455134,0.062019,37.333332,-20.0,-26.333334,,,,,,,,,,,,,,,,,,,,,,,,,,,,,,,,,,,,,,,,,,,,,,,,,,,,,,,,,,,,,,,,,,,,,,,,,,,,,,,,,,,,,,,,,,,,,,,,,,,,,,,,,,,,,,,,,,,,,,,,,,,,,,,,,,,,,,,,,,,,,,,,,,,,,,,,,,,,,,,,
1763975412.987495,65398.0,0.0,4343.077148,4344.487305,4461.922852,4487.94873,4368.589844,4484.871582,4509.102539,4347.94873,4544.358887,4359.871582,4439.871582,4471.410156,4527.563965,4367.692383,4370.641113,4462.563965,4508.077148,4478.461426,4474.358887,4350.769043,4343.846191,4520.128418,4468.974121,4433.589844,4333.077148,4521.922852,4331.025879,4502.820313,4458.205078,4346.538574,4474.743652,4456.794922,2993.0,0.0,14.0,1024.0,19254.0,,,,0.0,4.0,4.0,4.0,4.0,4.0,4.0,4.0,4.0,4.0,4.0,4.0,4.0,4.0,4.0,4.0,4.0,4.0,4.0,4.0,4.0,4.0,4.0,4.0,4.0,4.0,4.0,4.0,4.0,4.0,4.0,4.0,4.0,100.0,,,,,,,,,,,,,,,,,,,,,,,,,,,,,,,,,,,,,,,,,,,,,,,,,,,,,,,,,,,,,,,,,,,,,,,,,,,,,,,,,,,,,,,,,,,,,,,,,,,,,,,,,,,,,,,,,,,,,,,,,,,,,,,,,,,,,,,,,,,,,,,,,,,,,,,,,,,,,,,,,,,,,,,,,,,,,,,,,,,,,,,,,,,,,,,,,,,,,,,,,,,,,,
1763975412.991401,65399.0,0.0,4343.077148,4350.384766,4462.94873,4489.358887,4372.05127,4483.077148,4507.179688,4347.692383,4545.0,4360.256348,4442.05127,4471.538574,4524.743652,4368.077148,4364.871582,4456.666504,4503.333496,4480.256348,4479.358887,4350.512695,4344.487305,4519.230957,4468.974121,4435.384766,4345.512695,4532.94873,4335.769043,4505.384766,4460.897461,4355.256348,4485.384766,4464.358887,2932.0,0.0,14.0,1024.0,19254.0,,,,0.0,4.0,4.0,4.0,4.0,4.0,4.0,4.0,4.0,4.0,4.0,4.0,4.0,4.0,4.0,4.0,4.0,4.0,4.0,4.0,4.0,4.0,4.0,4.0,4.0,4.0,4.0,4.0,4.0,4.0,4.0,4.0,4.0,100.0,,,,,,,,,,,,,,,,,,,,,,,,,,,,,,,,,,,,,,,,,,,,,,,,,,,,,,,,,,,,,,,,,,,,,,,,,,,,,,,,,,,,,,,,,,,,,,,,,,,,,,,,,,,,,,,,,,,,,,,,,,,,,,,,,,,,,,,,,,,,,,,,,,,,,,,,,,,,,,,,,,,,,,,,,,,,,,,,,,,,,,,,,,,,,,,,,,,,,,,,,,,,,,
1763975412.995307,65400.0,0.0,4364.871582,4378.461426,4487.436035,4511.794922,4394.871582,4498.077148,4524.871582,4370.641113,4564.615234,4377.179688,4464.102539,4491.410156,4542.436035,4382.692383,4373.717773,4474.358887,4520.0,4505.641113,4503.333496,4375.0,4372.179688,4542.94873,4492.436035,4461.282227,4379.230957,4566.794922,4362.436035,4531.666504,4485.384766,4383.077148,4514.871582,4495.256348,2876.0,0.0,14.0,1280.0,19262.0,,,,0.0,4.0,4.0,4.0,4.0,4.0,4.0,4.0,4.0,4.0,4.0,4.0,4.0,4.0,4.0,4.0,4.0,4.0,4.0,4.0,4.0,4.0,4.0,4.0,4.0,4.0,4.0,4.0,4.0,4.0,4.0,4.0,4.0,100.0,,,,,,,,,,,,,,,,,,,,,,,,,,,,,,,,,,,,,,,,,,,,,,,,,,,,,,,,,,,,,,,,,,,,,,,,,,,,,,,,,,,,,,,,,,,,,,,,,,,,,,,,,,,,,,,,,,,,,,,,,,,,,,,,,,,,,,,,,,,,,,,,,,,,,,,,,,,,,,,,,,,,,,,,,,,,,,,,,,,,,,,,,,,,,,,,,,,,,,,,,,,,,,
1763975412.999213,65401.0,0.0,4397.692383,4416.153809,4524.743652,4545.256348,4426.410156,4521.794922,4553.589844,4405.256348,4594.230957,4404.358887,4496.025879,4521.282227,4572.563965,4405.512695,4395.128418,4511.410156,4548.846191,4542.94873,4533.846191,4412.179688,4412.307617,4578.077148,4527.94873,4498.589844,4417.94873,4607.94873,4399.230957,4569.743652,4520.256348,4418.205078,4551.153809,4535.512695,2853.0,0.0,14.0,1280.0,19262.0,,,,0.0,4.0,4.0,4.0,4.0,4.0,4.0,4.0,4.0,4.0,4.0,4.0,4.0,4.0,4.0,4.0,4.0,4.0,4.0,4.0,4.0,4.0,4.0,4.0,4.0,4.0,4.0,4.0,4.0,4.0,4.0,4.0,4.0,100.0,,,,,,,,,,,,,,,,,,,,,,,,,,,,,,,,,,,32734.0,0.0,0.477051,0.29718,0.213745,0.799011,0.915151,-0.458064,0.075693,37.333332,-20.0,-26.333334,,,,,,,,,,,,,,,,,,,,,,,,,,,,,,,,,,,,,,,,,,,,,,,,,,,,,,,,,,,,,,,,,,,,,,,,,,,,,,,,,,,,,,,,,,,,,,,,,,,,,,,,,,,,,,,,,,,,,,,,,,,,,,,,,,,,,,,,,,,,,,,,,,,,,,,,,,,,,,,,
1763975413.003118,65402.0,0.0,4424.615234,4444.102539,4555.512695,4572.692383,4450.0,4541.025879,4578.077148,4432.692383,4618.846191,4426.153809,4521.538574,4545.512695,4599.871582,4425.641113,4418.846191,4552.436035,4574.358887,4573.974121,4555.256348,4440.384766,4442.179688,4605.641113,4556.666504,4527.563965,4442.307617,4634.871582,4427.820313,4599.743652,4546.794922,4443.717773,4576.538574,4564.230957,2772.0,0.0,14.0,1536.0,19270.0,,,,0.0,4.0,4.0,4.0,4.0,4.0,4.0,4.0,4.0,4.0,4.0,4.0,4.0,4.0,4.0,4.0,4.0,4.0,4.0,4.0,4.0,4.0,4.0,4.0,4.0,4.0,4.0,4.0,4.0,4.0,4.0,4.0,4.0,100.0,,,,,,,,,,,,,,,,,,,,,,,,,,,,,,,,,,,,,,,,,,,,,,,,,,,,,,,,,,,,,,,,,,,,,,,,,,,,,,,,,,,,,,,,,,,,,,,,,,,,,,,,,,,,,,,,,,,,,,,,,,,,,,,,,,,,,,,,,,,,,,,,,,,,,,,,,,,,,,,,,,,,,,,,,,,,,,,,,,,,,,,,,,,,,,,,,,,,,,,,,,,,,,
