Timestamp,EEG.Counter,EEG.Interpolated,EEG.Cz,EEG.Fz,EEG.Fp1,EEG.F7,EEG.F3,EEG.FC1,EEG.C3,EEG.FC5,EEG.FT9,EEG.T7,EEG.CP5,EEG.CP1,EEG.P3,EEG.P7,EEG.PO9,EEG.O1,EEG.Pz,EEG.Oz,EEG.O2,EEG.PO10,EEG.P8,EEG.P4,EEG.CP2,EEG.CP6,EEG.T8,EEG.FT10,EEG.FC6,EEG.C4,EEG.FC2,EEG.F4,EEG.F8,EEG.Fp2,EEG.RawCq,EEG.Battery,EEG.BatteryPercent,EEG.FwBufferSize,EEG.FwClockTime,MarkerIndex,MarkerType,MarkerValueInt,EEG.MarkerHardware,CQ.Cz,CQ.Fz,CQ.Fp1,CQ.F7,CQ.F3,CQ.FC1,CQ.C3,CQ.FC5,CQ.FT9,CQ.T7,CQ.CP5,CQ.CP1,CQ.P3,CQ.P7,CQ.PO9,CQ.O1,CQ.Pz,CQ.Oz,CQ.O2,CQ.PO10,CQ.P8,CQ.P4,CQ.CP2,CQ.CP6,CQ.T8,CQ.FT10,CQ.FC6,CQ.C4,CQ.FC2,CQ.F4,CQ.F8,CQ.Fp2,CQ.Overall,EQ.SampleRateQuality,EQ.OVERALL,EQ.Cz,EQ.Fz,EQ.Fp1,EQ.F7,EQ.F3,EQ.FC1,EQ.C3,EQ.FC5,EQ.FT9,EQ.T7,EQ.CP5,EQ.CP1,EQ.P3,EQ.P7,EQ.PO9,EQ.O1,EQ.Pz,EQ.Oz,EQ.O2,EQ.PO10,EQ.P8,EQ.P4,EQ.CP2,EQ.CP6,EQ.T8,EQ.FT10,EQ.FC6,EQ.C4,EQ.FC2,EQ.F4,EQ.F8,EQ.Fp2,MOT.CounterMems,MOT.InterpolatedMems,MOT.Q0,MOT.Q1,MOT.Q2,MOT.Q3,MOT.AccX,MOT.AccY,MOT.AccZ,MOT.MagX,MOT.MagY,MOT.MagZ,POW.Cz.Theta,POW.Cz.Alpha,POW.Cz.BetaL,POW.Cz.BetaH,POW.Cz.Gamma,POW.Fz.Theta,POW.Fz.Alpha,POW.Fz.BetaL,POW.Fz.BetaH,POW.Fz.Gamma,POW.Fp1.Theta,POW.Fp1.Alpha,POW.Fp1.BetaL,POW.Fp1.BetaH,POW.Fp1.Gamma,POW.F7.Theta,POW.F7.Alpha,POW.F7.BetaL,POW.F7.BetaH,POW.F7.Gamma,POW.F3.Theta,POW.F3.Alpha,POW.F3.BetaL,POW.F3.BetaH,POW.F3.Gamma,POW.FC1.Theta,POW.FC1.Alpha,POW.FC1.BetaL,POW.FC1.BetaH,POW.FC1.Gamma,POW.C3.Theta,POW.C3.Alpha,POW.C3.BetaL,POW.C3.BetaH,POW.C3.Gamma,POW.FC5.Theta,POW.FC5.Alpha,POW.FC5.BetaL,POW.FC5.BetaH,POW.FC5.Gamma,POW.FT9.Theta,POW.FT9.Alpha,POW.FT9.BetaL,POW.FT9.BetaH,POW.FT9.Gamma,POW.T7.Theta,POW.T7.Alpha,POW.T7.BetaL,POW.T7.BetaH,POW.T7.Gamma,POW.CP5.Theta,POW.CP5.Alpha,POW.CP5.BetaL,POW.CP5.BetaH,POW.CP5.Gamma,POW.CP1.Theta,POW.CP1.Alpha,POW.CP1.BetaL,POW.CP1.BetaH,POW.CP1.Gamma,POW.P3.Theta,POW.P3.Alpha,POW.P3.BetaL,POW.P3.BetaH,POW.P3.Gamma,POW.P7.Theta,POW.P7.Alpha,POW.P7.BetaL,POW.P7.BetaH,POW.P7.Gamma,POW.PO9.Theta,POW.PO9.Alpha,POW.PO9.BetaL,POW.PO9.BetaH,POW.PO9.Gamma,POW.O1.Theta,POW.O1.Alpha,POW.O1.BetaL,POW.O1.BetaH,POW.O1.Gamma,POW.Pz.Theta,POW.Pz.Alpha,POW.Pz.BetaL,POW.Pz.BetaH,POW.Pz.Gamma,POW.Oz.Theta,POW.Oz.Alpha,POW.Oz.BetaL,POW.Oz.BetaH,POW.Oz.Gamma,POW.O2.Theta,POW.O2.Alpha,POW.O2.BetaL,POW.O2.BetaH,POW.O2.Gamma,POW.PO10.Theta,POW.PO10.Alpha,POW.PO10.BetaL,POW.PO10.BetaH,POW.PO10.Gamma,POW.P8.Theta,POW.P8.Alpha,POW.P8.BetaL,POW.P8.BetaH,POW.P8.Gamma,POW.P4.Theta,POW.P4.Alpha,POW.P4.BetaL,POW.P4.BetaH,POW.P4.Gamma,POW.CP2.Theta,POW.CP2.Alpha,POW.CP2.BetaL,POW.CP2.BetaH,POW.CP2.Gamma,POW.CP6.Theta,POW.CP6.Alpha,POW.CP6.BetaL,POW.CP6.BetaH,POW.CP6.Gamma,POW.T8.Theta,POW.T8.Alpha,POW.T8.BetaL,POW.T8.BetaH,POW.T8.Gamma,POW.FT10.Theta,POW.FT10.Alpha,POW.FT10.BetaL,POW.FT10.BetaH,POW.FT10.Gamma,POW.FC6.Theta,POW.FC6.Alpha,POW.FC6.BetaL,POW.FC6.BetaH,POW.FC6.Gamma,POW.C4.Theta,POW.C4.Alpha,POW.C4.BetaL,POW.C4.BetaH,POW.C4.Gamma,POW.FC2.Theta,POW.FC2.Alpha,POW.FC2.BetaL,POW.FC2.BetaH,POW.FC2.Gamma,POW.F4.Theta,POW.F4.Alpha,POW.F4.BetaL,POW.F4.BetaH,POW.F4.Gamma,POW.F8.Theta,POW.F8.Alpha,POW.F8.BetaL,POW.F8.BetaH,POW.F8.Gamma,POW.Fp2.Theta,POW.Fp2.Alpha,POW.Fp2.BetaL,POW.Fp2.BetaH,POW.Fp2.Gamma
1763975431.29394,4549.0,0.0,4450.897461,4460.0,4567.563965,4581.666504,4449.358887,4556.666504,4592.820313,4449.743652,4614.102539,4422.05127,4547.94873,4580.384766,4620.897461,4440.0,4419.743652,4527.436035,4605.0,4577.692383,4549.487305,4436.794922,4431.153809,4628.077148,4587.307617,4563.333496,4442.820313,4626.794922,4440.897461,4614.743652,4559.615234,4454.743652,4576.025879,4557.692383,2395.0,0.0,14.0,2561.0,37556.0,5.0,1.0,5.0,0.0,4.0,4.0,4.0,4.0,4.0,4.0,4.0,4.0,4.0,4.0,4.0,4.0,4.0,4.0,4.0,4.0,4.0,4.0,4.0,4.0,4.0,4.0,4.0,4.0,4.0,4.0,4.0,4.0,4.0,4.0,4.0,4.0,100.0,,,,,,,,,,,,,,,,,,,,,,,,,,,,,,,,,,,33905.0,0.0,0.47851,0.294189,0.210022,0.800232,0.887804,-0.460505,0.048346,37.333332,-21.166666,-25.5,,,,,,,,,,,,,,,,,,,,,,,,,,,,,,,,,,,,,,,,,,,,,,,,,,,,,,,,,,,,,,,,,,,,,,,,,,,,,,,,,,,,,,,,,,,,,,,,,,,,,,,,,,,,,,,,,,,,,,,,,,,,,,,,,,,,,,,,,,,,,,,,,,,,,,,,,,,,,,,,
1763975431.297846,4550.0,0.0,4455.897461,4465.897461,4565.256348,4582.436035,4450.256348,4555.512695,4596.153809,4454.487305,4616.794922,4422.820313,4552.820313,4586.153809,4626.922852,4444.358887,4429.102539,4549.743652,4611.666504,4589.230957,4549.358887,4438.717773,4434.871582,4631.025879,4593.461426,4566.153809,4451.794922,4634.487305,4447.05127,4618.205078,4565.128418,4459.615234,4581.025879,4563.846191,2964.0,0.0,14.0,2562.0,37564.0,,,,0.0,4.0,4.0,4.0,4.0,4.0,4.0,4.0,4.0,4.0,4.0,4.0,4.0,4.0,4.0,4.0,4.0,4.0,4.0,4.0,4.0,4.0,4.0,4.0,4.0,4.0,4.0,4.0,4.0,4.0,4.0,4.0,4.0,100.0,,,,,,,,,,,,,,,,,,,,,,,,,,,,,,,,,,,,,,,,,,,,,,,,,,,,,,,,,,,,,,,,,,,,,,,,,,,,,,,,,,,,,,,,,,,,,,,,,,,,,,,,,,,,,,,,,,,,,,,,,,,,,,,,,,,,,,,,,,,,,,,,,,,,,,,,,,,,,,,,,,,,,,,,,,,,,,,,,,,,,,,,,,,,,,,,,,,,,,,,,,,,,,
1763975431.301752,4551.0,0.0,4442.563965,4450.512695,4545.384766,4563.077148,4433.974121,4537.179688,4581.025879,4436.794922,4600.641113,4407.94873,4539.743652,4571.794922,4614.102539,4433.846191,4417.05127,4554.230957,4599.743652,4581.794922,4533.205078,4417.94873,4419.487305,4613.589844,4578.333496,4549.230957,4438.974121,4616.794922,4430.128418,4599.871582,4551.025879,4440.384766,4562.05127,4543.974121,2952.0,0.0,14.0,2562.0,37564.0,,,,0.0,4.0,4.0,4.0,4.0,4.0,4.0,4.0,4.0,4.0,4.0,4.0,4.0,4.0,4.0,4.0,4.0,4.0,4.0,4.0,4.0,4.0,4.0,4.0,4.0,4.0,4.0,4.0,4.0,4.0,4.0,4.0,4.0,100.0,,,,,,,,,,,,,,,,,,,,,,,,,,,,,,,,,,,,,,,,,,,,,,,,,,,,,,,,,,,,,,,,,,,,,,,,,,,,,,,,,,,,,,,,,,,,,,,,,,,,,,,,,,,,,,,,,,,,,,,,,,,,,,,,,,,,,,,,,,,,,,,,,,,,,,,,,,,,,,,,,,,,,,,,,,,,,,,,,,,,,,,,,,,,,,,,,,,,,,,,,,,,,,
1763975431.305657,4552.0,0.0,4416.922852,4422.307617,4519.871582,4533.717773,4409.230957,4510.769043,4553.717773,4404.743652,4574.487305,4388.974121,4514.102539,4542.820313,4587.179688,4412.563965,4389.871582,4537.307617,4573.461426,4558.461426,4507.94873,4385.512695,4392.179688,4583.974121,4548.077148,4521.282227,4411.794922,4583.589844,4398.589844,4568.846191,4524.230957,4407.436035,4529.743652,4509.230957,2634.0,0.0,14.0,2561.0,37571.0,,,,0.0,4.0,4.0,4.0,4.0,4.0,4.0,4.0,4.0,4.0,4.0,4.0,4.0,4.0,4.0,4.0,4.0,4.0,4.0,4.0,4.0,4.0,4.0,4.0,4.0,4.0,4.0,4.0,4.0,4.0,4.0,4.0,4.0,100.0,0.875,25.0,1.0,1.0,1.0,1.0,1.0,1.0,1.0,1.0,1.0,1.0,1.0,1.0,1.0,1.0,1.0,1.0,1.0,1.0,1.0,1.0,1.0,1.0,1.0,1.0,1.0,1.0,1.0,1.0,1.0,1.0,1.0,1.0,,,,,,,,,,,,,2.895977,9.565351,7.100442,5.084928,7.14439,3.4648,4.379135,6.66177,5.883012,6.762201,3.131305,3.59843,7.34897,7.46852,7.426658,3.366092,3.080446,6.939814,6.534537,7.760024,2.724596,2.779318,5.015419,4.626545,5.1917,3.714407,2.758169,4.013547,3.217546,5.066163,2.90979,7.167101,5.108125,5.423779,7.869341,3.234287,2.448544,7.294958,6.085277,8.670054,2.969333,2.425313,4.834523,6.129975,7.55266,1.976704,3.51199,4.910988,11.943357,8.862698,1.445314,3.971329,3.518129,4.280534,6.977345,3.261475,15.24443,6.115988,5.022189,7.414449,3.512466,18.230068,4.891117,4.738696,8.818501,0.698437,2.984039,1.689676,3.417872,7.164711,0.700911,2.903954,3.694125,5.259048,8.562073,3.399668,9.690187,5.132314,5.995453,13.745106,3.159768,28.698444,6.359222,4.191801,7.318972,2.284427,9.551472,5.941178,6.388478,11.276716,2.389401,8.743563,7.256173,5.619337,9.141627,2.888485,6.529558,7.285642,8.574124,8.894268,2.844252,8.160448,6.750409,6.503575,7.853811,3.084797,24.006351,8.460566,6.001632,8.653225,3.594042,19.259701,8.808002,6.359618,8.541451,2.307329,10.320251,6.905325,6.102488,8.462539,4.504349,8.403554,7.343019,8.79458,8.315259,3.846949,5.973183,6.51155,7.913569,8.154928,4.482574,7.257452,8.093989,6.966253,8.321643,4.040162,10.731836,7.416793,6.605251,8.334886,4.399025,6.808865,7.440958,5.817442,7.10809,4.711721,5.687635,7.393089,6.425142,7.338366,4.796846,6.764602,7.882545,7.576625,8.380052,4.369887,4.873368,7.57947,7.419389,7.371484
1763975431.309563,4553.0,0.0,4390.384766,4395.769043,4500.641113,4508.205078,4388.205078,4488.974121,4526.282227,4373.077148,4551.282227,4378.077148,4487.307617,4511.922852,4557.94873,4390.128418,4361.410156,4507.692383,4544.102539,4531.025879,4485.641113,4358.974121,4365.769043,4555.641113,4516.153809,4495.384766,4383.846191,4551.666504,4367.692383,4539.615234,4497.179688,4377.179688,4500.384766,4477.307617,2817.0,0.0,14.0,2561.0,37571.0,,,,0.0,4.0,4.0,4.0,4.0,4.0,4.0,4.0,4.0,4.0,4.0,4.0,4.0,4.0,4.0,4.0,4.0,4.0,4.0,4.0,4.0,4.0,4.0,4.0,4.0,4.0,4.0,4.0,4.0,4.0,4.0,4.0,4.0,100.0,,,,,,,,,,,,,,,,,,,,,,,,,,,,,,,,,,,33906.0,0.0,0.47851,0.294189,0.210022,0.800232,0.893175,-0.455622,0.056648,35.333332,-19.666666,-24.666666,,,,,,,,,,,,,,,,,,,,,,,,,,,,,,,,,,,,,,,,,,,,,,,,,,,,,,,,,,,,,,,,,,,,,,,,,,,,,,,,,,,,,,,,,,,,,,,,,,,,,,,,,,,,,,,,,,,,,,,,,,,,,,,,,,,,,,,,,,,,,,,,,,,,,,,,,,,,,,,,
1763975431.313469,4554.0,0.0,4373.589844,4383.077148,4493.461426,4496.410156,4379.871582,4481.153809,4509.358887,4355.512695,4540.256348,4378.077148,4470.384766,4492.307617,4538.461426,4375.769043,4345.512695,4481.025879,4523.077148,4512.179688,4476.538574,4350.641113,4351.794922,4540.256348,4496.025879,4481.538574,4366.922852,4534.743652,4350.512695,4523.717773,4481.282227,4362.05127,4485.769043,4461.922852,2662.0,0.0,14.0,2562.0,37579.0,,,,0.0,4.0,4.0,4.0,4.0,4.0,4.0,4.0,4.0,4.0,4.0,4.0,4.0,4.0,4.0,4.0,4.0,4.0,4.0,4.0,4.0,4.0,4.0,4.0,4.0,4.0,4.0,4.0,4.0,4.0,4.0,4.0,4.0,100.0,,,,,,,,,,,,,,,,,,,,,,,,,,,,,,,,,,,,,,,,,,,,,,,,,,,,,,,,,,,,,,,,,,,,,,,,,,,,,,,,,,,,,,,,,,,,,,,,,,,,,,,,,,,,,,,,,,,,,,,,,,,,,,,,,,,,,,,,,,,,,,,,,,,,,,,,,,,,,,,,,,,,,,,,,,,,,,,,,,,,,,,,,,,,,,,,,,,,,,,,,,,,,,
1763975431.317375,4555.0,0.0,4371.666504,4387.94873,4497.179688,4499.102539,4385.256348,4488.846191,4507.179688,4356.538574,4542.94873,4383.333496,4468.333496,4489.743652,4534.871582,4373.589844,4348.589844,4469.358887,4516.410156,4508.205078,4483.461426,4361.153809,4354.230957,4541.025879,4493.589844,4482.692383,4365.384766,4537.05127,4351.538574,4524.871582,4481.410156,4364.743652,4488.589844,4466.666504,2979.0,0.0,14.0,2562.0,37579.0,,,,0.0,4.0,4.0,4.0,4.0,4.0,4.0,4.0,4.0,4.0,4.0,4.0,4.0,4.0,4.0,4.0,4.0,4.0,4.0,4.0,4.0,4.0,4.0,4.0,4.0,4.0,4.0,4.0,4.0,4.0,4.0,4.0,4.0,100.0,,,,,,,,,,,,,,,,,,,,,,,,,,,,,,,,,,,,,,,,,,,,,,,,,,,,,,,,,,,,,,,,,,,,,,,,,,,,,,,,,,,,,,,,,,,,,,,,,,,,,,,,,,,,,,,,,,,,,,,,,,,,,,,,,,,,,,,,,,,,,,,,,,,,,,,,,,,,,,,,,,,,,,,,,,,,,,,,,,,,,,,,,,,,,,,,,,,,,,,,,,,,,,
1763975431.321281,4556.0,0.0,4382.436035,4404.487305,4506.666504,4510.769043,4398.717773,4505.641113,4517.05127,4371.153809,4554.358887,4388.717773,4478.333496,4500.769043,4545.256348,4382.692383,4366.922852,4476.282227,4522.179688,4516.153809,4499.102539,4380.384766,4368.589844,4552.436035,4505.0,4494.102539,4374.230957,4552.692383,4365.769043,4537.820313,4493.717773,4379.358887,4502.436035,4484.615234,2924.0,0.0,14.0,2563.0,37587.0,,,,0.0,4.0,4.0,4.0,4.0,4.0,4.0,4.0,4.0,4.0,4.0,4.0,4.0,4.0,4.0,4.0,4.0,4.0,4.0,4.0,4.0,4.0,4.0,4.0,4.0,4.0,4.0,4.0,4.0,4.0,4.0,4.0,4.0,100.0,,,,,,,,,,,,,,,,,,,,,,,,,,,,,,,,,,,,,,,,,,,,,,,,,,,,,,,,,,,,,,,,,,,,,,,,,,,,,,,,,,,,,,,,,,,,,,,,,,,,,,,,,,,,,,,,,,,,,,,,,,,,,,,,,,,,,,,,,,,,,,,,,,,,,,,,,,,,,,,,,,,,,,,,,,,,,,,,,,,,,,,,,,,,,,,,,,,,,,,,,,,,,,
1763975431.325186,4557.0,0.0,4398.205078,4422.05127,4516.538574,4523.205078,4411.794922,4521.666504,4530.769043,4388.461426,4566.666504,4393.974121,4491.922852,4515.512695,4560.769043,4397.179688,4388.974121,4496.025879,4532.563965,4528.205078,4511.153809,4394.615234,4384.615234,4564.230957,4520.128418,4506.282227,4384.615234,4570.0,4382.563965,4552.436035,4508.974121,4395.641113,4517.692383,4503.846191,2704.0,0.0,14.0,2563.0,37587.0,,,,0.0,4.0,4.0,4.0,4.0,4.0,4.0,4.0,4.0,4.0,4.0,4.0,4.0,4.0,4.0,4.0,4.0,4.0,4.0,4.0,4.0,4.0,4.0,4.0,4.0,4.0,4.0,4.0,4.0,4.0,4.0,4.0,4.0,100.0,,,,,,,,,,,,,,,,,,,,,,,,,,,,,,,,,,,33907.0,0.0,0.478548,0.294128,0.210022,0.800232,0.907826,-0.453669,0.056159,37.166668,-20.166666,-27.5,,,,,,,,,,,,,,,,,,,,,,,,,,,,,,,,,,,,,,,,,,,,,,,,,,,,,,,,,,,,,,,,,,,,,,,,,,,,,,,,,,,,,,,,,,,,,,,,,,,,,,,,,,,,,,,,,,,,,,,,,,,,,,,,,,,,,,,,,,,,,,,,,,,,,,,,,,,,,,,,
1763975431.329092,4558.0,0.0,4409.358887,4430.384766,4521.794922,4529.615234,4417.94873,4528.846191,4539.743652,4398.077148,4572.94873,4400.128418,4499.871582,4523.461426,4571.282227,4409.487305,4401.794922,4517.94873,4538.846191,4537.179688,4512.05127,4394.871582,4392.820313,4568.077148,4528.205078,4511.025879,4388.205078,4578.589844,4391.666504,4559.871582,4517.436035,4404.743652,4526.153809,4513.205078,2705.0,0.0,14.0,2564.0,37595.0,,,,0.0,4.0,4.0,4.0,4.0,4.0,4.0,4.0,4.0,4.0,4.0,4.0,4.0,4.0,4.0,4.0,4.0,4.0,4.0,4.0,4.0,4.0,4.0,4.0,4.0,4.0,4.0,4.0,4.0,4.0,4.0,4.0,4.0,100.0,,,,,,,,,,,,,,,,,,,,,,,,,,,,,,,,,,,,,,,,,,,,,,,,,,,,,,,,,,,,,,,,,,,,,,,,,,,,,,,,,,,,,,,,,,,,,,,,,,,,,,,,,,,,,,,,,,,,,,,,,,,,,,,,,,,,,,,,,,,,,,,,,,,,,,,,,,,,,,,,,,,,,,,,,,,,,,,,,,,,,,,,,,,,,,,,,,,,,,,,,,,,,,
1763975431.332998,4559.0,0.0,4410.384766,4426.282227,4520.256348,4527.307617,4414.871582,4526.025879,4539.615234,4395.641113,4570.641113,4405.0,4497.563965,4519.871582,4570.256348,4413.333496,4398.205078,4532.820313,4536.794922,4540.384766,4503.717773,4382.436035,4389.743652,4562.563965,4524.487305,4505.512695,4381.922852,4574.358887,4388.846191,4556.666504,4514.871582,4403.205078,4524.230957,4508.974121,2823.0,0.0,14.0,2564.0,37595.0,,,,0.0,4.0,4.0,4.0,4.0,4.0,4.0,4.0,4.0,4.0,4.0,4.0,4.0,4.0,4.0,4.0,4.0,4.0,4.0,4.0,4.0,4.0,4.0,4.0,4.0,4.0,4.0,4.0,4.0,4.0,4.0,4.0,4.0,100.0,,,,,,,,,,,,,,,,,,,,,,,,,,,,,,,,,,,,,,,,,,,,,,,,,,,,,,,,,,,,,,,,,,,,,,,,,,,,,,,,,,,,,,,,,,,,,,,,,,,,,,,,,,,,,,,,,,,,,,,,,,,,,,,,,,,,,,,,,,,,,,,,,,,,,,,,,,,,,,,,,,,,,,,,,,,,,,,,,,,,,,,,,,,,,,,,,,,,,,,,,,,,,,
1763975431.336904,4560.0,0.0,4403.717773,4415.256348,4514.871582,4519.871582,4407.179688,4518.461426,4533.333496,4385.384766,4563.205078,4405.0,4488.589844,4509.358887,4560.0,4408.333496,4383.077148,4537.05127,4529.743652,4540.256348,4496.153809,4368.077148,4381.282227,4554.615234,4513.974121,4495.512695,4370.897461,4562.820313,4379.230957,4547.820313,4505.897461,4395.641113,4515.769043,4497.179688,2925.0,0.0,14.0,2563.0,37603.0,,,,0.0,4.0,4.0,4.0,4.0,4.0,4.0,4.0,4.0,4.0,4.0,4.0,4.0,4.0,4.0,4.0,4.0,4.0,4.0,4.0,4.0,4.0,4.0,4.0,4.0,4.0,4.0,4.0,4.0,4.0,4.0,4.0,4.0,100.0,,,,,,,,,,,,,,,,,,,,,,,,,,,,,,,,,,,,,,,,,,,,,,,,,,,,,,,,,,,,,,,,,,,,,,,,,,,,,,,,,,,,,,,,,,,,,,,,,,,,,,,,,,,,,,,,,,,,,,,,,,,,,,,,,,,,,,,,,,,,,,,,,,,,,,,,,,,,,,,,,,,,,,,,,,,,,,,,,,,,,,,,,,,,,,,,,,,,,,,,,,,,,,
1763975431.340809,4561.0,0.0,4398.205078,4408.974121,4512.94873,4516.666504,4403.974121,4515.512695,4529.871582,4378.846191,4559.615234,4400.384766,4482.94873,4503.077148,4550.641113,4400.641113,4370.769043,4534.102539,4526.666504,4542.05127,4499.358887,4366.025879,4377.94873,4554.487305,4507.94873,4491.922852,4366.282227,4555.897461,4373.717773,4543.461426,4500.769043,4391.666504,4509.615234,4490.0,3050.0,0.0,14.0,2563.0,37603.0,,,,0.0,4.0,4.0,4.0,4.0,4.0,4.0,4.0,4.0,4.0,4.0,4.0,4.0,4.0,4.0,4.0,4.0,4.0,4.0,4.0,4.0,4.0,4.0,4.0,4.0,4.0,4.0,4.0,4.0,4.0,4.0,4.0,4.0,100.0,,,,,,,,,,,,,,,,,,,,,,,,,,,,,,,,,,,33908.0,0.0,0.478548,0.294006,0.209961,0.800293,0.898059,-0.454645,0.055671,36.333332,-20.166666,-26.666666,,,,,,,,,,,,,,,,,,,,,,,,,,,,,,,,,,,,,,,,,,,,,,,,,,,,,,,,,,,,,,,,,,,,,,,,,,,,,,,,,,,,,,,,,,,,,,,,,,,,,,,,,,,,,,,,,,,,,,,,,,,,,,,,,,,,,,,,,,,,,,,,,,,,,,,,,,,,,,,,
1763975431.344715,4562.0,0.0,4401.794922,4415.128418,4520.128418,4525.128418,4410.769043,4522.436035,4536.282227,4384.743652,4567.179688,4396.410156,4488.205078,4508.974121,4551.410156,4398.077148,4374.102539,4529.487305,4533.461426,4549.102539,4513.717773,4382.563965,4386.794922,4566.794922,4514.743652,4501.538574,4376.538574,4562.563965,4380.128418,4550.769043,4507.05127,4398.333496,4512.94873,4496.025879,2803.0,0.0,14.0,2564.0,37610.0,,,,0.0,4.0,4.0,4.0,4.0,4.0,4.0,4.0,4.0,4.0,4.0,4.0,4.0,4.0,4.0,4.0,4.0,4.0,4.0,4.0,4.0,4.0,4.0,4.0,4.0,4.0,4.0,4.0,4.0,4.0,4.0,4.0,4.0,100.0,,,,,,,,,,,,,,,,,,,,,,,,,,,,,,,,,,,,,,,,,,,,,,,,,,,,,,,,,,,,,,,,,,,,,,,,,,,,,,,,,,,,,,,,,,,,,,,,,,,,,,,,,,,,,,,,,,,,,,,,,,,,,,,,,,,,,,,,,,,,,,,,,,,,,,,,,,,,,,,,,,,,,,,,,,,,,,,,,,,,,,,,,,,,,,,,,,,,,,,,,,,,,,
1763975431.348621,4563.0,0.0,4412.563965,4430.128418,4533.077148,4542.692383,4423.717773,4535.0,4550.256348,4400.769043,4583.589844,4397.563965,4501.794922,4523.974121,4562.94873,4402.436035,4392.436035,4525.512695,4546.922852,4558.461426,4529.102539,4408.974121,4403.461426,4583.717773,4530.128418,4519.230957,4397.820313,4579.358887,4394.871582,4566.153809,4521.025879,4411.538574,4523.974121,4511.794922,3000.0,0.0,14.0,2564.0,37610.0,,,,0.0,4.0,4.0,4.0,4.0,4.0,4.0,4.0,4.0,4.0,4.0,4.0,4.0,4.0,4.0,4.0,4.0,4.0,4.0,4.0,4.0,4.0,4.0,4.0,4.0,4.0,4.0,4.0,4.0,4.0,4.0,4.0,4.0,100.0,,,,,,,,,,,,,,,,,,,,,,,,,,,,,,,,,,,,,,,,,,,,,,,,,,,,,,,,,,,,,,,,,,,,,,,,,,,,,,,,,,,,,,,,,,,,,,,,,,,,,,,,,,,,,,,,,,,,,,,,,,,,,,,,,,,,,,,,,,,,,,,,,,,,,,,,,,,,,,,,,,,,,,,,,,,,,,,,,,,,,,,,,,,,,,,,,,,,,,,,,,,,,,
1763975431.352527,4564.0,0.0,4420.384766,4440.897461,4541.153809,4557.307617,4431.794922,4542.692383,4561.282227,4414.487305,4597.692383,4402.05127,4512.94873,4536.282227,4575.897461,4407.94873,4411.153809,4520.641113,4556.282227,4562.563965,4533.205078,4426.538574,4414.358887,4591.410156,4540.897461,4531.538574,4414.358887,4591.922852,4405.0,4576.922852,4530.769043,4419.615234,4532.436035,4524.487305,2974.0,0.0,14.0,2565.0,37618.0,,,,0.0,4.0,4.0,4.0,4.0,4.0,4.0,4.0,4.0,4.0,4.0,4.0,4.0,4.0,4.0,4.0,4.0,4.0,4.0,4.0,4.0,4.0,4.0,4.0,4.0,4.0,4.0,4.0,4.0,4.0,4.0,4.0,4.0,100.0,,,,,,,,,,,,,,,,,,,,,,,,,,,,,,,,,,,,,,,,,,,,,,,,,,,,,,,,,,,,,,,,,,,,,,,,,,,,,,,,,,,,,,,,,,,,,,,,,,,,,,,,,,,,,,,,,,,,,,,,,,,,,,,,,,,,,,,,,,,,,,,,,,,,,,,,,,,,,,,,,,,,,,,,,,,,,,,,,,,,,,,,,,,,,,,,,,,,,,,,,,,,,,
1763975431.356433,4565.0,0.0,4416.922852,4437.692383,4535.897461,4558.461426,4427.692383,4538.461426,4561.025879,4415.0,4598.846191,4404.102539,4512.94873,4536.794922,4580.897461,4408.077148,4414.743652,4514.358887,4553.846191,4557.436035,4524.102539,4422.05127,4410.384766,4582.692383,4537.436035,4528.333496,4412.94873,4588.461426,4400.384766,4573.461426,4527.692383,4413.461426,4529.487305,4522.692383,2910.0,0.0,14.0,2565.0,37618.0,,,,0.0,4.0,4.0,4.0,4.0,4.0,4.0,4.0,4.0,4.0,4.0,4.0,4.0,4.0,4.0,4.0,4.0,4.0,4.0,4.0,4.0,4.0,4.0,4.0,4.0,4.0,4.0,4.0,4.0,4.0,4.0,4.0,4.0,100.0,,,,,,,,,,,,,,,,,,,,,,,,,,,,,,,,,,,33909.0,0.0,0.478649,0.293762,0.209839,0.800354,0.898059,-0.454645,0.055671,35.333332,-20.833334,-28.833334,,,,,,,,,,,,,,,,,,,,,,,,,,,,,,,,,,,,,,,,,,,,,,,,,,,,,,,,,,,,,,,,,,,,,,,,,,,,,,,,,,,,,,,,,,,,,,,,,,,,,,,,,,,,,,,,,,,,,,,,,,,,,,,,,,,,,,,,,,,,,,,,,,,,,,,,,,,,,,,,
1763975431.360338,4566.0,0.0,4404.487305,4423.077148,4520.512695,4547.05127,4414.743652,4525.384766,4551.025879,4403.589844,4587.563965,4400.769043,4503.589844,4527.820313,4577.820313,4402.692383,4400.512695,4509.743652,4543.077148,4547.179688,4511.922852,4399.102539,4395.384766,4565.256348,4523.717773,4512.436035,4395.641113,4571.153809,4383.589844,4558.205078,4515.384766,4397.05127,4516.794922,4508.077148,2981.0,0.0,14.0,2566.0,37626.0,,,,0.0,4.0,4.0,4.0,4.0,4.0,4.0,4.0,4.0,4.0,4.0,4.0,4.0,4.0,4.0,4.0,4.0,4.0,4.0,4.0,4.0,4.0,4.0,4.0,4.0,4.0,4.0,4.0,4.0,4.0,4.0,4.0,4.0,100.0,,,,,,,,,,,,,,,,,,,,,,,,,,,,,,,,,,,,,,,,,,,,,,,,,,,,,,,,,,,,,,,,,,,,,,,,,,,,,,,,,,,,,,,,,,,,,,,,,,,,,,,,,,,,,,,,,,,,,,,,,,,,,,,,,,,,,,,,,,,,,,,,,,,,,,,,,,,,,,,,,,,,,,,,,,,,,,,,,,,,,,,,,,,,,,,,,,,,,,,,,,,,,,
1763975431.364244,4567.0,0.0,4394.358887,4410.641113,4506.538574,4534.487305,4404.615234,4513.846191,4541.922852,4391.666504,4574.487305,4396.794922,4496.025879,4520.897461,4574.487305,4397.436035,4380.384766,4510.897461,4535.769043,4541.153809,4508.846191,4374.615234,4382.436035,4554.358887,4513.333496,4497.94873,4377.820313,4554.615234,4368.846191,4544.358887,4506.410156,4383.461426,4504.871582,4492.94873,2923.0,0.0,14.0,2566.0,37626.0,,,,0.0,4.0,4.0,4.0,4.0,4.0,4.0,4.0,4.0,4.0,4.0,4.0,4.0,4.0,4.0,4.0,4.0,4.0,4.0,4.0,4.0,4.0,4.0,4.0,4.0,4.0,4.0,4.0,4.0,4.0,4.0,4.0,4.0,100.0,,,,,,,,,,,,,,,,,,,,,,,,,,,,,,,,,,,,,,,,,,,,,,,,,,,,,,,,,,,,,,,,,,,,,,,,,,,,,,,,,,,,,,,,,,,,,,,,,,,,,,,,,,,,,,,,,,,,,,,,,,,,,,,,,,,,,,,,,,,,,,,,,,,,,,,,,,,,,,,,,,,,,,,,,,,,,,,,,,,,,,,,,,,,,,,,,,,,,,,,,,,,,,
1763975431.36815,4568.0,0.0,4395.769043,4410.769043,4504.102539,4531.538574,4405.769043,4512.436035,4542.820313,4389.615234,4570.128418,4400.512695,4498.461426,4524.615234,4577.692383,4397.692383,4368.333496,4517.05127,4540.769043,4543.846191,4516.794922,4365.0,4382.05127,4558.974121,4516.282227,4496.410156,4374.102539,4552.179688,4367.820313,4543.589844,4509.743652,4383.461426,4503.205078,4488.974121,2853.0,0.0,14.0,2567.0,37634.0,,,,0.0,4.0,4.0,4.0,4.0,4.0,4.0,4.0,4.0,4.0,4.0,4.0,4.0,4.0,4.0,4.0,4.0,4.0,4.0,4.0,4.0,4.0,4.0,4.0,4.0,4.0,4.0,4.0,4.0,4.0,4.0,4.0,4.0,100.0,,,,,,,,,,,,,,,,,,,,,,,,,,,,,,,,,,,,,,,,,,,,,,,,,,,,,,,,,,,,,,,,,,,,,,,,,,,,,,,,,,,,,,,,,,,,,,,,,,,,,,,,,,,,,,,,,,,,,,,,,,,,,,,,,,,,,,,,,,,,,,,,,,,,,,,,,,,,,,,,,,,,,,,,,,,,,,,,,,,,,,,,,,,,,,,,,,,,,,,,,,,,,,
1763975431.372056,4569.0,0.0,4407.692383,4423.077148,4513.333496,4538.974121,4416.410156,4519.743652,4553.461426,4398.205078,4575.897461,4415.128418,4509.871582,4537.692383,4586.922852,4403.077148,4369.871582,4522.563965,4555.512695,4551.025879,4526.538574,4374.615234,4392.692383,4574.230957,4530.128418,4507.692383,4385.0,4564.230957,4380.641113,4556.153809,4522.307617,4396.282227,4512.179688,4497.692383,2828.0,0.0,14.0,2567.0,37634.0,,,,0.0,4.0,4.0,4.0,4.0,4.0,4.0,4.0,4.0,4.0,4.0,4.0,4.0,4.0,4.0,4.0,4.0,4.0,4.0,4.0,4.0,4.0,4.0,4.0,4.0,4.0,4.0,4.0,4.0,4.0,4.0,4.0,4.0,100.0,,,,,,,,,,,,,,,,,,,,,,,,,,,,,,,,,,,33910.0,0.0,0.4786,0.293518,0.209595,0.800537,0.890734,-0.452204,0.060554,35.333332,-20.0,-27.166666,,,,,,,,,,,,,,,,,,,,,,,,,,,,,,,,,,,,,,,,,,,,,,,,,,,,,,,,,,,,,,,,,,,,,,,,,,,,,,,,,,,,,,,,,,,,,,,,,,,,,,,,,,,,,,,,,,,,,,,,,,,,,,,,,,,,,,,,,,,,,,,,,,,,,,,,,,,,,,,,
1763975431.375961,4570.0,0.0,4421.153809,4437.692383,4526.794922,4549.615234,4427.94873,4528.717773,4565.897461,4409.871582,4585.128418,4434.487305,4521.666504,4551.153809,4596.410156,4409.615234,4380.641113,4523.333496,4570.128418,4556.153809,4528.077148,4395.0,4405.256348,4588.333496,4545.384766,4522.436035,4399.358887,4580.512695,4397.563965,4573.205078,4534.487305,4412.692383,4525.256348,4511.282227,2754.0,0.0,14.0,2568.0,37642.0,,,,0.0,4.0,4.0,4.0,4.0,4.0,4.0,4.0,4.0,4.0,4.0,4.0,4.0,4.0,4.0,4.0,4.0,4.0,4.0,4.0,4.0,4.0,4.0,4.0,4.0,4.0,4.0,4.0,4.0,4.0,4.0,4.0,4.0,100.0,,,,,,,,,,,,,,,,,,,,,,,,,,,,,,,,,,,,,,,,,,,,,,,,,,,,,,,,,,,,,,,,,,,,,,,,,,,,,,,,,,,,,,,,,,,,,,,,,,,,,,,,,,,,,,,,,,,,,,,,,,,,,,,,,,,,,,,,,,,,,,,,,,,,,,,,,,,,,,,,,,,,,,,,,,,,,,,,,,,,,,,,,,,,,,,,,,,,,,,,,,,,,,
1763975431.379867,4571.0,0.0,4429.358887,4446.410156,4537.436035,4556.666504,4434.102539,4533.974121,4573.461426,4418.205078,4591.153809,4447.820313,4527.436035,4558.717773,4602.692383,4415.128418,4393.333496,4521.666504,4578.333496,4557.94873,4522.05127,4414.358887,4413.461426,4594.871582,4555.641113,4532.820313,4407.05127,4591.025879,4409.615234,4586.153809,4540.512695,4424.102539,4536.153809,4521.666504,2981.0,0.0,14.0,2568.0,37642.0,,,,0.0,4.0,4.0,4.0,4.0,4.0,4.0,4.0,4.0,4.0,4.0,4.0,4.0,4.0,4.0,4.0,4.0,4.0,4.0,4.0,4.0,4.0,4.0,4.0,4.0,4.0,4.0,4.0,4.0,4.0,4.0,4.0,4.0,100.0,,,,,,,,,,,,,,,,,,,,,,,,,,,,,,,,,,,,,,,,,,,,,,,,,,,,,,,,,,,,,,,,,,,,,,,,,,,,,,,,,,,,,,,,,,,,,,,,,,,,,,,,,,,,,,,,,,,,,,,,,,,,,,,,,,,,,,,,,,,,,,,,,,,,,,,,,,,,,,,,,,,,,,,,,,,,,,,,,,,,,,,,,,,,,,,,,,,,,,,,,,,,,,
1763975431.383773,4572.0,0.0,4432.692383,4448.846191,4544.102539,4560.128418,4435.512695,4536.025879,4576.538574,4422.820313,4593.717773,4447.563965,4528.974121,4561.538574,4607.179688,4421.153809,4405.0,4524.871582,4581.922852,4561.666504,4518.461426,4426.025879,4418.717773,4597.436035,4562.307617,4538.846191,4408.461426,4594.230957,4415.512695,4592.94873,4543.205078,4429.102539,4543.974121,4526.666504,2934.0,0.0,14.0,2569.0,37649.0,,,,0.0,4.0,4.0,4.0,4.0,4.0,4.0,4.0,4.0,4.0,4.0,4.0,4.0,4.0,4.0,4.0,4.0,4.0,4.0,4.0,4.0,4.0,4.0,4.0,4.0,4.0,4.0,4.0,4.0,4.0,4.0,4.0,4.0,100.0,,,,,,,,,,,,,,,,,,,,,,,,,,,,,,,,,,,,,,,,,,,,,,,,,,,,,,,,,,,,,,,,,,,,,,,,,,,,,,,,,,,,,,,,,,,,,,,,,,,,,,,,,,,,,,,,,,,,,,,,,,,,,,,,,,,,,,,,,,,,,,,,,,,,,,,,,,,,,,,,,,,,,,,,,,,,,,,,,,,,,,,,,,,,,,,,,,,,,,,,,,,,,,
1763975431.387679,4573.0,0.0,4436.666504,4450.0,4548.717773,4563.589844,4436.410156,4538.461426,4579.230957,4426.538574,4596.538574,4434.743652,4531.794922,4565.0,4613.205078,4429.871582,4415.769043,4536.922852,4586.538574,4571.538574,4526.282227,4430.512695,4426.025879,4603.717773,4570.0,4545.0,4410.641113,4596.153809,4419.743652,4597.179688,4548.333496,4431.282227,4550.897461,4529.102539,2815.0,0.0,14.0,2569.0,37649.0,,,,0.0,4.0,4.0,4.0,4.0,4.0,4.0,4.0,4.0,4.0,4.0,4.0,4.0,4.0,4.0,4.0,4.0,4.0,4.0,4.0,4.0,4.0,4.0,4.0,4.0,4.0,4.0,4.0,4.0,4.0,4.0,4.0,4.0,100.0,,,,,,,,,,,,,,,,,,,,,,,,,,,,,,,,,,,33911.0,0.0,0.478679,0.293274,0.20929,0.800659,0.899524,-0.444879,0.053229,34.833332,-20.0,-25.166666,,,,,,,,,,,,,,,,,,,,,,,,,,,,,,,,,,,,,,,,,,,,,,,,,,,,,,,,,,,,,,,,,,,,,,,,,,,,,,,,,,,,,,,,,,,,,,,,,,,,,,,,,,,,,,,,,,,,,,,,,,,,,,,,,,,,,,,,,,,,,,,,,,,,,,,,,,,,,,,,
1763975431.391584,4574.0,0.0,4442.820313,4451.794922,4551.922852,4567.820313,4438.205078,4541.282227,4583.077148,4429.743652,4600.769043,4418.333496,4537.05127,4570.769043,4620.512695,4440.128418,4424.358887,4553.333496,4593.717773,4584.230957,4542.05127,4430.512695,4435.0,4615.128418,4578.717773,4552.05127,4417.436035,4600.512695,4424.487305,4601.410156,4556.025879,4432.94873,4556.666504,4530.641113,3001.0,0.0,14.0,2570.0,37657.0,,,,0.0,4.0,4.0,4.0,4.0,4.0,4.0,4.0,4.0,4.0,4.0,4.0,4.0,4.0,4.0,4.0,4.0,4.0,4.0,4.0,4.0,4.0,4.0,4.0,4.0,4.0,4.0,4.0,4.0,4.0,4.0,4.0,4.0,100.0,,,,,,,,,,,,,,,,,,,,,,,,,,,,,,,,,,,,,,,,,,,,,,,,,,,,,,,,,,,,,,,,,,,,,,,,,,,,,,,,,,,,,,,,,,,,,,,,,,,,,,,,,,,,,,,,,,,,,,,,,,,,,,,,,,,,,,,,,,,,,,,,,,,,,,,,,,,,,,,,,,,,,,,,,,,,,,,,,,,,,,,,,,,,,,,,,,,,,,,,,,,,,,
1763975431.39549,4575.0,0.0,4445.769043,4450.384766,4549.102539,4567.307617,4437.179688,4539.358887,4583.333496,4427.179688,4601.410156,4408.461426,4538.589844,4572.436035,4622.563965,4445.769043,4426.922852,4563.589844,4597.307617,4589.615234,4551.282227,4426.153809,4437.692383,4622.692383,4581.282227,4553.589844,4423.589844,4603.333496,4425.384766,4601.922852,4558.974121,4431.282227,4555.897461,4528.205078,2926.0,0.0,14.0,2570.0,37657.0,,,,0.0,4.0,4.0,4.0,4.0,4.0,4.0,4.0,4.0,4.0,4.0,4.0,4.0,4.0,4.0,4.0,4.0,4.0,4.0,4.0,4.0,4.0,4.0,4.0,4.0,4.0,4.0,4.0,4.0,4.0,4.0,4.0,4.0,100.0,,,,,,,,,,,,,,,,,,,,,,,,,,,,,,,,,,,,,,,,,,,,,,,,,,,,,,,,,,,,,,,,,,,,,,,,,,,,,,,,,,,,,,,,,,,,,,,,,,,,,,,,,,,,,,,,,,,,,,,,,,,,,,,,,,,,,,,,,,,,,,,,,,,,,,,,,,,,,,,,,,,,,,,,,,,,,,,,,,,,,,,,,,,,,,,,,,,,,,,,,,,,,,
1763975431.399396,4576.0,0.0,4437.436035,4439.358887,4534.743652,4555.128418,4427.563965,4526.922852,4572.820313,4413.333496,4591.922852,4407.692383,4528.461426,4562.563965,4611.666504,4440.256348,4419.743652,4558.333496,4589.102539,4578.974121,4540.384766,4414.487305,4425.384766,4614.487305,4569.358887,4542.436035,4419.230957,4596.153809,4415.769043,4592.307617,4548.333496,4420.897461,4543.333496,4517.179688,2826.0,0.0,14.0,2569.0,37665.0,,,,0.0,4.0,4.0,4.0,4.0,4.0,4.0,4.0,4.0,4.0,4.0,4.0,4.0,4.0,4.0,4.0,4.0,4.0,4.0,4.0,4.0,4.0,4.0,4.0,4.0,4.0,4.0,4.0,4.0,4.0,4.0,4.0,4.0,100.0,,,,,,,,,,,,,,,,,,,,,,,,,,,,,,,,,,,,,,,,,,,,,,,,,,,,,,,,,,,,,,,,,,,,,,,,,,,,,,,,,,,,,,,,,,,,,,,,,,,,,,,,,,,,,,,,,,,,,,,,,,,,,,,,,,,,,,,,,,,,,,,,,,,,,,,,,,,,,,,,,,,,,,,,,,,,,,,,,,,,,,,,,,,,,,,,,,,,,,,,,,,,,,
1763975431.403302,4577.0,0.0,4416.410156,4418.205078,4509.615234,4530.769043,4409.358887,4505.128418,4550.256348,4388.846191,4571.410156,4409.358887,4505.384766,4540.256348,4586.666504,4422.563965,4403.077148,4536.410156,4567.05127,4552.563965,4509.871582,4394.230957,4398.589844,4588.205078,4542.436035,4518.205078,4400.0,4574.743652,4393.589844,4570.897461,4522.94873,4400.641113,4520.128418,4497.179688,2843.0,0.0,14.0,2569.0,37665.0,,,,0.0,4.0,4.0,4.0,4.0,4.0,4.0,4.0,4.0,4.0,4.0,4.0,4.0,4.0,4.0,4.0,4.0,4.0,4.0,4.0,4.0,4.0,4.0,4.0,4.0,4.0,4.0,4.0,4.0,4.0,4.0,4.0,4.0,100.0,,,,,,,,,,,,,,,,,,,,,,,,,,,,,,,,,,,33912.0,0.0,0.478641,0.293335,0.20929,0.800659,0.894152,-0.45904,0.052741,36.333332,-20.166666,-26.666666,,,,,,,,,,,,,,,,,,,,,,,,,,,,,,,,,,,,,,,,,,,,,,,,,,,,,,,,,,,,,,,,,,,,,,,,,,,,,,,,,,,,,,,,,,,,,,,,,,,,,,,,,,,,,,,,,,,,,,,,,,,,,,,,,,,,,,,,,,,,,,,,,,,,,,,,,,,,,,,,
1763975431.407208,4578.0,0.0,4390.512695,4394.230957,4483.077148,4503.461426,4390.0,4483.077148,4523.589844,4362.692383,4548.077148,4403.461426,4477.692383,4513.461426,4556.538574,4399.487305,4382.307617,4506.153809,4539.102539,4520.897461,4476.025879,4370.128418,4368.333496,4555.0,4510.897461,4490.384766,4372.307617,4546.282227,4365.641113,4544.743652,4492.820313,4376.794922,4495.256348,4474.487305,2268.0,0.0,14.0,2565.0,37673.0,,,,0.0,4.0,4.0,4.0,4.0,4.0,4.0,4.0,4.0,4.0,4.0,4.0,4.0,4.0,4.0,4.0,4.0,4.0,4.0,4.0,4.0,4.0,4.0,4.0,4.0,4.0,4.0,4.0,4.0,4.0,4.0,4.0,4.0,100.0,,,,,,,,,,,,,,,,,,,,,,,,,,,,,,,,,,,,,,,,,,,,,,,,,,,,,,,,,,,,,,,,,,,,,,,,,,,,,,,,,,,,,,,,,,,,,,,,,,,,,,,,,,,,,,,,,,,,,,,,,,,,,,,,,,,,,,,,,,,,,,,,,,,,,,,,,,,,,,,,,,,,,,,,,,,,,,,,,,,,,,,,,,,,,,,,,,,,,,,,,,,,,,
1763975431.411113,4579.0,0.0,4372.692383,4378.589844,4468.589844,4486.922852,4379.615234,4472.307617,4505.256348,4347.05127,4533.333496,4387.820313,4458.461426,4494.871582,4534.615234,4381.410156,4365.256348,4480.769043,4518.333496,4498.461426,4458.589844,4352.05127,4349.871582,4532.436035,4490.0,4472.436035,4350.641113,4525.384766,4345.0,4525.512695,4472.94873,4360.128418,4480.384766,4459.358887,2955.0,0.0,14.0,2565.0,37673.0,,,,0.0,4.0,4.0,4.0,4.0,4.0,4.0,4.0,4.0,4.0,4.0,4.0,4.0,4.0,4.0,4.0,4.0,4.0,4.0,4.0,4.0,4.0,4.0,4.0,4.0,4.0,4.0,4.0,4.0,4.0,4.0,4.0,4.0,100.0,,,,,,,,,,,,,,,,,,,,,,,,,,,,,,,,,,,,,,,,,,,,,,,,,,,,,,,,,,,,,,,,,,,,,,,,,,,,,,,,,,,,,,,,,,,,,,,,,,,,,,,,,,,,,,,,,,,,,,,,,,,,,,,,,,,,,,,,,,,,,,,,,,,,,,,,,,,,,,,,,,,,,,,,,,,,,,,,,,,,,,,,,,,,,,,,,,,,,,,,,,,,,,
1763975431.415019,4580.0,0.0,4372.563965,4379.487305,4474.871582,4490.512695,4384.230957,4479.230957,4504.743652,4349.230957,4535.512695,4372.563965,4456.922852,4493.205078,4530.256348,4376.666504,4359.102539,4472.179688,4515.128418,4495.897461,4467.179688,4349.358887,4352.307617,4532.820313,4490.256348,4473.205078,4347.692383,4525.128418,4342.692383,4523.077148,4473.717773,4359.358887,4483.333496,4460.384766,2865.0,0.0,14.0,2562.0,37681.0,,,,0.0,4.0,4.0,4.0,4.0,4.0,4.0,4.0,4.0,4.0,4.0,4.0,4.0,4.0,4.0,4.0,4.0,4.0,4.0,4.0,4.0,4.0,4.0,4.0,4.0,4.0,4.0,4.0,4.0,4.0,4.0,4.0,4.0,100.0,,,,,,,,,,,,,,,,,,,,,,,,,,,,,,,,,,,,,,,,,,,,,,,,,,,,,,,,,,,,,,,,,,,,,,,,,,,,,,,,,,,,,,,,,,,,,,,,,,,,,,,,,,,,,,,,,,,,,,,,,,,,,,,,,,,,,,,,,,,,,,,,,,,,,,,,,,,,,,,,,,,,,,,,,,,,,,,,,,,,,,,,,,,,,,,,,,,,,,,,,,,,,,
1763975431.418925,4581.0,0.0,4390.0,4397.179688,4499.358887,4512.820313,4401.538574,4500.897461,4522.563965,4367.436035,4554.487305,4373.077148,4473.589844,4508.333496,4543.974121,4387.307617,4366.538574,4485.769043,4530.384766,4515.256348,4495.641113,4364.871582,4373.974121,4554.871582,4511.153809,4491.922852,4366.666504,4547.436035,4360.769043,4538.461426,4494.230957,4375.769043,4503.589844,4478.974121,2406.0,0.0,14.0,2562.0,37681.0,,,,0.0,4.0,4.0,4.0,4.0,4.0,4.0,4.0,4.0,4.0,4.0,4.0,4.0,4.0,4.0,4.0,4.0,4.0,4.0,4.0,4.0,4.0,4.0,4.0,4.0,4.0,4.0,4.0,4.0,4.0,4.0,4.0,4.0,100.0,,,,,,,,,,,,,,,,,,,,,,,,,,,,,,,,,,,33913.0,0.0,0.478465,0.293579,0.209351,0.800659,0.899036,-0.463435,0.039067,35.833332,-20.666666,-24.166666,,,,,,,,,,,,,,,,,,,,,,,,,,,,,,,,,,,,,,,,,,,,,,,,,,,,,,,,,,,,,,,,,,,,,,,,,,,,,,,,,,,,,,,,,,,,,,,,,,,,,,,,,,,,,,,,,,,,,,,,,,,,,,,,,,,,,,,,,,,,,,,,,,,,,,,,,,,,,,,,
1763975431.422831,4582.0,0.0,4415.512695,4422.563965,4530.128418,4542.563965,4422.179688,4527.05127,4549.487305,4392.307617,4581.410156,4395.384766,4499.230957,4531.922852,4567.692383,4407.05127,4384.615234,4516.153809,4555.512695,4548.846191,4528.589844,4392.307617,4403.461426,4585.384766,4540.384766,4518.205078,4398.077148,4581.282227,4390.897461,4563.846191,4523.974121,4401.410156,4531.794922,4507.563965,2974.0,0.0,14.0,2563.0,37689.0,,,,0.0,4.0,4.0,4.0,4.0,4.0,4.0,4.0,4.0,4.0,4.0,4.0,4.0,4.0,4.0,4.0,4.0,4.0,4.0,4.0,4.0,4.0,4.0,4.0,4.0,4.0,4.0,4.0,4.0,4.0,4.0,4.0,4.0,100.0,,,,,,,,,,,,,,,,,,,,,,,,,,,,,,,,,,,,,,,,,,,,,,,,,,,,,,,,,,,,,,,,,,,,,,,,,,,,,,,,,,,,,,,,,,,,,,,,,,,,,,,,,,,,,,,,,,,,,,,,,,,,,,,,,,,,,,,,,,,,,,,,,,,,,,,,,,,,,,,,,,,,,,,,,,,,,,,,,,,,,,,,,,,,,,,,,,,,,,,,,,,,,,
1763975431.426736,4583.0,0.0,4435.769043,4442.94873,4552.307617,4564.487305,4435.0,4545.512695,4571.410156,4411.794922,4603.333496,4428.846191,4520.897461,4551.282227,4589.102539,4425.256348,4404.102539,4549.230957,4577.179688,4581.410156,4551.153809,4417.820313,4426.538574,4608.461426,4562.563965,4538.846191,4425.641113,4608.974121,4418.077148,4586.410156,4547.820313,4423.589844,4555.128418,4533.205078,2959.0,0.0,14.0,2563.0,37689.0,,,,0.0,4.0,4.0,4.0,4.0,4.0,4.0,4.0,4.0,4.0,4.0,4.0,4.0,4.0,4.0,4.0,4.0,4.0,4.0,4.0,4.0,4.0,4.0,4.0,4.0,4.0,4.0,4.0,4.0,4.0,4.0,4.0,4.0,100.0,,,,,,,,,,,,,,,,,,,,,,,,,,,,,,,,,,,,,,,,,,,,,,,,,,,,,,,,,,,,,,,,,,,,,,,,,,,,,,,,,,,,,,,,,,,,,,,,,,,,,,,,,,,,,,,,,,,,,,,,,,,,,,,,,,,,,,,,,,,,,,,,,,,,,,,,,,,,,,,,,,,,,,,,,,,,,,,,,,,,,,,,,,,,,,,,,,,,,,,,,,,,,,
1763975431.430642,4584.0,0.0,4440.512695,4448.589844,4556.538574,4568.974121,4434.358887,4548.974121,4577.179688,4417.820313,4610.0,4451.794922,4528.717773,4556.922852,4598.077148,4432.05127,4414.487305,4568.077148,4584.871582,4597.94873,4555.769043,4428.717773,4433.589844,4614.102539,4567.307617,4544.871582,4435.512695,4617.436035,4429.743652,4596.025879,4555.256348,4432.05127,4563.205078,4543.974121,2649.0,0.0,14.0,2564.0,37696.0,,,,0.0,4.0,4.0,4.0,4.0,4.0,4.0,4.0,4.0,4.0,4.0,4.0,4.0,4.0,4.0,4.0,4.0,4.0,4.0,4.0,4.0,4.0,4.0,4.0,4.0,4.0,4.0,4.0,4.0,4.0,4.0,4.0,4.0,100.0,,,,,,,,,,,,,,,,,,,,,,,,,,,,,,,,,,,,,,,,,,,,,,,3.212946,9.23567,6.758471,4.828775,7.160034,3.937778,3.648441,5.585676,5.456333,6.778489,3.643134,2.808054,6.410291,6.887721,7.41648,3.847359,2.342469,5.827299,5.887292,7.586942,3.095884,2.230829,4.498426,4.342893,5.181905,3.889716,2.829917,3.463781,3.01846,5.045906,2.997928,6.347174,4.569046,5.024579,7.896588,3.27335,1.878387,6.050768,5.609921,8.485697,3.240253,1.841712,4.07598,5.352041,7.432767,2.09795,3.166705,4.332591,12.173625,9.840596,1.360963,4.019363,3.037874,3.956941,7.12791,3.271596,15.467951,5.584038,4.809868,7.490249,3.144694,18.776003,4.493106,4.525586,8.97788,0.367139,2.358592,1.433476,3.214548,7.350546,0.420501,1.993457,3.252659,4.747965,8.46124,3.222043,7.535282,4.255674,6.048164,14.43118,2.920287,30.163713,6.497474,3.982957,7.519881,1.884607,9.356666,5.542728,6.042054,11.69096,1.990453,8.43514,7.760372,5.497049,9.719968,2.599487,5.376262,6.769681,7.697417,8.560743,2.417071,7.473878,6.707065,5.970362,7.988932,2.733954,27.193733,8.667969,5.755689,8.896428,3.668271,20.069609,8.464449,6.105928,8.659434,2.108392,10.278989,6.864165,5.754233,8.403285,4.69925,6.85325,6.897449,8.261415,8.162031,3.9979,4.406437,5.864364,7.34993,8.015638,5.130677,5.971736,7.167667,6.676998,8.182612,4.495874,10.042985,6.966636,6.267244,8.402231,5.246198,6.036674,6.702548,5.532612,7.165926,5.46486,4.648253,6.44523,6.279862,7.329333,5.401364,5.495773,6.941734,7.256549,8.357652,4.942217,3.848566,6.904803,7.06209,7.297796
1763975431.434548,4585.0,0.0,4428.461426,4438.846191,4543.974121,4556.538574,4422.436035,4538.461426,4565.641113,4409.615234,4599.743652,4447.436035,4521.025879,4547.179688,4590.897461,4424.230957,4410.0,4561.922852,4575.769043,4591.153809,4543.846191,4420.641113,4423.974121,4602.436035,4554.230957,4535.512695,4425.384766,4605.897461,4422.820313,4589.230957,4545.128418,4425.0,4554.871582,4536.282227,2835.0,0.0,14.0,2564.0,37696.0,,,,0.0,4.0,4.0,4.0,4.0,4.0,4.0,4.0,4.0,4.0,4.0,4.0,4.0,4.0,4.0,4.0,4.0,4.0,4.0,4.0,4.0,4.0,4.0,4.0,4.0,4.0,4.0,4.0,4.0,4.0,4.0,4.0,4.0,100.0,,,,,,,,,,,,,,,,,,,,,,,,,,,,,,,,,,,33914.0,0.0,0.478566,0.293457,0.20929,0.800659,0.88292,-0.448785,0.059578,37.333332,-19.166666,-27.166666,,,,,,,,,,,,,,,,,,,,,,,,,,,,,,,,,,,,,,,,,,,,,,,,,,,,,,,,,,,,,,,,,,,,,,,,,,,,,,,,,,,,,,,,,,,,,,,,,,,,,,,,,,,,,,,,,,,,,,,,,,,,,,,,,,,,,,,,,,,,,,,,,,,,,,,,,,,,,,,,
1763975431.438454,4586.0,0.0,4407.436035,4421.538574,4523.333496,4536.538574,4407.05127,4522.05127,4544.871582,4393.333496,4579.871582,4416.794922,4503.717773,4528.461426,4572.692383,4406.410156,4393.205078,4533.077148,4555.769043,4566.153809,4523.333496,4400.769043,4405.256348,4581.410156,4531.922852,4517.94873,4403.461426,4584.358887,4404.102539,4570.897461,4525.0,4409.102539,4536.922852,4516.153809,2662.0,0.0,14.0,2565.0,37704.0,,,,0.0,4.0,4.0,4.0,4.0,4.0,4.0,4.0,4.0,4.0,4.0,4.0,4.0,4.0,4.0,4.0,4.0,4.0,4.0,4.0,4.0,4.0,4.0,4.0,4.0,4.0,4.0,4.0,4.0,4.0,4.0,4.0,4.0,100.0,,,,,,,,,,,,,,,,,,,,,,,,,,,,,,,,,,,,,,,,,,,,,,,,,,,,,,,,,,,,,,,,,,,,,,,,,,,,,,,,,,,,,,,,,,,,,,,,,,,,,,,,,,,,,,,,,,,,,,,,,,,,,,,,,,,,,,,,,,,,,,,,,,,,,,,,,,,,,,,,,,,,,,,,,,,,,,,,,,,,,,,,,,,,,,,,,,,,,,,,,,,,,,
1763975431.44236,4587.0,0.0,4388.589844,4406.666504,4505.128418,4519.743652,4396.282227,4508.974121,4526.538574,4377.692383,4562.307617,4378.077148,4486.538574,4510.384766,4553.333496,4388.333496,4373.717773,4496.410156,4535.384766,4537.05127,4503.333496,4381.666504,4386.922852,4561.282227,4511.153809,4501.025879,4382.563965,4566.025879,4384.615234,4550.0,4505.769043,4394.230957,4519.230957,4494.743652,2992.0,0.0,14.0,2565.0,37704.0,,,,0.0,4.0,4.0,4.0,4.0,4.0,4.0,4.0,4.0,4.0,4.0,4.0,4.0,4.0,4.0,4.0,4.0,4.0,4.0,4.0,4.0,4.0,4.0,4.0,4.0,4.0,4.0,4.0,4.0,4.0,4.0,4.0,4.0,100.0,,,,,,,,,,,,,,,,,,,,,,,,,,,,,,,,,,,,,,,,,,,,,,,,,,,,,,,,,,,,,,,,,,,,,,,,,,,,,,,,,,,,,,,,,,,,,,,,,,,,,,,,,,,,,,,,,,,,,,,,,,,,,,,,,,,,,,,,,,,,,,,,,,,,,,,,,,,,,,,,,,,,,,,,,,,,,,,,,,,,,,,,,,,,,,,,,,,,,,,,,,,,,,
1763975431.446265,4588.0,0.0,4380.384766,4400.256348,4496.410156,4513.333496,4393.846191,4504.358887,4518.974121,4369.743652,4555.769043,4353.333496,4477.307617,4500.897461,4541.794922,4378.974121,4362.179688,4471.153809,4523.461426,4518.846191,4490.897461,4373.589844,4375.641113,4549.102539,4499.358887,4490.384766,4370.897461,4557.563965,4372.563965,4535.384766,4495.384766,4386.922852,4508.205078,4481.410156,2940.0,0.0,14.0,2561.0,37712.0,,,,0.0,4.0,4.0,4.0,4.0,4.0,4.0,4.0,4.0,4.0,4.0,4.0,4.0,4.0,4.0,4.0,4.0,4.0,4.0,4.0,4.0,4.0,4.0,4.0,4.0,4.0,4.0,4.0,4.0,4.0,4.0,4.0,4.0,100.0,,,,,,,,,,,,,,,,,,,,,,,,,,,,,,,,,,,,,,,,,,,,,,,,,,,,,,,,,,,,,,,,,,,,,,,,,,,,,,,,,,,,,,,,,,,,,,,,,,,,,,,,,,,,,,,,,,,,,,,,,,,,,,,,,,,,,,,,,,,,,,,,,,,,,,,,,,,,,,,,,,,,,,,,,,,,,,,,,,,,,,,,,,,,,,,,,,,,,,,,,,,,,,
1763975431.450171,4589.0,0.0,4383.205078,4401.794922,4497.436035,4516.922852,4398.077148,4507.563965,4522.307617,4371.282227,4560.897461,4353.077148,4477.563965,4501.410156,4541.922852,4381.538574,4363.589844,4468.846191,4522.563965,4518.205078,4488.717773,4377.05127,4372.692383,4547.05127,4497.563965,4486.666504,4368.846191,4556.922852,4368.974121,4530.641113,4495.128418,4387.179688,4504.358887,4479.358887,2714.0,0.0,14.0,2561.0,37712.0,,,,0.0,4.0,4.0,4.0,4.0,4.0,4.0,4.0,4.0,4.0,4.0,4.0,4.0,4.0,4.0,4.0,4.0,4.0,4.0,4.0,4.0,4.0,4.0,4.0,4.0,4.0,4.0,4.0,4.0,4.0,4.0,4.0,4.0,100.0,,,,,,,,,,,,,,,,,,,,,,,,,,,,,,,,,,,33915.0,0.0,0.478325,0.29364,0.209351,0.80072,0.899036,-0.454645,0.057136,36.5,-21.666666,-25.5,,,,,,,,,,,,,,,,,,,,,,,,,,,,,,,,,,,,,,,,,,,,,,,,,,,,,,,,,,,,,,,,,,,,,,,,,,,,,,,,,,,,,,,,,,,,,,,,,,,,,,,,,,,,,,,,,,,,,,,,,,,,,,,,,,,,,,,,,,,,,,,,,,,,,,,,,,,,,,,,
1763975431.454077,4590.0,0.0,4390.384766,4405.384766,4503.077148,4523.974121,4402.563965,4511.922852,4529.615234,4377.307617,4570.256348,4371.922852,4482.820313,4506.666504,4549.615234,4390.128418,4373.333496,4485.769043,4528.205078,4529.871582,4493.974121,4383.846191,4374.230957,4550.641113,4501.410156,4486.282227,4371.410156,4557.179688,4369.743652,4533.077148,4500.128418,4389.615234,4503.333496,4484.230957,2721.0,0.0,14.0,2562.0,37720.0,,,,0.0,4.0,4.0,4.0,4.0,4.0,4.0,4.0,4.0,4.0,4.0,4.0,4.0,4.0,4.0,4.0,4.0,4.0,4.0,4.0,4.0,4.0,4.0,4.0,4.0,4.0,4.0,4.0,4.0,4.0,4.0,4.0,4.0,100.0,,,,,,,,,,,,,,,,,,,,,,,,,,,,,,,,,,,,,,,,,,,,,,,,,,,,,,,,,,,,,,,,,,,,,,,,,,,,,,,,,,,,,,,,,,,,,,,,,,,,,,,,,,,,,,,,,,,,,,,,,,,,,,,,,,,,,,,,,,,,,,,,,,,,,,,,,,,,,,,,,,,,,,,,,,,,,,,,,,,,,,,,,,,,,,,,,,,,,,,,,,,,,,
1763975431.457983,4591.0,0.0,4392.05127,4403.717773,4505.0,4525.641113,4401.282227,4510.256348,4531.666504,4378.589844,4573.333496,4393.461426,4485.384766,4508.846191,4555.512695,4394.487305,4380.128418,4505.769043,4532.05127,4540.384766,4499.102539,4383.846191,4374.102539,4552.307617,4503.077148,4483.974121,4371.922852,4552.179688,4368.589844,4535.512695,4502.436035,4387.307617,4500.256348,4487.94873,2839.0,0.0,14.0,2562.0,37720.0,,,,0.0,4.0,4.0,4.0,4.0,4.0,4.0,4.0,4.0,4.0,4.0,4.0,4.0,4.0,4.0,4.0,4.0,4.0,4.0,4.0,4.0,4.0,4.0,4.0,4.0,4.0,4.0,4.0,4.0,4.0,4.0,4.0,4.0,100.0,,,,,,,,,,,,,,,,,,,,,,,,,,,,,,,,,,,,,,,,,,,,,,,,,,,,,,,,,,,,,,,,,,,,,,,,,,,,,,,,,,,,,,,,,,,,,,,,,,,,,,,,,,,,,,,,,,,,,,,,,,,,,,,,,,,,,,,,,,,,,,,,,,,,,,,,,,,,,,,,,,,,,,,,,,,,,,,,,,,,,,,,,,,,,,,,,,,,,,,,,,,,,,
1763975431.461888,4592.0,0.0,4383.974121,4394.358887,4498.846191,4517.94873,4392.436035,4500.897461,4524.743652,4370.0,4564.487305,4402.563965,4480.769043,4503.717773,4553.205078,4387.820313,4375.384766,4512.94873,4528.974121,4539.230957,4496.794922,4373.717773,4368.974121,4546.666504,4498.077148,4477.692383,4367.692383,4542.179688,4363.205078,4532.563965,4497.05127,4377.94873,4494.487305,4485.128418,2940.0,0.0,14.0,2563.0,37728.0,,,,0.0,4.0,4.0,4.0,4.0,4.0,4.0,4.0,4.0,4.0,4.0,4.0,4.0,4.0,4.0,4.0,4.0,4.0,4.0,4.0,4.0,4.0,4.0,4.0,4.0,4.0,4.0,4.0,4.0,4.0,4.0,4.0,4.0,100.0,,,,,,,,,,,,,,,,,,,,,,,,,,,,,,,,,,,,,,,,,,,,,,,,,,,,,,,,,,,,,,,,,,,,,,,,,,,,,,,,,,,,,,,,,,,,,,,,,,,,,,,,,,,,,,,,,,,,,,,,,,,,,,,,,,,,,,,,,,,,,,,,,,,,,,,,,,,,,,,,,,,,,,,,,,,,,,,,,,,,,,,,,,,,,,,,,,,,,,,,,,,,,,
1763975431.465794,4593.0,0.0,4371.794922,4383.589844,4488.974121,4505.897461,4382.436035,4490.641113,4514.358887,4355.897461,4549.102539,4395.769043,4472.436035,4496.153809,4545.641113,4374.487305,4361.794922,4505.0,4521.922852,4528.205078,4488.205078,4360.897461,4361.922852,4537.563965,4491.025879,4471.794922,4363.205078,4534.615234,4358.717773,4526.794922,4488.077148,4368.333496,4491.666504,4479.487305,3067.0,0.0,14.0,2563.0,37728.0,,,,0.0,4.0,4.0,4.0,4.0,4.0,4.0,4.0,4.0,4.0,4.0,4.0,4.0,4.0,4.0,4.0,4.0,4.0,4.0,4.0,4.0,4.0,4.0,4.0,4.0,4.0,4.0,4.0,4.0,4.0,4.0,4.0,4.0,100.0,,,,,,,,,,,,,,,,,,,,,,,,,,,,,,,,,,,33916.0,0.0,0.478197,0.293884,0.209534,0.800659,0.883409,-0.45318,0.055671,36.666668,-17.5,-25.0,,,,,,,,,,,,,,,,,,,,,,,,,,,,,,,,,,,,,,,,,,,,,,,,,,,,,,,,,,,,,,,,,,,,,,,,,,,,,,,,,,,,,,,,,,,,,,,,,,,,,,,,,,,,,,,,,,,,,,,,,,,,,,,,,,,,,,,,,,,,,,,,,,,,,,,,,,,,,,,,
1763975431.4697,4594.0,0.0,4369.358887,4382.692383,4485.897461,4501.025879,4381.666504,4490.0,4512.94873,4349.743652,4540.256348,4382.563965,4470.897461,4497.94873,4544.487305,4368.077148,4352.820313,4495.0,4521.666504,4520.0,4484.615234,4358.077148,4361.794922,4536.666504,4493.205078,4475.384766,4367.179688,4539.358887,4363.717773,4528.205078,4486.666504,4369.871582,4499.230957,4480.384766,2819.0,0.0,14.0,2564.0,37735.0,,,,0.0,4.0,4.0,4.0,4.0,4.0,4.0,4.0,4.0,4.0,4.0,4.0,4.0,4.0,4.0,4.0,4.0,4.0,4.0,4.0,4.0,4.0,4.0,4.0,4.0,4.0,4.0,4.0,4.0,4.0,4.0,4.0,4.0,100.0,,,,,,,,,,,,,,,,,,,,,,,,,,,,,,,,,,,,,,,,,,,,,,,,,,,,,,,,,,,,,,,,,,,,,,,,,,,,,,,,,,,,,,,,,,,,,,,,,,,,,,,,,,,,,,,,,,,,,,,,,,,,,,,,,,,,,,,,,,,,,,,,,,,,,,,,,,,,,,,,,,,,,,,,,,,,,,,,,,,,,,,,,,,,,,,,,,,,,,,,,,,,,,
1763975431.473606,4595.0,0.0,4385.641113,4398.333496,4496.922852,4511.410156,4395.641113,4504.230957,4529.102539,4361.538574,4548.205078,4376.538574,4484.102539,4516.282227,4559.487305,4378.717773,4360.897461,4498.333496,4536.666504,4526.794922,4496.922852,4372.05127,4375.384766,4553.205078,4512.820313,4493.589844,4384.871582,4558.846191,4382.05127,4544.487305,4501.025879,4387.94873,4518.717773,4494.102539,3020.0,0.0,14.0,2564.0,37735.0,,,,0.0,4.0,4.0,4.0,4.0,4.0,4.0,4.0,4.0,4.0,4.0,4.0,4.0,4.0,4.0,4.0,4.0,4.0,4.0,4.0,4.0,4.0,4.0,4.0,4.0,4.0,4.0,4.0,4.0,4.0,4.0,4.0,4.0,100.0,,,,,,,,,,,,,,,,,,,,,,,,,,,,,,,,,,,,,,,,,,,,,,,,,,,,,,,,,,,,,,,,,,,,,,,,,,,,,,,,,,,,,,,,,,,,,,,,,,,,,,,,,,,,,,,,,,,,,,,,,,,,,,,,,,,,,,,,,,,,,,,,,,,,,,,,,,,,,,,,,,,,,,,,,,,,,,,,,,,,,,,,,,,,,,,,,,,,,,,,,,,,,,
1763975431.477511,4596.0,0.0,4416.538574,4425.384766,4518.461426,4533.974121,4419.487305,4526.538574,4559.102539,4388.205078,4571.410156,4384.358887,4509.615234,4546.794922,4588.461426,4403.974121,4385.128418,4518.205078,4564.743652,4548.974121,4524.743652,4396.282227,4399.871582,4584.487305,4545.384766,4521.410156,4411.153809,4585.769043,4407.692383,4572.94873,4528.077148,4415.769043,4542.436035,4516.538574,3005.0,0.0,14.0,2565.0,37743.0,,,,0.0,4.0,4.0,4.0,4.0,4.0,4.0,4.0,4.0,4.0,4.0,4.0,4.0,4.0,4.0,4.0,4.0,4.0,4.0,4.0,4.0,4.0,4.0,4.0,4.0,4.0,4.0,4.0,4.0,4.0,4.0,4.0,4.0,100.0,,,,,,,,,,,,,,,,,,,,,,,,,,,,,,,,,,,,,,,,,,,,,,,,,,,,,,,,,,,,,,,,,,,,,,,,,,,,,,,,,,,,,,,,,,,,,,,,,,,,,,,,,,,,,,,,,,,,,,,,,,,,,,,,,,,,,,,,,,,,,,,,,,,,,,,,,,,,,,,,,,,,,,,,,,,,,,,,,,,,,,,,,,,,,,,,,,,,,,,,,,,,,,
1763975431.481417,4597.0,0.0,4446.666504,4449.615234,4539.230957,4556.410156,4440.641113,4543.974121,4588.205078,4415.0,4597.05127,4403.205078,4534.743652,4575.128418,4617.692383,4429.871582,4411.666504,4542.563965,4593.717773,4574.615234,4554.743652,4416.410156,4423.846191,4616.410156,4576.282227,4546.410156,4433.461426,4607.307617,4428.461426,4601.282227,4554.102539,4438.974121,4560.0,4536.410156,2926.0,0.0,14.0,2565.0,37743.0,,,,0.0,4.0,4.0,4.0,4.0,4.0,4.0,4.0,4.0,4.0,4.0,4.0,4.0,4.0,4.0,4.0,4.0,4.0,4.0,4.0,4.0,4.0,4.0,4.0,4.0,4.0,4.0,4.0,4.0,4.0,4.0,4.0,4.0,100.0,,,,,,,,,,,,,,,,,,,,,,,,,,,,,,,,,,,33917.0,0.0,0.478003,0.293701,0.209534,0.800842,0.876572,-0.449274,0.066414,35.833332,-18.166666,-26.166666,,,,,,,,,,,,,,,,,,,,,,,,,,,,,,,,,,,,,,,,,,,,,,,,,,,,,,,,,,,,,,,,,,,,,,,,,,,,,,,,,,,,,,,,,,,,,,,,,,,,,,,,,,,,,,,,,,,,,,,,,,,,,,,,,,,,,,,,,,,,,,,,,,,,,,,,,,,,,,,,
1763975431.485323,4598.0,0.0,4462.179688,4460.256348,4549.871582,4567.820313,4449.358887,4547.05127,4602.692383,4428.461426,4612.692383,4425.256348,4547.692383,4588.589844,4633.589844,4443.205078,4425.769043,4556.538574,4610.897461,4590.384766,4571.538574,4423.461426,4436.666504,4635.256348,4592.307617,4559.102539,4442.436035,4616.538574,4437.563965,4618.333496,4566.794922,4448.077148,4566.538574,4545.769043,3001.0,0.0,14.0,2566.0,37751.0,,,,0.0,4.0,4.0,4.0,4.0,4.0,4.0,4.0,4.0,4.0,4.0,4.0,4.0,4.0,4.0,4.0,4.0,4.0,4.0,4.0,4.0,4.0,4.0,4.0,4.0,4.0,4.0,4.0,4.0,4.0,4.0,4.0,4.0,100.0,,,,,,,,,,,,,,,,,,,,,,,,,,,,,,,,,,,,,,,,,,,,,,,,,,,,,,,,,,,,,,,,,,,,,,,,,,,,,,,,,,,,,,,,,,,,,,,,,,,,,,,,,,,,,,,,,,,,,,,,,,,,,,,,,,,,,,,,,,,,,,,,,,,,,,,,,,,,,,,,,,,,,,,,,,,,,,,,,,,,,,,,,,,,,,,,,,,,,,,,,,,,,,
1763975431.489229,4599.0,0.0,4461.282227,4457.692383,4550.512695,4567.436035,4445.512695,4537.692383,4600.897461,4426.153809,4615.384766,4443.846191,4546.410156,4585.512695,4633.205078,4442.307617,4423.974121,4556.282227,4613.461426,4592.692383,4570.641113,4420.512695,4436.922852,4638.205078,4592.436035,4560.256348,4439.358887,4616.538574,4437.692383,4622.179688,4565.0,4445.897461,4566.538574,4546.410156,2938.0,0.0,14.0,2566.0,37751.0,,,,0.0,4.0,4.0,4.0,4.0,4.0,4.0,4.0,4.0,4.0,4.0,4.0,4.0,4.0,4.0,4.0,4.0,4.0,4.0,4.0,4.0,4.0,4.0,4.0,4.0,4.0,4.0,4.0,4.0,4.0,4.0,4.0,4.0,100.0,,,,,,,,,,,,,,,,,,,,,,,,,,,,,,,,,,,,,,,,,,,,,,,,,,,,,,,,,,,,,,,,,,,,,,,,,,,,,,,,,,,,,,,,,,,,,,,,,,,,,,,,,,,,,,,,,,,,,,,,,,,,,,,,,,,,,,,,,,,,,,,,,,,,,,,,,,,,,,,,,,,,,,,,,,,,,,,,,,,,,,,,,,,,,,,,,,,,,,,,,,,,,,
1763975431.493135,4600.0,0.0,4453.333496,4451.282227,4547.820313,4563.077148,4437.436035,4526.153809,4591.922852,4417.692383,4612.05127,4453.846191,4539.230957,4575.641113,4624.871582,4435.769043,4415.769043,4551.282227,4608.333496,4589.230957,4560.897461,4418.461426,4432.05127,4633.717773,4586.282227,4558.846191,4434.230957,4615.897461,4437.436035,4619.615234,4558.205078,4442.692383,4568.077148,4546.025879,2875.0,0.0,14.0,2567.0,37759.0,,,,0.0,4.0,4.0,4.0,4.0,4.0,4.0,4.0,4.0,4.0,4.0,4.0,4.0,4.0,4.0,4.0,4.0,4.0,4.0,4.0,4.0,4.0,4.0,4.0,4.0,4.0,4.0,4.0,4.0,4.0,4.0,4.0,4.0,100.0,,,,,,,,,,,,,,,,,,,,,,,,,,,,,,,,,,,,,,,,,,,,,,,,,,,,,,,,,,,,,,,,,,,,,,,,,,,,,,,,,,,,,,,,,,,,,,,,,,,,,,,,,,,,,,,,,,,,,,,,,,,,,,,,,,,,,,,,,,,,,,,,,,,,,,,,,,,,,,,,,,,,,,,,,,,,,,,,,,,,,,,,,,,,,,,,,,,,,,,,,,,,,,
1763975431.49704,4601.0,0.0,4448.974121,4449.743652,4547.820313,4562.820313,4433.589844,4521.025879,4586.538574,4413.717773,4610.769043,4452.307617,4535.384766,4569.743652,4619.230957,4434.102539,4412.563965,4553.974121,4604.615234,4590.256348,4556.025879,4423.974121,4431.153809,4632.436035,4584.102539,4562.179688,4436.025879,4619.358887,4441.410156,4618.205078,4555.769043,4445.897461,4574.102539,4549.230957,2851.0,0.0,14.0,2567.0,37759.0,,,,0.0,4.0,4.0,4.0,4.0,4.0,4.0,4.0,4.0,4.0,4.0,4.0,4.0,4.0,4.0,4.0,4.0,4.0,4.0,4.0,4.0,4.0,4.0,4.0,4.0,4.0,4.0,4.0,4.0,4.0,4.0,4.0,4.0,100.0,,,,,,,,,,,,,,,,,,,,,,,,,,,,,,,,,,,33918.0,0.0,0.477853,0.293945,0.209534,0.800842,0.880967,-0.469784,0.061531,36.666668,-19.5,-27.0,,,,,,,,,,,,,,,,,,,,,,,,,,,,,,,,,,,,,,,,,,,,,,,,,,,,,,,,,,,,,,,,,,,,,,,,,,,,,,,,,,,,,,,,,,,,,,,,,,,,,,,,,,,,,,,,,,,,,,,,,,,,,,,,,,,,,,,,,,,,,,,,,,,,,,,,,,,,,,,,
1763975431.500946,4602.0,0.0,4450.641113,4453.205078,4549.743652,4566.794922,4435.256348,4522.820313,4587.179688,4416.794922,4612.307617,4439.230957,4536.666504,4570.897461,4619.871582,4439.615234,4417.436035,4568.077148,4605.641113,4598.846191,4560.897461,4433.589844,4436.153809,4637.179688,4587.820313,4569.102539,4444.102539,4623.846191,4446.153809,4618.974121,4558.974121,4452.820313,4579.615234,4553.077148,2778.0,0.0,14.0,2568.0,37767.0,,,,0.0,4.0,4.0,4.0,4.0,4.0,4.0,4.0,4.0,4.0,4.0,4.0,4.0,4.0,4.0,4.0,4.0,4.0,4.0,4.0,4.0,4.0,4.0,4.0,4.0,4.0,4.0,4.0,4.0,4.0,4.0,4.0,4.0,100.0,,,,,,,,,,,,,,,,,,,,,,,,,,,,,,,,,,,,,,,,,,,,,,,,,,,,,,,,,,,,,,,,,,,,,,,,,,,,,,,,,,,,,,,,,,,,,,,,,,,,,,,,,,,,,,,,,,,,,,,,,,,,,,,,,,,,,,,,,,,,,,,,,,,,,,,,,,,,,,,,,,,,,,,,,,,,,,,,,,,,,,,,,,,,,,,,,,,,,,,,,,,,,,
1763975431.504852,4603.0,0.0,4451.794922,4455.256348,4548.461426,4568.974121,4437.436035,4525.256348,4587.563965,4420.384766,4610.769043,4419.358887,4537.436035,4573.333496,4621.025879,4445.384766,4423.461426,4585.512695,4606.794922,4607.820313,4567.94873,4437.05127,4440.897461,4641.282227,4591.153809,4572.179688,4449.358887,4622.05127,4444.230957,4617.307617,4560.897461,4454.358887,4577.05127,4550.641113,3004.0,0.0,14.0,2568.0,37767.0,,,,0.0,4.0,4.0,4.0,4.0,4.0,4.0,4.0,4.0,4.0,4.0,4.0,4.0,4.0,4.0,4.0,4.0,4.0,4.0,4.0,4.0,4.0,4.0,4.0,4.0,4.0,4.0,4.0,4.0,4.0,4.0,4.0,4.0,100.0,,,,,,,,,,,,,,,,,,,,,,,,,,,,,,,,,,,,,,,,,,,,,,,,,,,,,,,,,,,,,,,,,,,,,,,,,,,,,,,,,,,,,,,,,,,,,,,,,,,,,,,,,,,,,,,,,,,,,,,,,,,,,,,,,,,,,,,,,,,,,,,,,,,,,,,,,,,,,,,,,,,,,,,,,,,,,,,,,,,,,,,,,,,,,,,,,,,,,,,,,,,,,,
1763975431.508758,4604.0,0.0,4444.487305,4449.487305,4539.615234,4563.077148,4434.102539,4521.922852,4580.384766,4416.282227,4602.05127,4402.307617,4530.897461,4568.717773,4613.846191,4442.563965,4421.666504,4592.820313,4601.153809,4606.794922,4563.717773,4427.05127,4437.179688,4635.384766,4585.769043,4564.615234,4443.461426,4610.641113,4431.666504,4608.205078,4554.487305,4444.358887,4563.974121,4539.230957,2949.0,0.0,14.0,2569.0,37774.0,,,,0.0,4.0,4.0,4.0,4.0,4.0,4.0,4.0,4.0,4.0,4.0,4.0,4.0,4.0,4.0,4.0,4.0,4.0,4.0,4.0,4.0,4.0,4.0,4.0,4.0,4.0,4.0,4.0,4.0,4.0,4.0,4.0,4.0,100.0,,,,,,,,,,,,,,,,,,,,,,,,,,,,,,,,,,,,,,,,,,,,,,,,,,,,,,,,,,,,,,,,,,,,,,,,,,,,,,,,,,,,,,,,,,,,,,,,,,,,,,,,,,,,,,,,,,,,,,,,,,,,,,,,,,,,,,,,,,,,,,,,,,,,,,,,,,,,,,,,,,,,,,,,,,,,,,,,,,,,,,,,,,,,,,,,,,,,,,,,,,,,,,
1763975431.512663,4605.0,0.0,4427.436035,4435.0,4524.743652,4548.974121,4424.102539,4511.538574,4564.102539,4402.563965,4588.077148,4397.05127,4515.641113,4553.974121,4594.743652,4427.436035,4408.717773,4580.384766,4585.128418,4589.102539,4542.179688,4404.487305,4422.307617,4615.512695,4568.589844,4546.025879,4425.512695,4592.563965,4411.282227,4591.025879,4538.205078,4423.974121,4544.615234,4521.666504,2829.0,0.0,14.0,2569.0,37774.0,,,,0.0,4.0,4.0,4.0,4.0,4.0,4.0,4.0,4.0,4.0,4.0,4.0,4.0,4.0,4.0,4.0,4.0,4.0,4.0,4.0,4.0,4.0,4.0,4.0,4.0,4.0,4.0,4.0,4.0,4.0,4.0,4.0,4.0,100.0,,,,,,,,,,,,,,,,,,,,,,,,,,,,,,,,,,,33919.0,0.0,0.477739,0.293884,0.209412,0.800964,0.880967,-0.469784,0.061531,36.5,-19.166666,-24.333334,,,,,,,,,,,,,,,,,,,,,,,,,,,,,,,,,,,,,,,,,,,,,,,,,,,,,,,,,,,,,,,,,,,,,,,,,,,,,,,,,,,,,,,,,,,,,,,,,,,,,,,,,,,,,,,,,,,,,,,,,,,,,,,,,,,,,,,,,,,,,,,,,,,,,,,,,,,,,,,,
1763975431.516569,4606.0,0.0,4405.384766,4415.512695,4508.077148,4530.897461,4410.0,4497.307617,4542.820313,4383.717773,4574.743652,4403.077148,4496.666504,4532.05127,4567.820313,4404.102539,4388.077148,4547.307617,4560.897461,4557.307617,4509.358887,4378.461426,4399.615234,4586.153809,4543.461426,4521.410156,4401.922852,4574.102539,4389.487305,4569.102539,4516.666504,4400.128418,4525.128418,4503.717773,3010.0,0.0,14.0,2564.0,37782.0,,,,0.0,4.0,4.0,4.0,4.0,4.0,4.0,4.0,4.0,4.0,4.0,4.0,4.0,4.0,4.0,4.0,4.0,4.0,4.0,4.0,4.0,4.0,4.0,4.0,4.0,4.0,4.0,4.0,4.0,4.0,4.0,4.0,4.0,100.0,,,,,,,,,,,,,,,,,,,,,,,,,,,,,,,,,,,,,,,,,,,,,,,,,,,,,,,,,,,,,,,,,,,,,,,,,,,,,,,,,,,,,,,,,,,,,,,,,,,,,,,,,,,,,,,,,,,,,,,,,,,,,,,,,,,,,,,,,,,,,,,,,,,,,,,,,,,,,,,,,,,,,,,,,,,,,,,,,,,,,,,,,,,,,,,,,,,,,,,,,,,,,,
1763975431.520475,4607.0,0.0,4385.0,4395.512695,4493.205078,4513.717773,4395.641113,4483.717773,4523.077148,4367.05127,4565.769043,4409.230957,4480.384766,4509.230957,4540.256348,4380.256348,4366.153809,4501.538574,4534.615234,4520.769043,4479.615234,4358.461426,4376.538574,4556.794922,4516.922852,4497.436035,4379.871582,4558.974121,4371.153809,4547.179688,4495.769043,4379.230957,4508.974121,4488.846191,2933.0,0.0,14.0,2564.0,37782.0,,,,0.0,4.0,4.0,4.0,4.0,4.0,4.0,4.0,4.0,4.0,4.0,4.0,4.0,4.0,4.0,4.0,4.0,4.0,4.0,4.0,4.0,4.0,4.0,4.0,4.0,4.0,4.0,4.0,4.0,4.0,4.0,4.0,4.0,100.0,,,,,,,,,,,,,,,,,,,,,,,,,,,,,,,,,,,,,,,,,,,,,,,,,,,,,,,,,,,,,,,,,,,,,,,,,,,,,,,,,,,,,,,,,,,,,,,,,,,,,,,,,,,,,,,,,,,,,,,,,,,,,,,,,,,,,,,,,,,,,,,,,,,,,,,,,,,,,,,,,,,,,,,,,,,,,,,,,,,,,,,,,,,,,,,,,,,,,,,,,,,,,,
1763975431.524381,4608.0,0.0,4370.897461,4379.358887,4481.922852,4501.410156,4384.743652,4474.743652,4509.615234,4357.820313,4561.025879,4404.230957,4471.282227,4491.666504,4519.230957,4363.974121,4349.487305,4456.538574,4512.692383,4491.410156,4465.256348,4350.128418,4360.0,4536.282227,4496.282227,4479.615234,4363.717773,4547.94873,4358.205078,4529.615234,4479.615234,4365.512695,4497.05127,4478.333496,2850.0,0.0,14.0,2560.0,37790.0,,,,0.0,4.0,4.0,4.0,4.0,4.0,4.0,4.0,4.0,4.0,4.0,4.0,4.0,4.0,4.0,4.0,4.0,4.0,4.0,4.0,4.0,4.0,4.0,4.0,4.0,4.0,4.0,4.0,4.0,4.0,4.0,4.0,4.0,100.0,,,,,,,,,,,,,,,,,,,,,,,,,,,,,,,,,,,,,,,,,,,,,,,,,,,,,,,,,,,,,,,,,,,,,,,,,,,,,,,,,,,,,,,,,,,,,,,,,,,,,,,,,,,,,,,,,,,,,,,,,,,,,,,,,,,,,,,,,,,,,,,,,,,,,,,,,,,,,,,,,,,,,,,,,,,,,,,,,,,,,,,,,,,,,,,,,,,,,,,,,,,,,,
1763975431.528287,4609.0,0.0,4366.025879,4371.410156,4477.436035,4497.307617,4380.769043,4472.820313,4505.769043,4357.94873,4560.384766,4389.358887,4471.538574,4484.487305,4510.0,4360.384766,4343.846191,4427.179688,4501.410156,4479.487305,4470.384766,4354.743652,4355.897461,4530.641113,4487.563965,4472.692383,4356.153809,4543.461426,4352.820313,4521.153809,4472.179688,4361.922852,4491.282227,4474.487305,2869.0,0.0,14.0,2560.0,37790.0,,,,0.0,4.0,4.0,4.0,4.0,4.0,4.0,4.0,4.0,4.0,4.0,4.0,4.0,4.0,4.0,4.0,4.0,4.0,4.0,4.0,4.0,4.0,4.0,4.0,4.0,4.0,4.0,4.0,4.0,4.0,4.0,4.0,4.0,100.0,,,,,,,,,,,,,,,,,,,,,,,,,,,,,,,,,,,33920.0,0.0,0.477524,0.294067,0.209412,0.801025,0.880479,-0.45904,0.061531,35.5,-21.5,-25.333334,,,,,,,,,,,,,,,,,,,,,,,,,,,,,,,,,,,,,,,,,,,,,,,,,,,,,,,,,,,,,,,,,,,,,,,,,,,,,,,,,,,,,,,,,,,,,,,,,,,,,,,,,,,,,,,,,,,,,,,,,,,,,,,,,,,,,,,,,,,,,,,,,,,,,,,,,,,,,,,,
1763975431.532192,4610.0,0.0,4372.05127,4375.256348,4483.077148,4504.871582,4386.666504,4479.615234,4513.333496,4367.820313,4566.025879,4377.94873,4481.922852,4490.128418,4515.897461,4370.897461,4352.94873,4424.358887,4504.743652,4488.846191,4489.358887,4370.384766,4366.282227,4539.743652,4493.461426,4478.717773,4359.358887,4549.358887,4358.077148,4525.769043,4476.282227,4370.384766,4495.897461,4481.025879,2287.0,0.0,14.0,1536.0,37798.0,,,,0.0,4.0,4.0,4.0,4.0,4.0,4.0,4.0,4.0,4.0,4.0,4.0,4.0,4.0,4.0,4.0,4.0,4.0,4.0,4.0,4.0,4.0,4.0,4.0,4.0,4.0,4.0,4.0,4.0,4.0,4.0,4.0,4.0,100.0,,,,,,,,,,,,,,,,,,,,,,,,,,,,,,,,,,,,,,,,,,,,,,,,,,,,,,,,,,,,,,,,,,,,,,,,,,,,,,,,,,,,,,,,,,,,,,,,,,,,,,,,,,,,,,,,,,,,,,,,,,,,,,,,,,,,,,,,,,,,,,,,,,,,,,,,,,,,,,,,,,,,,,,,,,,,,,,,,,,,,,,,,,,,,,,,,,,,,,,,,,,,,,
1763975431.536098,4611.0,0.0,4386.794922,4389.871582,4498.974121,4522.820313,4400.256348,4493.461426,4529.871582,4384.743652,4579.487305,4382.05127,4499.615234,4506.153809,4535.0,4391.538574,4374.358887,4448.461426,4520.512695,4514.102539,4508.974121,4390.641113,4385.384766,4557.307617,4510.384766,4493.846191,4372.436035,4565.769043,4373.717773,4541.410156,4490.769043,4388.846191,4511.794922,4497.179688,2979.0,0.0,14.0,1536.0,37798.0,,,,0.0,4.0,4.0,4.0,4.0,4.0,4.0,4.0,4.0,4.0,4.0,4.0,4.0,4.0,4.0,4.0,4.0,4.0,4.0,4.0,4.0,4.0,4.0,4.0,4.0,4.0,4.0,4.0,4.0,4.0,4.0,4.0,4.0,100.0,,,,,,,,,,,,,,,,,,,,,,,,,,,,,,,,,,,,,,,,,,,,,,,,,,,,,,,,,,,,,,,,,,,,,,,,,,,,,,,,,,,,,,,,,,,,,,,,,,,,,,,,,,,,,,,,,,,,,,,,,,,,,,,,,,,,,,,,,,,,,,,,,,,,,,,,,,,,,,,,,,,,,,,,,,,,,,,,,,,,,,,,,,,,,,,,,,,,,,,,,,,,,,
1763975431.540004,4612.0,0.0,4402.307617,4407.179688,4517.179688,4542.692383,4413.717773,4508.589844,4547.05127,4401.538574,4595.641113,4397.692383,4516.794922,4523.717773,4557.820313,4412.436035,4397.179688,4486.538574,4538.846191,4540.384766,4516.538574,4405.0,4400.897461,4570.897461,4527.436035,4508.461426,4387.94873,4583.846191,4391.410156,4558.589844,4507.692383,4408.205078,4530.769043,4515.128418,2885.0,0.0,14.0,768.0,37806.0,,,,0.0,4.0,4.0,4.0,4.0,4.0,4.0,4.0,4.0,4.0,4.0,4.0,4.0,4.0,4.0,4.0,4.0,4.0,4.0,4.0,4.0,4.0,4.0,4.0,4.0,4.0,4.0,4.0,4.0,4.0,4.0,4.0,4.0,100.0,,,,,,,,,,,,,,,,,,,,,,,,,,,,,,,,,,,,,,,,,,,,,,,,,,,,,,,,,,,,,,,,,,,,,,,,,,,,,,,,,,,,,,,,,,,,,,,,,,,,,,,,,,,,,,,,,,,,,,,,,,,,,,,,,,,,,,,,,,,,,,,,,,,,,,,,,,,,,,,,,,,,,,,,,,,,,,,,,,,,,,,,,,,,,,,,,,,,,,,,,,,,,,
1763975431.54391,4613.0,0.0,4408.589844,4416.025879,4525.128418,4551.025879,4416.922852,4516.794922,4554.358887,4408.333496,4603.974121,4408.589844,4523.333496,4531.153809,4571.538574,4421.922852,4407.05127,4517.05127,4547.05127,4550.769043,4506.153809,4403.589844,4400.256348,4569.230957,4531.794922,4510.641113,4394.615234,4589.615234,4398.333496,4563.846191,4515.897461,4415.769043,4538.717773,4522.05127,2423.0,0.0,14.0,768.0,37806.0,,,,0.0,4.0,4.0,4.0,4.0,4.0,4.0,4.0,4.0,4.0,4.0,4.0,4.0,4.0,4.0,4.0,4.0,4.0,4.0,4.0,4.0,4.0,4.0,4.0,4.0,4.0,4.0,4.0,4.0,4.0,4.0,4.0,4.0,100.0,,,,,,,,,,,,,,,,,,,,,,,,,,,,,,,,,,,33921.0,0.0,0.47745,0.294312,0.209473,0.800964,0.908802,-0.446344,0.057624,35.5,-21.5,-25.333334,,,,,,,,,,,,,,,,,,,,,,,,,,,,,,,,,,,,,,,,,,,,,,,,,,,,,,,,,,,,,,,,,,,,,,,,,,,,,,,,,,,,,,,,,,,,,,,,,,,,,,,,,,,,,,,,,,,,,,,,,,,,,,,,,,,,,,,,,,,,,,,,,,,,,,,,,,,,,,,,
1763975431.547815,4614.0,0.0,4399.102539,4408.461426,4513.846191,4538.589844,4404.871582,4512.563965,4545.769043,4398.205078,4595.512695,4400.384766,4513.205078,4521.794922,4567.05127,4413.205078,4395.512695,4521.794922,4538.077148,4537.05127,4481.794922,4383.974121,4379.102539,4548.846191,4516.922852,4494.871582,4384.102539,4574.358887,4385.769043,4549.487305,4507.563965,4403.717773,4525.897461,4509.615234,2993.0,0.0,14.0,768.0,37814.0,,,,0.0,4.0,4.0,4.0,4.0,4.0,4.0,4.0,4.0,4.0,4.0,4.0,4.0,4.0,4.0,4.0,4.0,4.0,4.0,4.0,4.0,4.0,4.0,4.0,4.0,4.0,4.0,4.0,4.0,4.0,4.0,4.0,4.0,100.0,,,,,,,,,,,,,,,,,,,,,,,,,,,,,,,,,,,,,,,,,,,,,,,,,,,,,,,,,,,,,,,,,,,,,,,,,,,,,,,,,,,,,,,,,,,,,,,,,,,,,,,,,,,,,,,,,,,,,,,,,,,,,,,,,,,,,,,,,,,,,,,,,,,,,,,,,,,,,,,,,,,,,,,,,,,,,,,,,,,,,,,,,,,,,,,,,,,,,,,,,,,,,,
1763975431.551721,4615.0,0.0,4377.436035,4387.179688,4486.410156,4509.102539,4382.563965,4497.820313,4524.743652,4373.461426,4571.153809,4375.256348,4490.256348,4499.487305,4547.05127,4389.487305,4366.410156,4498.974121,4516.025879,4506.025879,4454.358887,4354.743652,4346.025879,4517.692383,4488.717773,4467.179688,4358.974121,4543.461426,4357.820313,4520.384766,4485.256348,4376.282227,4497.05127,4482.179688,2977.0,0.0,14.0,768.0,37814.0,,,,0.0,4.0,4.0,4.0,4.0,4.0,4.0,4.0,4.0,4.0,4.0,4.0,4.0,4.0,4.0,4.0,4.0,4.0,4.0,4.0,4.0,4.0,4.0,4.0,4.0,4.0,4.0,4.0,4.0,4.0,4.0,4.0,4.0,100.0,,,,,,,,,,,,,,,,,,,,,,,,,,,,,,,,,,,,,,,,,,,,,,,,,,,,,,,,,,,,,,,,,,,,,,,,,,,,,,,,,,,,,,,,,,,,,,,,,,,,,,,,,,,,,,,,,,,,,,,,,,,,,,,,,,,,,,,,,,,,,,,,,,,,,,,,,,,,,,,,,,,,,,,,,,,,,,,,,,,,,,,,,,,,,,,,,,,,,,,,,,,,,,
1763975431.555627,4616.0,0.0,4356.922852,4365.256348,4458.589844,4479.487305,4363.461426,4482.05127,4504.230957,4347.307617,4544.487305,4351.922852,4467.307617,4478.205078,4525.512695,4364.743652,4336.282227,4464.615234,4495.384766,4476.538574,4437.05127,4332.179688,4318.205078,4492.563965,4463.717773,4442.94873,4333.333496,4515.641113,4331.538574,4493.333496,4462.436035,4350.0,4470.512695,4456.538574,2666.0,0.0,14.0,256.0,37821.0,,,,0.0,4.0,4.0,4.0,4.0,4.0,4.0,4.0,4.0,4.0,4.0,4.0,4.0,4.0,4.0,4.0,4.0,4.0,4.0,4.0,4.0,4.0,4.0,4.0,4.0,4.0,4.0,4.0,4.0,4.0,4.0,4.0,4.0,100.0,,,,,,,,,,,,,,,,,,,,,,,,,,,,,,,,,,,,,,,,,,,,,,,3.959375,9.283579,6.113486,4.618327,7.135913,4.64315,3.056324,4.528199,4.976647,6.793658,4.417964,2.318151,5.478711,6.187708,7.397397,4.520588,1.986471,4.786888,5.25092,7.416249,3.640179,1.924972,3.887078,3.969021,5.169234,4.271774,2.995975,2.907266,2.84759,4.976414,3.471128,6.075556,4.049795,4.668375,7.851514,3.511483,1.818885,4.888802,5.236927,8.231281,3.681319,1.73781,3.393677,4.562045,7.281438,2.386836,3.63114,3.968466,11.963033,10.808826,1.63697,4.721143,2.730761,3.735413,7.252524,3.648767,16.236744,4.955537,4.608198,7.462726,3.134396,19.643801,4.062796,4.433699,8.976416,0.295963,2.146119,1.365095,3.06247,7.418905,0.365175,1.657128,2.893149,4.284972,8.380028,3.188208,6.122947,3.702177,6.18461,14.579103,3.213463,30.721628,6.157416,3.851658,7.605216,1.74948,9.421554,5.007248,5.690392,11.894581,1.958334,8.151628,7.849735,5.392412,10.215672,2.687159,5.028197,5.996514,6.759495,8.144671,2.325682,7.057809,6.319539,5.278196,7.980955,2.710919,29.161957,8.156069,5.427507,9.042521,4.169842,20.842829,7.68278,5.804683,8.680112,2.362584,10.231511,6.40138,5.273224,8.245511,5.183303,5.528451,6.421735,7.286237,7.920635,4.54099,3.375401,5.268474,6.562741,7.796665,5.955666,4.857016,6.08427,6.251768,8.009872,5.223137,9.556003,6.265168,5.841472,8.369086,6.167628,5.42168,5.760724,5.17154,7.19266,6.33145,3.708788,5.469557,5.969255,7.310254,6.149078,4.453107,5.929234,6.748069,8.273565,5.730964,3.064332,6.106706,6.59259,7.317899
1763975431.559533,4617.0,0.0,4353.333496,4359.102539,4450.512695,4470.256348,4361.794922,4478.205078,4499.102539,4337.05127,4534.102539,4352.307617,4460.256348,4474.102539,4520.256348,4355.512695,4324.615234,4444.358887,4492.436035,4468.461426,4440.128418,4330.769043,4313.589844,4491.025879,4460.0,4439.615234,4325.897461,4511.153809,4326.282227,4486.922852,4455.641113,4343.461426,4466.282227,4451.922852,2853.0,0.0,14.0,256.0,37821.0,,,,0.0,4.0,4.0,4.0,4.0,4.0,4.0,4.0,4.0,4.0,4.0,4.0,4.0,4.0,4.0,4.0,4.0,4.0,4.0,4.0,4.0,4.0,4.0,4.0,4.0,4.0,4.0,4.0,4.0,4.0,4.0,4.0,4.0,100.0,,,,,,,,,,,,,,,,,,,,,,,,,,,,,,,,,,,33922.0,0.0,0.477352,0.294434,0.20929,0.801025,0.886827,-0.469296,0.061531,36.333332,-21.0,-26.666666,,,,,,,,,,,,,,,,,,,,,,,,,,,,,,,,,,,,,,,,,,,,,,,,,,,,,,,,,,,,,,,,,,,,,,,,,,,,,,,,,,,,,,,,,,,,,,,,,,,,,,,,,,,,,,,,,,,,,,,,,,,,,,,,,,,,,,,,,,,,,,,,,,,,,,,,,,,,,,,,
1763975431.563438,4618.0,0.0,4373.717773,4376.666504,4471.794922,4490.641113,4382.05127,4493.461426,4517.436035,4352.692383,4550.0,4384.358887,4476.794922,4494.487305,4540.512695,4370.128418,4341.410156,4455.256348,4514.743652,4490.256348,4466.794922,4354.230957,4338.077148,4519.615234,4485.128418,4463.717773,4346.922852,4537.179688,4349.615234,4509.615234,4473.205078,4364.102539,4491.025879,4475.256348,2682.0,0.0,14.0,512.0,37829.0,,,,0.0,4.0,4.0,4.0,4.0,4.0,4.0,4.0,4.0,4.0,4.0,4.0,4.0,4.0,4.0,4.0,4.0,4.0,4.0,4.0,4.0,4.0,4.0,4.0,4.0,4.0,4.0,4.0,4.0,4.0,4.0,4.0,4.0,100.0,,,,,,,,,,,,,,,,,,,,,,,,,,,,,,,,,,,,,,,,,,,,,,,,,,,,,,,,,,,,,,,,,,,,,,,,,,,,,,,,,,,,,,,,,,,,,,,,,,,,,,,,,,,,,,,,,,,,,,,,,,,,,,,,,,,,,,,,,,,,,,,,,,,,,,,,,,,,,,,,,,,,,,,,,,,,,,,,,,,,,,,,,,,,,,,,,,,,,,,,,,,,,,
1763975431.567344,4619.0,0.0,4410.0,4409.615234,4512.820313,4530.897461,4414.743652,4522.94873,4552.692383,4388.461426,4585.256348,4432.692383,4509.871582,4531.282227,4579.230957,4401.922852,4378.974121,4495.0,4554.615234,4532.563965,4508.205078,4391.794922,4381.666504,4568.333496,4529.358887,4506.025879,4389.102539,4580.512695,4390.128418,4551.666504,4508.077148,4401.153809,4532.563965,4514.487305,3004.0,0.0,14.0,512.0,37829.0,,,,0.0,4.0,4.0,4.0,4.0,4.0,4.0,4.0,4.0,4.0,4.0,4.0,4.0,4.0,4.0,4.0,4.0,4.0,4.0,4.0,4.0,4.0,4.0,4.0,4.0,4.0,4.0,4.0,4.0,4.0,4.0,4.0,4.0,100.0,,,,,,,,,,,,,,,,,,,,,,,,,,,,,,,,,,,,,,,,,,,,,,,,,,,,,,,,,,,,,,,,,,,,,,,,,,,,,,,,,,,,,,,,,,,,,,,,,,,,,,,,,,,,,,,,,,,,,,,,,,,,,,,,,,,,,,,,,,,,,,,,,,,,,,,,,,,,,,,,,,,,,,,,,,,,,,,,,,,,,,,,,,,,,,,,,,,,,,,,,,,,,,
1763975431.57125,4620.0,0.0,4443.333496,4438.846191,4550.128418,4567.820313,4441.794922,4552.05127,4586.538574,4424.487305,4619.615234,4467.820313,4541.282227,4565.256348,4616.538574,4432.563965,4416.538574,4542.307617,4593.589844,4574.615234,4547.179688,4423.589844,4422.692383,4614.615234,4570.0,4545.128418,4430.384766,4616.922852,4425.384766,4591.025879,4541.025879,4432.820313,4567.563965,4546.794922,2959.0,0.0,14.0,768.0,37837.0,,,,0.0,4.0,4.0,4.0,4.0,4.0,4.0,4.0,4.0,4.0,4.0,4.0,4.0,4.0,4.0,4.0,4.0,4.0,4.0,4.0,4.0,4.0,4.0,4.0,4.0,4.0,4.0,4.0,4.0,4.0,4.0,4.0,4.0,100.0,,,,,,,,,,,,,,,,,,,,,,,,,,,,,,,,,,,,,,,,,,,,,,,,,,,,,,,,,,,,,,,,,,,,,,,,,,,,,,,,,,,,,,,,,,,,,,,,,,,,,,,,,,,,,,,,,,,,,,,,,,,,,,,,,,,,,,,,,,,,,,,,,,,,,,,,,,,,,,,,,,,,,,,,,,,,,,,,,,,,,,,,,,,,,,,,,,,,,,,,,,,,,,
1763975431.575156,4621.0,0.0,4457.179688,4448.077148,4563.717773,4581.538574,4449.358887,4565.641113,4600.897461,4441.025879,4633.717773,4468.077148,4553.846191,4579.102539,4633.846191,4445.769043,4433.974121,4572.307617,4613.461426,4597.179688,4566.922852,4434.615234,4442.436035,4638.461426,4587.94873,4562.563965,4448.846191,4628.077148,4437.692383,4608.461426,4554.230957,4442.05127,4578.077148,4555.256348,2724.0,0.0,14.0,768.0,37837.0,,,,0.0,4.0,4.0,4.0,4.0,4.0,4.0,4.0,4.0,4.0,4.0,4.0,4.0,4.0,4.0,4.0,4.0,4.0,4.0,4.0,4.0,4.0,4.0,4.0,4.0,4.0,4.0,4.0,4.0,4.0,4.0,4.0,4.0,100.0,,,,,,,,,,,,,,,,,,,,,,,,,,,,,,,,,,,33923.0,0.0,0.477352,0.294434,0.20929,0.801025,0.919546,-0.455622,0.051764,35.333332,-18.833334,-24.666666,,,,,,,,,,,,,,,,,,,,,,,,,,,,,,,,,,,,,,,,,,,,,,,,,,,,,,,,,,,,,,,,,,,,,,,,,,,,,,,,,,,,,,,,,,,,,,,,,,,,,,,,,,,,,,,,,,,,,,,,,,,,,,,,,,,,,,,,,,,,,,,,,,,,,,,,,,,,,,,,
1763975431.579062,4622.0,0.0,4448.589844,4436.025879,4550.641113,4569.358887,4437.820313,4559.230957,4591.282227,4432.692383,4622.94873,4436.922852,4543.974121,4569.358887,4626.282227,4437.820313,4426.025879,4574.230957,4609.230957,4595.512695,4562.307617,4424.358887,4437.05127,4634.743652,4580.0,4555.256348,4439.230957,4614.358887,4426.794922,4600.769043,4544.358887,4428.461426,4564.102539,4541.410156,2735.0,0.0,14.0,1024.0,37845.0,,,,0.0,4.0,4.0,4.0,4.0,4.0,4.0,4.0,4.0,4.0,4.0,4.0,4.0,4.0,4.0,4.0,4.0,4.0,4.0,4.0,4.0,4.0,4.0,4.0,4.0,4.0,4.0,4.0,4.0,4.0,4.0,4.0,4.0,100.0,,,,,,,,,,,,,,,,,,,,,,,,,,,,,,,,,,,,,,,,,,,,,,,,,,,,,,,,,,,,,,,,,,,,,,,,,,,,,,,,,,,,,,,,,,,,,,,,,,,,,,,,,,,,,,,,,,,,,,,,,,,,,,,,,,,,,,,,,,,,,,,,,,,,,,,,,,,,,,,,,,,,,,,,,,,,,,,,,,,,,,,,,,,,,,,,,,,,,,,,,,,,,,
1763975431.582967,4623.0,0.0,4429.230957,4415.641113,4526.025879,4545.384766,4419.615234,4541.153809,4568.589844,4410.384766,4599.102539,4398.974121,4523.717773,4547.436035,4604.615234,4418.974121,4403.717773,4557.307617,4590.769043,4580.128418,4543.333496,4405.512695,4418.077148,4615.897461,4559.358887,4536.153809,4414.615234,4592.05127,4406.794922,4580.769043,4524.358887,4407.436035,4540.897461,4521.025879,2847.0,0.0,14.0,1024.0,37845.0,,,,0.0,4.0,4.0,4.0,4.0,4.0,4.0,4.0,4.0,4.0,4.0,4.0,4.0,4.0,4.0,4.0,4.0,4.0,4.0,4.0,4.0,4.0,4.0,4.0,4.0,4.0,4.0,4.0,4.0,4.0,4.0,4.0,4.0,100.0,,,,,,,,,,,,,,,,,,,,,,,,,,,,,,,,,,,,,,,,,,,,,,,,,,,,,,,,,,,,,,,,,,,,,,,,,,,,,,,,,,,,,,,,,,,,,,,,,,,,,,,,,,,,,,,,,,,,,,,,,,,,,,,,,,,,,,,,,,,,,,,,,,,,,,,,,,,,,,,,,,,,,,,,,,,,,,,,,,,,,,,,,,,,,,,,,,,,,,,,,,,,,,
1763975431.586873,4624.0,0.0,4415.0,4403.205078,4508.846191,4528.205078,4408.717773,4526.153809,4550.128418,4391.282227,4579.487305,4379.358887,4508.974121,4530.384766,4585.641113,4404.102539,4385.0,4542.05127,4574.230957,4568.333496,4528.077148,4393.077148,4402.94873,4600.512695,4544.615234,4522.692383,4395.384766,4578.846191,4394.615234,4566.538574,4511.666504,4396.282227,4525.512695,4510.641113,2958.0,0.0,14.0,1280.0,37853.0,,,,0.0,4.0,4.0,4.0,4.0,4.0,4.0,4.0,4.0,4.0,4.0,4.0,4.0,4.0,4.0,4.0,4.0,4.0,4.0,4.0,4.0,4.0,4.0,4.0,4.0,4.0,4.0,4.0,4.0,4.0,4.0,4.0,4.0,100.0,,,,,,,,,,,,,,,,,,,,,,,,,,,,,,,,,,,,,,,,,,,,,,,,,,,,,,,,,,,,,,,,,,,,,,,,,,,,,,,,,,,,,,,,,,,,,,,,,,,,,,,,,,,,,,,,,,,,,,,,,,,,,,,,,,,,,,,,,,,,,,,,,,,,,,,,,,,,,,,,,,,,,,,,,,,,,,,,,,,,,,,,,,,,,,,,,,,,,,,,,,,,,,
1763975431.590779,4625.0,0.0,4414.743652,4405.512695,4508.589844,4526.666504,4410.641113,4524.102539,4546.794922,4386.282227,4575.128418,4385.0,4508.333496,4528.461426,4580.128418,4401.922852,4380.641113,4542.307617,4570.384766,4569.871582,4528.974121,4394.358887,4402.179688,4600.256348,4545.641113,4524.230957,4393.589844,4581.538574,4397.307617,4567.563965,4515.128418,4401.153809,4525.0,4514.743652,3072.0,0.0,14.0,1280.0,37853.0,,,,0.0,4.0,4.0,4.0,4.0,4.0,4.0,4.0,4.0,4.0,4.0,4.0,4.0,4.0,4.0,4.0,4.0,4.0,4.0,4.0,4.0,4.0,4.0,4.0,4.0,4.0,4.0,4.0,4.0,4.0,4.0,4.0,4.0,100.0,,,,,,,,,,,,,,,,,,,,,,,,,,,,,,,,,,,33924.0,0.0,0.477326,0.294556,0.209412,0.800964,0.899524,-0.45904,0.064949,36.5,-19.666666,-24.333334,,,,,,,,,,,,,,,,,,,,,,,,,,,,,,,,,,,,,,,,,,,,,,,,,,,,,,,,,,,,,,,,,,,,,,,,,,,,,,,,,,,,,,,,,,,,,,,,,,,,,,,,,,,,,,,,,,,,,,,,,,,,,,,,,,,,,,,,,,,,,,,,,,,,,,,,,,,,,,,,
1763975431.594685,4626.0,0.0,4425.128418,4417.692383,4520.256348,4536.410156,4419.871582,4534.102539,4556.538574,4393.974121,4583.205078,4401.794922,4517.692383,4538.974121,4586.153809,4410.0,4389.358887,4555.128418,4577.692383,4581.025879,4544.358887,4406.153809,4413.461426,4612.820313,4558.205078,4536.282227,4405.512695,4593.077148,4408.461426,4579.871582,4529.871582,4415.256348,4533.589844,4525.512695,2830.0,0.0,14.0,1536.0,37860.0,,,,0.0,4.0,4.0,4.0,4.0,4.0,4.0,4.0,4.0,4.0,4.0,4.0,4.0,4.0,4.0,4.0,4.0,4.0,4.0,4.0,4.0,4.0,4.0,4.0,4.0,4.0,4.0,4.0,4.0,4.0,4.0,4.0,4.0,100.0,,,,,,,,,,,,,,,,,,,,,,,,,,,,,,,,,,,,,,,,,,,,,,,,,,,,,,,,,,,,,,,,,,,,,,,,,,,,,,,,,,,,,,,,,,,,,,,,,,,,,,,,,,,,,,,,,,,,,,,,,,,,,,,,,,,,,,,,,,,,,,,,,,,,,,,,,,,,,,,,,,,,,,,,,,,,,,,,,,,,,,,,,,,,,,,,,,,,,,,,,,,,,,
1763975431.59859,4627.0,0.0,4435.0,4427.307617,4530.384766,4545.0,4426.153809,4546.410156,4567.820313,4403.589844,4591.922852,4409.743652,4525.0,4549.743652,4592.563965,4418.205078,4400.897461,4563.205078,4585.512695,4588.077148,4561.025879,4418.205078,4425.512695,4624.871582,4569.230957,4546.025879,4417.820313,4600.641113,4415.256348,4590.641113,4542.307617,4425.0,4540.128418,4531.282227,3030.0,0.0,14.0,1536.0,37860.0,,,,0.0,4.0,4.0,4.0,4.0,4.0,4.0,4.0,4.0,4.0,4.0,4.0,4.0,4.0,4.0,4.0,4.0,4.0,4.0,4.0,4.0,4.0,4.0,4.0,4.0,4.0,4.0,4.0,4.0,4.0,4.0,4.0,4.0,100.0,,,,,,,,,,,,,,,,,,,,,,,,,,,,,,,,,,,,,,,,,,,,,,,,,,,,,,,,,,,,,,,,,,,,,,,,,,,,,,,,,,,,,,,,,,,,,,,,,,,,,,,,,,,,,,,,,,,,,,,,,,,,,,,,,,,,,,,,,,,,,,,,,,,,,,,,,,,,,,,,,,,,,,,,,,,,,,,,,,,,,,,,,,,,,,,,,,,,,,,,,,,,,,
1763975431.602496,4628.0,0.0,4434.102539,4425.512695,4528.846191,4543.589844,4423.205078,4549.871582,4568.846191,4404.358887,4591.282227,4401.410156,4521.025879,4548.974121,4588.333496,4417.563965,4405.128418,4551.666504,4583.077148,4580.128418,4565.128418,4420.128418,4427.563965,4623.205078,4566.794922,4543.205078,4418.974121,4595.769043,4409.230957,4587.94873,4541.153809,4421.282227,4537.307617,4525.256348,3011.0,0.0,14.0,1792.0,37868.0,,,,0.0,4.0,4.0,4.0,4.0,4.0,4.0,4.0,4.0,4.0,4.0,4.0,4.0,4.0,4.0,4.0,4.0,4.0,4.0,4.0,4.0,4.0,4.0,4.0,4.0,4.0,4.0,4.0,4.0,4.0,4.0,4.0,4.0,100.0,,,,,,,,,,,,,,,,,,,,,,,,,,,,,,,,,,,,,,,,,,,,,,,,,,,,,,,,,,,,,,,,,,,,,,,,,,,,,,,,,,,,,,,,,,,,,,,,,,,,,,,,,,,,,,,,,,,,,,,,,,,,,,,,,,,,,,,,,,,,,,,,,,,,,,,,,,,,,,,,,,,,,,,,,,,,,,,,,,,,,,,,,,,,,,,,,,,,,,,,,,,,,,
1763975431.606402,4629.0,0.0,4420.897461,4412.05127,4516.282227,4532.692383,4412.563965,4541.025879,4556.794922,4393.974121,4580.384766,4387.436035,4506.922852,4534.102539,4571.538574,4407.05127,4399.102539,4521.794922,4568.205078,4558.717773,4553.077148,4408.846191,4417.179688,4605.128418,4549.358887,4527.94873,4407.820313,4580.897461,4392.307617,4570.769043,4525.769043,4405.256348,4526.538574,4510.897461,2935.0,0.0,14.0,1792.0,37868.0,,,,0.0,4.0,4.0,4.0,4.0,4.0,4.0,4.0,4.0,4.0,4.0,4.0,4.0,4.0,4.0,4.0,4.0,4.0,4.0,4.0,4.0,4.0,4.0,4.0,4.0,4.0,4.0,4.0,4.0,4.0,4.0,4.0,4.0,100.0,,,,,,,,,,,,,,,,,,,,,,,,,,,,,,,,,,,33925.0,0.0,0.477325,0.294434,0.209351,0.801025,0.89464,-0.471737,0.061531,37.0,-18.833334,-26.0,,,,,,,,,,,,,,,,,,,,,,,,,,,,,,,,,,,,,,,,,,,,,,,,,,,,,,,,,,,,,,,,,,,,,,,,,,,,,,,,,,,,,,,,,,,,,,,,,,,,,,,,,,,,,,,,,,,,,,,,,,,,,,,,,,,,,,,,,,,,,,,,,,,,,,,,,,,,,,,,
1763975431.610308,4630.0,0.0,4403.077148,4395.512695,4502.307617,4520.128418,4401.666504,4526.153809,4538.846191,4379.615234,4567.179688,4385.769043,4492.563965,4513.717773,4551.282227,4394.487305,4388.077148,4491.538574,4548.205078,4536.666504,4532.820313,4390.512695,4401.794922,4580.128418,4526.666504,4509.871582,4393.333496,4566.410156,4375.641113,4549.230957,4505.897461,4387.563965,4516.410156,4497.692383,3008.0,0.0,14.0,2048.0,37876.0,,,,0.0,4.0,4.0,4.0,4.0,4.0,4.0,4.0,4.0,4.0,4.0,4.0,4.0,4.0,4.0,4.0,4.0,4.0,4.0,4.0,4.0,4.0,4.0,4.0,4.0,4.0,4.0,4.0,4.0,4.0,4.0,4.0,4.0,100.0,,,,,,,,,,,,,,,,,,,,,,,,,,,,,,,,,,,,,,,,,,,,,,,,,,,,,,,,,,,,,,,,,,,,,,,,,,,,,,,,,,,,,,,,,,,,,,,,,,,,,,,,,,,,,,,,,,,,,,,,,,,,,,,,,,,,,,,,,,,,,,,,,,,,,,,,,,,,,,,,,,,,,,,,,,,,,,,,,,,,,,,,,,,,,,,,,,,,,,,,,,,,,,
1763975431.614214,4631.0,0.0,4390.384766,4385.897461,4496.794922,4514.358887,4397.179688,4515.384766,4526.282227,4371.538574,4560.769043,4402.94873,4487.820313,4499.871582,4538.589844,4388.717773,4378.974121,4480.384766,4533.205078,4527.307617,4516.282227,4376.538574,4392.307617,4561.922852,4511.153809,4500.512695,4385.641113,4562.692383,4369.871582,4536.153809,4493.461426,4379.487305,4513.974121,4494.230957,2944.0,0.0,14.0,2048.0,37876.0,,,,0.0,4.0,4.0,4.0,4.0,4.0,4.0,4.0,4.0,4.0,4.0,4.0,4.0,4.0,4.0,4.0,4.0,4.0,4.0,4.0,4.0,4.0,4.0,4.0,4.0,4.0,4.0,4.0,4.0,4.0,4.0,4.0,4.0,100.0,,,,,,,,,,,,,,,,,,,,,,,,,,,,,,,,,,,,,,,,,,,,,,,,,,,,,,,,,,,,,,,,,,,,,,,,,,,,,,,,,,,,,,,,,,,,,,,,,,,,,,,,,,,,,,,,,,,,,,,,,,,,,,,,,,,,,,,,,,,,,,,,,,,,,,,,,,,,,,,,,,,,,,,,,,,,,,,,,,,,,,,,,,,,,,,,,,,,,,,,,,,,,,
1763975431.618119,4632.0,0.0,4388.333496,4387.563965,4502.692383,4518.205078,4401.153809,4514.615234,4526.025879,4375.256348,4565.256348,4427.05127,4494.871582,4498.846191,4538.077148,4392.94873,4376.025879,4492.179688,4528.589844,4533.589844,4511.153809,4375.384766,4394.871582,4558.205078,4509.487305,4503.974121,4388.589844,4572.179688,4377.436035,4537.307617,4493.461426,4384.230957,4520.256348,4500.769043,2891.0,0.0,14.0,2304.0,37884.0,,,,0.0,4.0,4.0,4.0,4.0,4.0,4.0,4.0,4.0,4.0,4.0,4.0,4.0,4.0,4.0,4.0,4.0,4.0,4.0,4.0,4.0,4.0,4.0,4.0,4.0,4.0,4.0,4.0,4.0,4.0,4.0,4.0,4.0,100.0,,,,,,,,,,,,,,,,,,,,,,,,,,,,,,,,,,,,,,,,,,,,,,,,,,,,,,,,,,,,,,,,,,,,,,,,,,,,,,,,,,,,,,,,,,,,,,,,,,,,,,,,,,,,,,,,,,,,,,,,,,,,,,,,,,,,,,,,,,,,,,,,,,,,,,,,,,,,,,,,,,,,,,,,,,,,,,,,,,,,,,,,,,,,,,,,,,,,,,,,,,,,,,
1763975431.622025,4633.0,0.0,4395.128418,4397.307617,4514.615234,4528.461426,4409.871582,4521.538574,4535.641113,4388.205078,4576.282227,4438.205078,4507.563965,4507.692383,4545.0,4402.179688,4378.205078,4513.077148,4532.179688,4546.794922,4515.769043,4387.05127,4406.538574,4566.153809,4517.692383,4514.487305,4397.820313,4587.94873,4391.153809,4547.692383,4502.692383,4395.897461,4529.358887,4510.897461,2863.0,0.0,14.0,2304.0,37884.0,,,,0.0,4.0,4.0,4.0,4.0,4.0,4.0,4.0,4.0,4.0,4.0,4.0,4.0,4.0,4.0,4.0,4.0,4.0,4.0,4.0,4.0,4.0,4.0,4.0,4.0,4.0,4.0,4.0,4.0,4.0,4.0,4.0,4.0,100.0,,,,,,,,,,,,,,,,,,,,,,,,,,,,,,,,,,,33926.0,0.0,0.477131,0.29425,0.209351,0.801208,0.89464,-0.471737,0.061531,38.5,-20.0,-24.666666,,,,,,,,,,,,,,,,,,,,,,,,,,,,,,,,,,,,,,,,,,,,,,,,,,,,,,,,,,,,,,,,,,,,,,,,,,,,,,,,,,,,,,,,,,,,,,,,,,,,,,,,,,,,,,,,,,,,,,,,,,,,,,,,,,,,,,,,,,,,,,,,,,,,,,,,,,,,,,,,
1763975431.625931,4634.0,0.0,4403.205078,4406.153809,4523.205078,4537.563965,4416.666504,4527.94873,4546.282227,4401.153809,4585.128418,4425.512695,4516.282227,4516.666504,4549.871582,4407.692383,4381.153809,4522.820313,4536.410156,4552.307617,4520.641113,4402.307617,4416.794922,4574.487305,4525.256348,4521.153809,4404.615234,4597.820313,4399.743652,4555.641113,4511.794922,4404.102539,4533.333496,4516.153809,2783.0,0.0,14.0,2048.0,37892.0,,,,0.0,4.0,4.0,4.0,4.0,4.0,4.0,4.0,4.0,4.0,4.0,4.0,4.0,4.0,4.0,4.0,4.0,4.0,4.0,4.0,4.0,4.0,4.0,4.0,4.0,4.0,4.0,4.0,4.0,4.0,4.0,4.0,4.0,100.0,,,,,,,,,,,,,,,,,,,,,,,,,,,,,,,,,,,,,,,,,,,,,,,,,,,,,,,,,,,,,,,,,,,,,,,,,,,,,,,,,,,,,,,,,,,,,,,,,,,,,,,,,,,,,,,,,,,,,,,,,,,,,,,,,,,,,,,,,,,,,,,,,,,,,,,,,,,,,,,,,,,,,,,,,,,,,,,,,,,,,,,,,,,,,,,,,,,,,,,,,,,,,,
1763975431.629837,4635.0,0.0,4404.102539,4405.769043,4520.641113,4538.077148,4415.256348,4525.384766,4548.077148,4403.974121,4583.717773,4395.128418,4513.205078,4516.153809,4544.743652,4402.563965,4379.487305,4510.128418,4532.94873,4540.641113,4514.871582,4408.205078,4414.487305,4571.153809,4522.179688,4514.615234,4401.153809,4592.820313,4394.615234,4551.538574,4511.794922,4400.641113,4526.922852,4511.282227,3026.0,0.0,14.0,2048.0,37892.0,,,,0.0,4.0,4.0,4.0,4.0,4.0,4.0,4.0,4.0,4.0,4.0,4.0,4.0,4.0,4.0,4.0,4.0,4.0,4.0,4.0,4.0,4.0,4.0,4.0,4.0,4.0,4.0,4.0,4.0,4.0,4.0,4.0,4.0,100.0,,,,,,,,,,,,,,,,,,,,,,,,,,,,,,,,,,,,,,,,,,,,,,,,,,,,,,,,,,,,,,,,,,,,,,,,,,,,,,,,,,,,,,,,,,,,,,,,,,,,,,,,,,,,,,,,,,,,,,,,,,,,,,,,,,,,,,,,,,,,,,,,,,,,,,,,,,,,,,,,,,,,,,,,,,,,,,,,,,,,,,,,,,,,,,,,,,,,,,,,,,,,,,
1763975431.633742,4636.0,0.0,4393.974121,4394.230957,4506.538574,4527.307617,4404.358887,4511.922852,4537.563965,4392.94873,4570.897461,4366.794922,4498.205078,4502.820313,4529.615234,4387.692383,4371.282227,4480.256348,4518.974121,4513.974121,4495.0,4398.077148,4396.666504,4552.692383,4506.410156,4495.128418,4386.794922,4573.461426,4376.282227,4534.487305,4500.256348,4386.025879,4511.666504,4498.205078,2958.0,0.0,14.0,1024.0,37899.0,,,,0.0,4.0,4.0,4.0,4.0,4.0,4.0,4.0,4.0,4.0,4.0,4.0,4.0,4.0,4.0,4.0,4.0,4.0,4.0,4.0,4.0,4.0,4.0,4.0,4.0,4.0,4.0,4.0,4.0,4.0,4.0,4.0,4.0,100.0,,,,,,,,,,,,,,,,,,,,,,,,,,,,,,,,,,,,,,,,,,,,,,,,,,,,,,,,,,,,,,,,,,,,,,,,,,,,,,,,,,,,,,,,,,,,,,,,,,,,,,,,,,,,,,,,,,,,,,,,,,,,,,,,,,,,,,,,,,,,,,,,,,,,,,,,,,,,,,,,,,,,,,,,,,,,,,,,,,,,,,,,,,,,,,,,,,,,,,,,,,,,,,
1763975431.637648,4637.0,0.0,4377.94873,4378.205078,4488.461426,4510.128418,4389.615234,4493.974121,4521.410156,4374.230957,4554.230957,4358.461426,4479.871582,4484.230957,4513.589844,4372.307617,4361.025879,4452.179688,4500.897461,4486.538574,4470.256348,4376.282227,4372.179688,4527.436035,4486.666504,4472.692383,4368.717773,4550.641113,4355.128418,4514.871582,4483.846191,4369.743652,4496.282227,4485.0,2835.0,0.0,14.0,1024.0,37899.0,,,,0.0,4.0,4.0,4.0,4.0,4.0,4.0,4.0,4.0,4.0,4.0,4.0,4.0,4.0,4.0,4.0,4.0,4.0,4.0,4.0,4.0,4.0,4.0,4.0,4.0,4.0,4.0,4.0,4.0,4.0,4.0,4.0,4.0,100.0,,,,,,,,,,,,,,,,,,,,,,,,,,,,,,,,,,,33927.0,0.0,0.477093,0.294189,0.20929,0.80127,0.895617,-0.454157,0.050299,33.833332,-21.0,-26.166666,,,,,,,,,,,,,,,,,,,,,,,,,,,,,,,,,,,,,,,,,,,,,,,,,,,,,,,,,,,,,,,,,,,,,,,,,,,,,,,,,,,,,,,,,,,,,,,,,,,,,,,,,,,,,,,,,,,,,,,,,,,,,,,,,,,,,,,,,,,,,,,,,,,,,,,,,,,,,,,,
1763975431.641554,4638.0,0.0,4366.666504,4368.589844,4477.179688,4496.922852,4380.128418,4482.05127,4511.538574,4360.0,4545.256348,4373.974121,4470.0,4473.461426,4509.615234,4367.307617,4356.666504,4444.102539,4490.641113,4475.256348,4455.769043,4356.282227,4355.0,4510.769043,4475.512695,4460.641113,4358.205078,4538.589844,4344.487305,4505.512695,4473.205078,4363.717773,4490.897461,4479.871582,3007.0,0.0,14.0,1024.0,37907.0,,,,0.0,4.0,4.0,4.0,4.0,4.0,4.0,4.0,4.0,4.0,4.0,4.0,4.0,4.0,4.0,4.0,4.0,4.0,4.0,4.0,4.0,4.0,4.0,4.0,4.0,4.0,4.0,4.0,4.0,4.0,4.0,4.0,4.0,100.0,,,,,,,,,,,,,,,,,,,,,,,,,,,,,,,,,,,,,,,,,,,,,,,,,,,,,,,,,,,,,,,,,,,,,,,,,,,,,,,,,,,,,,,,,,,,,,,,,,,,,,,,,,,,,,,,,,,,,,,,,,,,,,,,,,,,,,,,,,,,,,,,,,,,,,,,,,,,,,,,,,,,,,,,,,,,,,,,,,,,,,,,,,,,,,,,,,,,,,,,,,,,,,
1763975431.64546,4639.0,0.0,4367.563965,4371.282227,4477.563965,4495.0,4380.897461,4482.563965,4515.0,4358.717773,4550.0,4399.487305,4474.615234,4478.589844,4523.717773,4376.922852,4362.563965,4461.666504,4496.025879,4486.282227,4459.871582,4349.743652,4352.94873,4511.666504,4479.102539,4464.487305,4360.512695,4542.94873,4349.871582,4511.794922,4474.615234,4371.666504,4498.717773,4484.743652,2928.0,0.0,14.0,1024.0,37907.0,,,,0.0,4.0,4.0,4.0,4.0,4.0,4.0,4.0,4.0,4.0,4.0,4.0,4.0,4.0,4.0,4.0,4.0,4.0,4.0,4.0,4.0,4.0,4.0,4.0,4.0,4.0,4.0,4.0,4.0,4.0,4.0,4.0,4.0,100.0,,,,,,,,,,,,,,,,,,,,,,,,,,,,,,,,,,,,,,,,,,,,,,,,,,,,,,,,,,,,,,,,,,,,,,,,,,,,,,,,,,,,,,,,,,,,,,,,,,,,,,,,,,,,,,,,,,,,,,,,,,,,,,,,,,,,,,,,,,,,,,,,,,,,,,,,,,,,,,,,,,,,,,,,,,,,,,,,,,,,,,,,,,,,,,,,,,,,,,,,,,,,,,
1763975431.649365,4640.0,0.0,4378.461426,4381.922852,4485.128418,4503.205078,4388.717773,4492.307617,4527.94873,4368.205078,4563.461426,4414.615234,4488.846191,4495.128418,4549.230957,4395.128418,4374.743652,4492.94873,4512.94873,4511.025879,4476.153809,4357.436035,4361.410156,4525.897461,4492.179688,4477.179688,4370.256348,4556.282227,4364.230957,4526.538574,4484.358887,4385.128418,4512.179688,4493.205078,2848.0,0.0,14.0,1024.0,37915.0,,,,0.0,4.0,4.0,4.0,4.0,4.0,4.0,4.0,4.0,4.0,4.0,4.0,4.0,4.0,4.0,4.0,4.0,4.0,4.0,4.0,4.0,4.0,4.0,4.0,4.0,4.0,4.0,4.0,4.0,4.0,4.0,4.0,4.0,100.0,,,,,,,,,,,,,,,,,,,,,,,,,,,,,,,,,,,,,,,,,,,,,,,,,,,,,,,,,,,,,,,,,,,,,,,,,,,,,,,,,,,,,,,,,,,,,,,,,,,,,,,,,,,,,,,,,,,,,,,,,,,,,,,,,,,,,,,,,,,,,,,,,,,,,,,,,,,,,,,,,,,,,,,,,,,,,,,,,,,,,,,,,,,,,,,,,,,,,,,,,,,,,,
1763975431.653271,4641.0,0.0,4389.358887,4390.641113,4490.512695,4512.94873,4395.384766,4501.666504,4539.102539,4378.333496,4573.333496,4408.589844,4501.282227,4510.512695,4572.179688,4410.384766,4385.256348,4518.974121,4529.615234,4533.461426,4490.512695,4370.384766,4368.846191,4540.897461,4503.333496,4485.897461,4376.153809,4564.102539,4373.333496,4536.794922,4491.794922,4391.153809,4519.230957,4495.769043,2860.0,0.0,14.0,1024.0,37915.0,,,,0.0,4.0,4.0,4.0,4.0,4.0,4.0,4.0,4.0,4.0,4.0,4.0,4.0,4.0,4.0,4.0,4.0,4.0,4.0,4.0,4.0,4.0,4.0,4.0,4.0,4.0,4.0,4.0,4.0,4.0,4.0,4.0,4.0,100.0,,,,,,,,,,,,,,,,,,,,,,,,,,,,,,,,,,,33928.0,0.0,0.47685,0.29425,0.20929,0.801392,0.88585,-0.458552,0.054694,37.666668,-20.0,-24.666666,,,,,,,,,,,,,,,,,,,,,,,,,,,,,,,,,,,,,,,,,,,,,,,,,,,,,,,,,,,,,,,,,,,,,,,,,,,,,,,,,,,,,,,,,,,,,,,,,,,,,,,,,,,,,,,,,,,,,,,,,,,,,,,,,,,,,,,,,,,,,,,,,,,,,,,,,,,,,,,,
1763975431.657177,4642.0,0.0,4392.179688,4390.384766,4488.077148,4516.666504,4395.384766,4503.205078,4540.897461,4381.153809,4572.05127,4389.871582,4504.358887,4515.512695,4582.05127,4415.384766,4389.358887,4528.717773,4537.179688,4543.717773,4495.256348,4378.974121,4368.461426,4548.077148,4505.769043,4484.871582,4372.05127,4558.589844,4369.615234,4536.282227,4490.512695,4383.717773,4514.487305,4489.102539,2284.0,0.0,14.0,1280.0,37923.0,,,,0.0,4.0,4.0,4.0,4.0,4.0,4.0,4.0,4.0,4.0,4.0,4.0,4.0,4.0,4.0,4.0,4.0,4.0,4.0,4.0,4.0,4.0,4.0,4.0,4.0,4.0,4.0,4.0,4.0,4.0,4.0,4.0,4.0,100.0,,,,,,,,,,,,,,,,,,,,,,,,,,,,,,,,,,,,,,,,,,,,,,,,,,,,,,,,,,,,,,,,,,,,,,,,,,,,,,,,,,,,,,,,,,,,,,,,,,,,,,,,,,,,,,,,,,,,,,,,,,,,,,,,,,,,,,,,,,,,,,,,,,,,,,,,,,,,,,,,,,,,,,,,,,,,,,,,,,,,,,,,,,,,,,,,,,,,,,,,,,,,,,
1763975431.661083,4643.0,0.0,4388.461426,4383.589844,4481.538574,4515.0,4391.410156,4498.589844,4535.897461,4377.179688,4563.077148,4377.94873,4500.384766,4511.922852,4580.769043,4412.307617,4389.102539,4525.897461,4537.563965,4544.230957,4495.128418,4381.538574,4364.615234,4549.871582,4503.205078,4480.256348,4363.077148,4546.153809,4358.589844,4530.128418,4483.717773,4369.743652,4504.615234,4479.358887,2978.0,0.0,14.0,1280.0,37923.0,,,,0.0,4.0,4.0,4.0,4.0,4.0,4.0,4.0,4.0,4.0,4.0,4.0,4.0,4.0,4.0,4.0,4.0,4.0,4.0,4.0,4.0,4.0,4.0,4.0,4.0,4.0,4.0,4.0,4.0,4.0,4.0,4.0,4.0,100.0,,,,,,,,,,,,,,,,,,,,,,,,,,,,,,,,,,,,,,,,,,,,,,,,,,,,,,,,,,,,,,,,,,,,,,,,,,,,,,,,,,,,,,,,,,,,,,,,,,,,,,,,,,,,,,,,,,,,,,,,,,,,,,,,,,,,,,,,,,,,,,,,,,,,,,,,,,,,,,,,,,,,,,,,,,,,,,,,,,,,,,,,,,,,,,,,,,,,,,,,,,,,,,
1763975431.664989,4644.0,0.0,4385.897461,4378.974121,4479.871582,4514.871582,4390.641113,4496.153809,4533.333496,4374.871582,4557.94873,4386.282227,4498.333496,4509.487305,4578.461426,4409.358887,4390.128418,4521.410156,4540.128418,4543.205078,4500.384766,4383.461426,4367.436035,4556.153809,4505.256348,4483.333496,4360.769043,4541.025879,4353.717773,4529.230957,4480.897461,4362.436035,4501.410156,4476.922852,2882.0,0.0,14.0,256.0,37931.0,,,,0.0,4.0,4.0,4.0,4.0,4.0,4.0,4.0,4.0,4.0,4.0,4.0,4.0,4.0,4.0,4.0,4.0,4.0,4.0,4.0,4.0,4.0,4.0,4.0,4.0,4.0,4.0,4.0,4.0,4.0,4.0,4.0,4.0,100.0,,,,,,,,,,,,,,,,,,,,,,,,,,,,,,,,,,,,,,,,,,,,,,,,,,,,,,,,,,,,,,,,,,,,,,,,,,,,,,,,,,,,,,,,,,,,,,,,,,,,,,,,,,,,,,,,,,,,,,,,,,,,,,,,,,,,,,,,,,,,,,,,,,,,,,,,,,,,,,,,,,,,,,,,,,,,,,,,,,,,,,,,,,,,,,,,,,,,,,,,,,,,,,
1763975431.668894,4645.0,0.0,4390.0,4382.05127,4488.461426,4521.282227,4397.05127,4501.538574,4538.974121,4380.256348,4564.358887,4410.384766,4503.077148,4515.128418,4582.820313,4411.794922,4394.230957,4522.05127,4550.128418,4545.641113,4514.487305,4389.102539,4381.794922,4571.794922,4516.794922,4498.846191,4371.538574,4551.794922,4363.205078,4538.974121,4487.05127,4368.846191,4510.512695,4486.153809,2416.0,0.0,14.0,256.0,37931.0,,,,0.0,4.0,4.0,4.0,4.0,4.0,4.0,4.0,4.0,4.0,4.0,4.0,4.0,4.0,4.0,4.0,4.0,4.0,4.0,4.0,4.0,4.0,4.0,4.0,4.0,4.0,4.0,4.0,4.0,4.0,4.0,4.0,4.0,100.0,,,,,,,,,,,,,,,,,,,,,,,,,,,,,,,,,,,33929.0,0.0,0.476823,0.29425,0.209351,0.801392,0.882432,-0.463924,0.057624,37.333332,-21.166666,-25.166666,,,,,,,,,,,,,,,,,,,,,,,,,,,,,,,,,,,,,,,,,,,,,,,,,,,,,,,,,,,,,,,,,,,,,,,,,,,,,,,,,,,,,,,,,,,,,,,,,,,,,,,,,,,,,,,,,,,,,,,,,,,,,,,,,,,,,,,,,,,,,,,,,,,,,,,,,,,,,,,,
1763975431.6728,4646.0,0.0,4398.205078,4390.641113,4503.077148,4531.153809,4406.282227,4512.05127,4548.846191,4390.769043,4578.846191,4432.05127,4511.282227,4525.641113,4591.153809,4416.794922,4397.307617,4524.615234,4563.333496,4548.974121,4529.871582,4396.282227,4400.897461,4590.897461,4532.05127,4518.717773,4390.128418,4572.307617,4381.410156,4553.333496,4497.94873,4383.717773,4526.153809,4501.410156,2989.0,0.0,14.0,512.0,37939.0,,,,0.0,4.0,4.0,4.0,4.0,4.0,4.0,4.0,4.0,4.0,4.0,4.0,4.0,4.0,4.0,4.0,4.0,4.0,4.0,4.0,4.0,4.0,4.0,4.0,4.0,4.0,4.0,4.0,4.0,4.0,4.0,4.0,4.0,100.0,,,,,,,,,,,,,,,,,,,,,,,,,,,,,,,,,,,,,,,,,,,,,,,,,,,,,,,,,,,,,,,,,,,,,,,,,,,,,,,,,,,,,,,,,,,,,,,,,,,,,,,,,,,,,,,,,,,,,,,,,,,,,,,,,,,,,,,,,,,,,,,,,,,,,,,,,,,,,,,,,,,,,,,,,,,,,,,,,,,,,,,,,,,,,,,,,,,,,,,,,,,,,,
1763975431.676706,4647.0,0.0,4403.077148,4397.05127,4513.461426,4536.410156,4410.512695,4520.0,4553.589844,4397.179688,4589.487305,4435.897461,4513.974121,4531.538574,4595.0,4416.666504,4393.461426,4523.333496,4570.384766,4549.230957,4535.769043,4398.333496,4413.077148,4602.436035,4540.384766,4530.128418,4404.102539,4587.820313,4394.487305,4561.282227,4504.102539,4394.871582,4536.666504,4511.922852,2972.0,0.0,14.0,512.0,37939.0,,,,0.0,4.0,4.0,4.0,4.0,4.0,4.0,4.0,4.0,4.0,4.0,4.0,4.0,4.0,4.0,4.0,4.0,4.0,4.0,4.0,4.0,4.0,4.0,4.0,4.0,4.0,4.0,4.0,4.0,4.0,4.0,4.0,4.0,100.0,,,,,,,,,,,,,,,,,,,,,,,,,,,,,,,,,,,,,,,,,,,,,,,,,,,,,,,,,,,,,,,,,,,,,,,,,,,,,,,,,,,,,,,,,,,,,,,,,,,,,,,,,,,,,,,,,,,,,,,,,,,,,,,,,,,,,,,,,,,,,,,,,,,,,,,,,,,,,,,,,,,,,,,,,,,,,,,,,,,,,,,,,,,,,,,,,,,,,,,,,,,,,,
1763975431.680612,4648.0,0.0,4400.641113,4396.794922,4513.589844,4532.307617,4406.410156,4520.512695,4549.230957,4393.461426,4588.717773,4421.282227,4507.563965,4527.94873,4589.487305,4408.717773,4382.94873,4519.487305,4567.436035,4547.05127,4529.358887,4392.94873,4412.563965,4601.666504,4537.820313,4527.692383,4405.384766,4589.358887,4394.615234,4558.846191,4501.282227,4395.641113,4536.410156,4512.436035,2665.0,0.0,14.0,768.0,37946.0,,,,0.0,4.0,4.0,4.0,4.0,4.0,4.0,4.0,4.0,4.0,4.0,4.0,4.0,4.0,4.0,4.0,4.0,4.0,4.0,4.0,4.0,4.0,4.0,4.0,4.0,4.0,4.0,4.0,4.0,4.0,4.0,4.0,4.0,100.0,,,,,,,,,,,,,,,,,,,,,,,,,,,,,,,,,,,,,,,,,,,,,,,4.538581,9.749063,5.231207,4.655338,7.15696,5.126201,2.639347,3.54757,4.70839,6.903574,5.000749,2.043641,4.573932,5.727319,7.45045,4.881092,1.932454,3.896125,4.938875,7.374946,3.942158,1.816786,3.213076,3.672858,5.214935,4.429392,3.126462,2.467391,2.851065,4.926242,3.777791,6.287791,3.536291,4.590818,7.831907,3.530861,2.139453,3.915483,5.220142,8.076336,3.880132,1.931076,2.86457,4.07521,7.21317,2.56477,4.621277,3.734252,11.522803,11.717463,1.872495,5.858665,2.572236,3.831943,7.387617,3.883628,17.385391,4.254162,4.627375,7.415722,3.025976,20.596785,3.546347,4.65373,8.905442,0.30071,2.281163,1.436739,3.11252,7.428199,0.380006,1.70323,2.516366,4.169501,8.45015,3.083495,5.533922,3.402322,6.540428,14.208011,3.470281,30.391018,5.357701,4.002742,7.629633,1.588887,9.420294,4.310675,5.674777,11.895939,1.916875,7.693551,7.297188,5.5186,10.549693,2.873374,5.193617,4.960079,6.260154,7.825237,2.386156,6.74867,5.48715,4.813967,7.923175,2.700701,29.608366,6.971855,5.32615,9.145968,4.571874,21.505424,6.498959,5.758835,8.696015,2.757999,10.18769,5.506152,4.983509,8.127122,5.617311,4.645839,5.873153,6.318901,7.769134,5.146326,2.916391,4.677705,5.942182,7.690092,6.524611,4.13255,4.93941,5.967884,7.972423,5.691577,9.429173,5.309522,5.644207,8.340743,6.642298,5.06621,4.668129,4.972878,7.265804,6.857993,2.980774,4.515245,5.756107,7.394485,6.688128,3.810913,4.8894,6.397506,8.299208,6.349972,2.543589,5.201884,6.324171,7.554618
1763975431.684517,4649.0,0.0,4395.512695,4392.94873,4507.179688,4522.820313,4398.974121,4516.538574,4541.025879,4384.230957,4579.615234,4402.436035,4497.692383,4520.256348,4579.358887,4398.974121,4373.846191,4520.128418,4560.128418,4547.563965,4517.94873,4386.794922,4405.512695,4594.358887,4530.769043,4518.461426,4397.436035,4581.666504,4387.307617,4552.692383,4494.871582,4390.897461,4530.769043,4507.692383,2851.0,0.0,14.0,768.0,37946.0,,,,0.0,4.0,4.0,4.0,4.0,4.0,4.0,4.0,4.0,4.0,4.0,4.0,4.0,4.0,4.0,4.0,4.0,4.0,4.0,4.0,4.0,4.0,4.0,4.0,4.0,4.0,4.0,4.0,4.0,4.0,4.0,4.0,4.0,100.0,,,,,,,,,,,,,,,,,,,,,,,,,,,,,,,,,,,33930.0,0.0,0.47708,0.293884,0.209045,0.801453,0.881944,-0.464412,0.048346,35.0,-19.5,-27.0,,,,,,,,,,,,,,,,,,,,,,,,,,,,,,,,,,,,,,,,,,,,,,,,,,,,,,,,,,,,,,,,,,,,,,,,,,,,,,,,,,,,,,,,,,,,,,,,,,,,,,,,,,,,,,,,,,,,,,,,,,,,,,,,,,,,,,,,,,,,,,,,,,,,,,,,,,,,,,,,
1763975431.688423,4650.0,0.0,4395.769043,4393.461426,4504.358887,4518.077148,4397.436035,4515.769043,4538.461426,4380.128418,4572.94873,4394.487305,4494.230957,4518.333496,4573.461426,4396.666504,4375.641113,4528.461426,4558.461426,4553.974121,4513.077148,4390.0,4403.717773,4591.666504,4530.384766,4515.512695,4391.922852,4578.333496,4385.897461,4554.487305,4495.0,4391.538574,4530.384766,4507.307617,2672.0,0.0,14.0,1024.0,37954.0,,,,0.0,4.0,4.0,4.0,4.0,4.0,4.0,4.0,4.0,4.0,4.0,4.0,4.0,4.0,4.0,4.0,4.0,4.0,4.0,4.0,4.0,4.0,4.0,4.0,4.0,4.0,4.0,4.0,4.0,4.0,4.0,4.0,4.0,100.0,,,,,,,,,,,,,,,,,,,,,,,,,,,,,,,,,,,,,,,,,,,,,,,,,,,,,,,,,,,,,,,,,,,,,,,,,,,,,,,,,,,,,,,,,,,,,,,,,,,,,,,,,,,,,,,,,,,,,,,,,,,,,,,,,,,,,,,,,,,,,,,,,,,,,,,,,,,,,,,,,,,,,,,,,,,,,,,,,,,,,,,,,,,,,,,,,,,,,,,,,,,,,,
1763975431.692329,4651.0,0.0,4405.769043,4403.461426,4511.922852,4525.512695,4406.282227,4522.692383,4546.025879,4388.846191,4577.820313,4401.153809,4501.538574,4526.922852,4577.05127,4405.256348,4389.487305,4539.230957,4566.410156,4564.230957,4522.05127,4405.512695,4415.0,4600.256348,4541.666504,4526.666504,4398.974121,4587.692383,4398.333496,4568.589844,4507.179688,4403.846191,4540.769043,4517.179688,2998.0,0.0,14.0,1024.0,37954.0,,,,0.0,4.0,4.0,4.0,4.0,4.0,4.0,4.0,4.0,4.0,4.0,4.0,4.0,4.0,4.0,4.0,4.0,4.0,4.0,4.0,4.0,4.0,4.0,4.0,4.0,4.0,4.0,4.0,4.0,4.0,4.0,4.0,4.0,100.0,,,,,,,,,,,,,,,,,,,,,,,,,,,,,,,,,,,,,,,,,,,,,,,,,,,,,,,,,,,,,,,,,,,,,,,,,,,,,,,,,,,,,,,,,,,,,,,,,,,,,,,,,,,,,,,,,,,,,,,,,,,,,,,,,,,,,,,,,,,,,,,,,,,,,,,,,,,,,,,,,,,,,,,,,,,,,,,,,,,,,,,,,,,,,,,,,,,,,,,,,,,,,,
1763975431.696235,4652.0,0.0,4421.025879,4420.128418,4527.94873,4543.077148,4421.538574,4534.615234,4559.102539,4407.436035,4592.94873,4412.820313,4514.487305,4540.897461,4585.897461,4418.717773,4405.897461,4543.717773,4578.974121,4573.205078,4542.692383,4424.230957,4435.384766,4616.794922,4559.102539,4546.922852,4417.563965,4606.025879,4420.0,4588.077148,4526.153809,4422.692383,4557.179688,4532.820313,2955.0,0.0,14.0,1280.0,37962.0,,,,0.0,4.0,4.0,4.0,4.0,4.0,4.0,4.0,4.0,4.0,4.0,4.0,4.0,4.0,4.0,4.0,4.0,4.0,4.0,4.0,4.0,4.0,4.0,4.0,4.0,4.0,4.0,4.0,4.0,4.0,4.0,4.0,4.0,100.0,,,,,,,,,,,,,,,,,,,,,,,,,,,,,,,,,,,,,,,,,,,,,,,,,,,,,,,,,,,,,,,,,,,,,,,,,,,,,,,,,,,,,,,,,,,,,,,,,,,,,,,,,,,,,,,,,,,,,,,,,,,,,,,,,,,,,,,,,,,,,,,,,,,,,,,,,,,,,,,,,,,,,,,,,,,,,,,,,,,,,,,,,,,,,,,,,,,,,,,,,,,,,,
1763975431.700141,4653.0,0.0,4430.128418,4432.94873,4540.769043,4558.205078,4432.179688,4542.05127,4566.025879,4422.94873,4607.05127,4415.0,4521.410156,4547.94873,4589.743652,4425.512695,4411.153809,4538.846191,4585.256348,4576.025879,4563.333496,4430.384766,4451.153809,4629.102539,4569.487305,4561.410156,4435.128418,4618.717773,4435.0,4598.205078,4538.974121,4435.128418,4566.794922,4542.436035,2724.0,0.0,14.0,1280.0,37962.0,,,,0.0,4.0,4.0,4.0,4.0,4.0,4.0,4.0,4.0,4.0,4.0,4.0,4.0,4.0,4.0,4.0,4.0,4.0,4.0,4.0,4.0,4.0,4.0,4.0,4.0,4.0,4.0,4.0,4.0,4.0,4.0,4.0,4.0,100.0,,,,,,,,,,,,,,,,,,,,,,,,,,,,,,,,,,,33931.0,0.0,0.47721,0.293884,0.208984,0.801392,0.894152,-0.467342,0.046392,36.333332,-19.833334,-25.333334,,,,,,,,,,,,,,,,,,,,,,,,,,,,,,,,,,,,,,,,,,,,,,,,,,,,,,,,,,,,,,,,,,,,,,,,,,,,,,,,,,,,,,,,,,,,,,,,,,,,,,,,,,,,,,,,,,,,,,,,,,,,,,,,,,,,,,,,,,,,,,,,,,,,,,,,,,,,,,,,
1763975431.704046,4654.0,0.0,4423.205078,4431.153809,4538.589844,4557.307617,4428.589844,4536.410156,4557.94873,4421.666504,4606.922852,4400.384766,4512.563965,4538.589844,4579.102539,4416.538574,4397.307617,4528.589844,4576.153809,4569.487305,4569.615234,4414.615234,4449.615234,4625.128418,4562.307617,4556.666504,4436.538574,4613.205078,4428.974121,4588.077148,4533.974121,4429.871582,4559.102539,4536.538574,2733.0,0.0,14.0,1536.0,37970.0,,,,0.0,4.0,4.0,4.0,4.0,4.0,4.0,4.0,4.0,4.0,4.0,4.0,4.0,4.0,4.0,4.0,4.0,4.0,4.0,4.0,4.0,4.0,4.0,4.0,4.0,4.0,4.0,4.0,4.0,4.0,4.0,4.0,4.0,100.0,,,,,,,,,,,,,,,,,,,,,,,,,,,,,,,,,,,,,,,,,,,,,,,,,,,,,,,,,,,,,,,,,,,,,,,,,,,,,,,,,,,,,,,,,,,,,,,,,,,,,,,,,,,,,,,,,,,,,,,,,,,,,,,,,,,,,,,,,,,,,,,,,,,,,,,,,,,,,,,,,,,,,,,,,,,,,,,,,,,,,,,,,,,,,,,,,,,,,,,,,,,,,,
1763975431.707952,4655.0,0.0,4401.794922,4413.589844,4519.743652,4537.692383,4410.897461,4518.846191,4536.153809,4401.153809,4590.128418,4375.769043,4489.871582,4515.0,4554.487305,4393.717773,4370.128418,4518.077148,4553.205078,4555.897461,4556.410156,4384.487305,4430.0,4603.717773,4538.974121,4532.820313,4417.94873,4590.769043,4401.794922,4560.128418,4511.538574,4407.563965,4535.897461,4516.794922,2844.0,0.0,14.0,1536.0,37970.0,,,,0.0,4.0,4.0,4.0,4.0,4.0,4.0,4.0,4.0,4.0,4.0,4.0,4.0,4.0,4.0,4.0,4.0,4.0,4.0,4.0,4.0,4.0,4.0,4.0,4.0,4.0,4.0,4.0,4.0,4.0,4.0,4.0,4.0,100.0,,,,,,,,,,,,,,,,,,,,,,,,,,,,,,,,,,,,,,,,,,,,,,,,,,,,,,,,,,,,,,,,,,,,,,,,,,,,,,,,,,,,,,,,,,,,,,,,,,,,,,,,,,,,,,,,,,,,,,,,,,,,,,,,,,,,,,,,,,,,,,,,,,,,,,,,,,,,,,,,,,,,,,,,,,,,,,,,,,,,,,,,,,,,,,,,,,,,,,,,,,,,,,
1763975431.711858,4656.0,0.0,4379.743652,4392.179688,4497.307617,4513.077148,4391.410156,4500.769043,4514.230957,4375.256348,4568.974121,4359.230957,4467.436035,4491.794922,4528.846191,4370.769043,4347.436035,4510.769043,4529.871582,4543.077148,4532.692383,4362.692383,4406.410156,4577.05127,4514.230957,4505.256348,4393.077148,4567.94873,4371.153809,4531.538574,4486.538574,4382.307617,4512.563965,4496.794922,2958.0,0.0,14.0,1792.0,37978.0,,,,0.0,4.0,4.0,4.0,4.0,4.0,4.0,4.0,4.0,4.0,4.0,4.0,4.0,4.0,4.0,4.0,4.0,4.0,4.0,4.0,4.0,4.0,4.0,4.0,4.0,4.0,4.0,4.0,4.0,4.0,4.0,4.0,4.0,100.0,,,,,,,,,,,,,,,,,,,,,,,,,,,,,,,,,,,,,,,,,,,,,,,,,,,,,,,,,,,,,,,,,,,,,,,,,,,,,,,,,,,,,,,,,,,,,,,,,,,,,,,,,,,,,,,,,,,,,,,,,,,,,,,,,,,,,,,,,,,,,,,,,,,,,,,,,,,,,,,,,,,,,,,,,,,,,,,,,,,,,,,,,,,,,,,,,,,,,,,,,,,,,,
1763975431.715764,4657.0,0.0,4373.077148,4383.589844,4489.487305,4502.820313,4384.743652,4495.641113,4508.333496,4363.077148,4561.666504,4366.666504,4462.05127,4485.128418,4518.717773,4363.589844,4346.666504,4508.205078,4521.794922,4540.0,4515.128418,4368.717773,4396.922852,4562.05127,4504.743652,4493.846191,4381.410156,4562.820313,4358.461426,4521.666504,4476.922852,4371.666504,4506.794922,4492.05127,3060.0,0.0,14.0,1792.0,37978.0,,,,0.0,4.0,4.0,4.0,4.0,4.0,4.0,4.0,4.0,4.0,4.0,4.0,4.0,4.0,4.0,4.0,4.0,4.0,4.0,4.0,4.0,4.0,4.0,4.0,4.0,4.0,4.0,4.0,4.0,4.0,4.0,4.0,4.0,100.0,,,,,,,,,,,,,,,,,,,,,,,,,,,,,,,,,,,33932.0,0.0,0.477312,0.293884,0.208984,0.801331,0.88878,-0.454157,0.052252,37.666668,-19.666666,-24.666666,,,,,,,,,,,,,,,,,,,,,,,,,,,,,,,,,,,,,,,,,,,,,,,,,,,,,,,,,,,,,,,,,,,,,,,,,,,,,,,,,,,,,,,,,,,,,,,,,,,,,,,,,,,,,,,,,,,,,,,,,,,,,,,,,,,,,,,,,,,,,,,,,,,,,,,,,,,,,,,,
1763975431.719669,4658.0,0.0,4385.256348,4393.461426,4502.307617,4514.743652,4395.512695,4506.410156,4522.436035,4373.077148,4575.256348,4397.307617,4477.94873,4498.205078,4530.128418,4376.282227,4369.615234,4509.871582,4532.563965,4548.077148,4512.692383,4401.153809,4406.410156,4565.0,4514.230957,4504.487305,4390.384766,4578.205078,4370.128418,4535.0,4488.077148,4380.897461,4521.666504,4505.512695,2827.0,0.0,14.0,2048.0,37985.0,,,,0.0,4.0,4.0,4.0,4.0,4.0,4.0,4.0,4.0,4.0,4.0,4.0,4.0,4.0,4.0,4.0,4.0,4.0,4.0,4.0,4.0,4.0,4.0,4.0,4.0,4.0,4.0,4.0,4.0,4.0,4.0,4.0,4.0,100.0,,,,,,,,,,,,,,,,,,,,,,,,,,,,,,,,,,,,,,,,,,,,,,,,,,,,,,,,,,,,,,,,,,,,,,,,,,,,,,,,,,,,,,,,,,,,,,,,,,,,,,,,,,,,,,,,,,,,,,,,,,,,,,,,,,,,,,,,,,,,,,,,,,,,,,,,,,,,,,,,,,,,,,,,,,,,,,,,,,,,,,,,,,,,,,,,,,,,,,,,,,,,,,
1763975431.723575,4659.0,0.0,4403.846191,4411.538574,4524.487305,4537.179688,4413.717773,4522.692383,4544.487305,4395.769043,4598.717773,4432.436035,4503.461426,4518.205078,4552.436035,4398.461426,4399.487305,4512.563965,4550.256348,4559.358887,4520.128418,4437.179688,4423.077148,4576.282227,4530.384766,4524.358887,4408.077148,4598.846191,4392.692383,4557.436035,4507.563965,4399.230957,4542.692383,4524.615234,3024.0,0.0,14.0,2048.0,37985.0,,,,0.0,4.0,4.0,4.0,4.0,4.0,4.0,4.0,4.0,4.0,4.0,4.0,4.0,4.0,4.0,4.0,4.0,4.0,4.0,4.0,4.0,4.0,4.0,4.0,4.0,4.0,4.0,4.0,4.0,4.0,4.0,4.0,4.0,100.0,,,,,,,,,,,,,,,,,,,,,,,,,,,,,,,,,,,,,,,,,,,,,,,,,,,,,,,,,,,,,,,,,,,,,,,,,,,,,,,,,,,,,,,,,,,,,,,,,,,,,,,,,,,,,,,,,,,,,,,,,,,,,,,,,,,,,,,,,,,,,,,,,,,,,,,,,,,,,,,,,,,,,,,,,,,,,,,,,,,,,,,,,,,,,,,,,,,,,,,,,,,,,,
1763975431.727481,4660.0,0.0,4411.666504,4421.794922,4537.179688,4551.922852,4424.743652,4530.0,4557.563965,4412.436035,4613.077148,4451.538574,4521.153809,4528.205078,4568.846191,4414.358887,4415.512695,4513.333496,4557.692383,4563.077148,4525.256348,4450.897461,4429.358887,4580.256348,4536.410156,4533.717773,4414.871582,4605.256348,4404.871582,4568.717773,4517.307617,4409.743652,4551.025879,4532.563965,3003.0,0.0,14.0,2304.0,37993.0,,,,0.0,4.0,4.0,4.0,4.0,4.0,4.0,4.0,4.0,4.0,4.0,4.0,4.0,4.0,4.0,4.0,4.0,4.0,4.0,4.0,4.0,4.0,4.0,4.0,4.0,4.0,4.0,4.0,4.0,4.0,4.0,4.0,4.0,100.0,,,,,,,,,,,,,,,,,,,,,,,,,,,,,,,,,,,,,,,,,,,,,,,,,,,,,,,,,,,,,,,,,,,,,,,,,,,,,,,,,,,,,,,,,,,,,,,,,,,,,,,,,,,,,,,,,,,,,,,,,,,,,,,,,,,,,,,,,,,,,,,,,,,,,,,,,,,,,,,,,,,,,,,,,,,,,,,,,,,,,,,,,,,,,,,,,,,,,,,,,,,,,,
1763975431.731387,4661.0,0.0,4402.05127,4415.897461,4530.256348,4548.717773,4421.538574,4521.922852,4554.487305,4412.05127,4608.333496,4448.974121,4522.692383,4521.666504,4570.128418,4415.897461,4409.358887,4511.153809,4548.333496,4554.743652,4521.025879,4433.205078,4417.436035,4569.871582,4525.769043,4523.205078,4401.794922,4590.512695,4396.153809,4559.871582,4508.717773,4403.974121,4539.615234,4523.205078,2932.0,0.0,14.0,2304.0,37993.0,,,,0.0,4.0,4.0,4.0,4.0,4.0,4.0,4.0,4.0,4.0,4.0,4.0,4.0,4.0,4.0,4.0,4.0,4.0,4.0,4.0,4.0,4.0,4.0,4.0,4.0,4.0,4.0,4.0,4.0,4.0,4.0,4.0,4.0,100.0,,,,,,,,,,,,,,,,,,,,,,,,,,,,,,,,,,,33933.0,0.0,0.477388,0.294006,0.209106,0.801208,0.88878,-0.454157,0.052252,36.166668,-20.0,-26.333334,,,,,,,,,,,,,,,,,,,,,,,,,,,,,,,,,,,,,,,,,,,,,,,,,,,,,,,,,,,,,,,,,,,,,,,,,,,,,,,,,,,,,,,,,,,,,,,,,,,,,,,,,,,,,,,,,,,,,,,,,,,,,,,,,,,,,,,,,,,,,,,,,,,,,,,,,,,,,,,,
1763975431.735293,4662.0,0.0,4381.922852,4398.717773,4509.358887,4532.436035,4408.205078,4504.615234,4541.282227,4397.692383,4590.128418,4435.128418,4512.692383,4505.512695,4560.256348,4407.05127,4389.743652,4506.410156,4529.102539,4537.94873,4508.461426,4396.794922,4393.205078,4550.384766,4505.256348,4499.230957,4376.153809,4564.102539,4372.94873,4537.820313,4488.333496,4386.922852,4516.153809,4503.205078,2999.0,0.0,14.0,2304.0,38001.0,,,,0.0,4.0,4.0,4.0,4.0,4.0,4.0,4.0,4.0,4.0,4.0,4.0,4.0,4.0,4.0,4.0,4.0,4.0,4.0,4.0,4.0,4.0,4.0,4.0,4.0,4.0,4.0,4.0,4.0,4.0,4.0,4.0,4.0,100.0,,,,,,,,,,,,,,,,,,,,,,,,,,,,,,,,,,,,,,,,,,,,,,,,,,,,,,,,,,,,,,,,,,,,,,,,,,,,,,,,,,,,,,,,,,,,,,,,,,,,,,,,,,,,,,,,,,,,,,,,,,,,,,,,,,,,,,,,,,,,,,,,,,,,,,,,,,,,,,,,,,,,,,,,,,,,,,,,,,,,,,,,,,,,,,,,,,,,,,,,,,,,,,
1763975431.739198,4663.0,0.0,4364.102539,4381.410156,4487.692383,4515.0,4394.230957,4489.487305,4528.974121,4381.538574,4571.282227,4421.410156,4501.794922,4491.794922,4549.871582,4396.922852,4371.538574,4498.589844,4512.563965,4520.128418,4492.05127,4364.102539,4369.743652,4532.820313,4487.436035,4476.922852,4353.077148,4541.922852,4350.0,4517.436035,4469.871582,4370.0,4494.743652,4484.230957,2937.0,0.0,14.0,2304.0,38001.0,,,,0.0,4.0,4.0,4.0,4.0,4.0,4.0,4.0,4.0,4.0,4.0,4.0,4.0,4.0,4.0,4.0,4.0,4.0,4.0,4.0,4.0,4.0,4.0,4.0,4.0,4.0,4.0,4.0,4.0,4.0,4.0,4.0,4.0,100.0,,,,,,,,,,,,,,,,,,,,,,,,,,,,,,,,,,,,,,,,,,,,,,,,,,,,,,,,,,,,,,,,,,,,,,,,,,,,,,,,,,,,,,,,,,,,,,,,,,,,,,,,,,,,,,,,,,,,,,,,,,,,,,,,,,,,,,,,,,,,,,,,,,,,,,,,,,,,,,,,,,,,,,,,,,,,,,,,,,,,,,,,,,,,,,,,,,,,,,,,,,,,,,
1763975431.743104,4664.0,0.0,4357.179688,4372.820313,4476.025879,4505.384766,4386.025879,4484.615234,4524.615234,4374.230957,4561.153809,4410.128418,4497.692383,4488.205078,4547.436035,4392.692383,4364.615234,4488.717773,4507.436035,4508.461426,4477.563965,4350.897461,4357.563965,4525.384766,4481.153809,4467.692383,4342.94873,4533.205078,4339.615234,4509.871582,4463.205078,4361.922852,4484.743652,4474.230957,2884.0,0.0,14.0,2560.0,38009.0,,,,0.0,4.0,4.0,4.0,4.0,4.0,4.0,4.0,4.0,4.0,4.0,4.0,4.0,4.0,4.0,4.0,4.0,4.0,4.0,4.0,4.0,4.0,4.0,4.0,4.0,4.0,4.0,4.0,4.0,4.0,4.0,4.0,4.0,100.0,,,,,,,,,,,,,,,,,,,,,,,,,,,,,,,,,,,,,,,,,,,,,,,,,,,,,,,,,,,,,,,,,,,,,,,,,,,,,,,,,,,,,,,,,,,,,,,,,,,,,,,,,,,,,,,,,,,,,,,,,,,,,,,,,,,,,,,,,,,,,,,,,,,,,,,,,,,,,,,,,,,,,,,,,,,,,,,,,,,,,,,,,,,,,,,,,,,,,,,,,,,,,,
1763975431.74701,4665.0,0.0,4362.307617,4375.641113,4476.922852,4505.256348,4385.897461,4490.384766,4528.589844,4378.333496,4560.512695,4396.922852,4501.794922,4495.128418,4555.512695,4396.153809,4369.487305,4482.563965,4515.0,4509.230957,4472.692383,4357.692383,4360.769043,4531.153809,4487.820313,4474.487305,4347.179688,4537.692383,4345.0,4517.05127,4469.358887,4365.0,4487.179688,4474.615234,2863.0,0.0,14.0,2560.0,38009.0,,,,0.0,4.0,4.0,4.0,4.0,4.0,4.0,4.0,4.0,4.0,4.0,4.0,4.0,4.0,4.0,4.0,4.0,4.0,4.0,4.0,4.0,4.0,4.0,4.0,4.0,4.0,4.0,4.0,4.0,4.0,4.0,4.0,4.0,100.0,,,,,,,,,,,,,,,,,,,,,,,,,,,,,,,,,,,33934.0,0.0,0.477395,0.293945,0.209412,0.801147,0.900012,-0.460505,0.058601,37.0,-19.666666,-25.166666,,,,,,,,,,,,,,,,,,,,,,,,,,,,,,,,,,,,,,,,,,,,,,,,,,,,,,,,,,,,,,,,,,,,,,,,,,,,,,,,,,,,,,,,,,,,,,,,,,,,,,,,,,,,,,,,,,,,,,,,,,,,,,,,,,,,,,,,,,,,,,,,,,,,,,,,,,,,,,,,
1763975431.750916,4666.0,0.0,4374.871582,4387.05127,4485.897461,4510.769043,4391.794922,4501.538574,4537.436035,4389.615234,4564.871582,4381.410156,4511.153809,4507.692383,4571.538574,4405.128418,4380.384766,4486.794922,4532.307617,4523.589844,4483.717773,4373.846191,4376.666504,4549.230957,4503.205078,4492.692383,4361.794922,4550.0,4361.538574,4534.230957,4483.461426,4376.025879,4498.589844,4483.205078,2780.0,0.0,14.0,2560.0,38017.0,,,,0.0,4.0,4.0,4.0,4.0,4.0,4.0,4.0,4.0,4.0,4.0,4.0,4.0,4.0,4.0,4.0,4.0,4.0,4.0,4.0,4.0,4.0,4.0,4.0,4.0,4.0,4.0,4.0,4.0,4.0,4.0,4.0,4.0,100.0,,,,,,,,,,,,,,,,,,,,,,,,,,,,,,,,,,,,,,,,,,,,,,,,,,,,,,,,,,,,,,,,,,,,,,,,,,,,,,,,,,,,,,,,,,,,,,,,,,,,,,,,,,,,,,,,,,,,,,,,,,,,,,,,,,,,,,,,,,,,,,,,,,,,,,,,,,,,,,,,,,,,,,,,,,,,,,,,,,,,,,,,,,,,,,,,,,,,,,,,,,,,,,
1763975431.754821,4667.0,0.0,4388.461426,4401.153809,4495.641113,4516.922852,4399.615234,4511.538574,4547.05127,4400.897461,4570.0,4371.410156,4521.666504,4519.871582,4589.102539,4415.0,4390.769043,4501.410156,4553.333496,4544.743652,4508.461426,4386.922852,4398.077148,4573.717773,4520.641113,4514.487305,4381.282227,4563.974121,4381.410156,4553.077148,4498.077148,4389.487305,4513.717773,4495.256348,3023.0,0.0,14.0,2560.0,38017.0,,,,0.0,4.0,4.0,4.0,4.0,4.0,4.0,4.0,4.0,4.0,4.0,4.0,4.0,4.0,4.0,4.0,4.0,4.0,4.0,4.0,4.0,4.0,4.0,4.0,4.0,4.0,4.0,4.0,4.0,4.0,4.0,4.0,4.0,100.0,,,,,,,,,,,,,,,,,,,,,,,,,,,,,,,,,,,,,,,,,,,,,,,,,,,,,,,,,,,,,,,,,,,,,,,,,,,,,,,,,,,,,,,,,,,,,,,,,,,,,,,,,,,,,,,,,,,,,,,,,,,,,,,,,,,,,,,,,,,,,,,,,,,,,,,,,,,,,,,,,,,,,,,,,,,,,,,,,,,,,,,,,,,,,,,,,,,,,,,,,,,,,,
1763975431.758727,4668.0,0.0,4396.282227,4410.512695,4500.128418,4518.974121,4404.230957,4515.384766,4553.077148,4405.384766,4573.974121,4374.487305,4528.717773,4526.153809,4601.025879,4420.897461,4395.0,4516.922852,4570.256348,4559.230957,4533.974121,4390.384766,4415.641113,4595.256348,4533.333496,4531.282227,4399.615234,4574.487305,4395.769043,4565.769043,4507.05127,4398.974121,4526.153809,4504.487305,2954.0,0.0,14.0,2560.0,38024.0,,,,0.0,4.0,4.0,4.0,4.0,4.0,4.0,4.0,4.0,4.0,4.0,4.0,4.0,4.0,4.0,4.0,4.0,4.0,4.0,4.0,4.0,4.0,4.0,4.0,4.0,4.0,4.0,4.0,4.0,4.0,4.0,4.0,4.0,100.0,,,,,,,,,,,,,,,,,,,,,,,,,,,,,,,,,,,,,,,,,,,,,,,,,,,,,,,,,,,,,,,,,,,,,,,,,,,,,,,,,,,,,,,,,,,,,,,,,,,,,,,,,,,,,,,,,,,,,,,,,,,,,,,,,,,,,,,,,,,,,,,,,,,,,,,,,,,,,,,,,,,,,,,,,,,,,,,,,,,,,,,,,,,,,,,,,,,,,,,,,,,,,,
1763975431.762633,4669.0,0.0,4394.743652,4410.128418,4496.410156,4514.871582,4402.05127,4511.282227,4551.922852,4400.128418,4574.743652,4389.743652,4528.333496,4523.717773,4601.794922,4419.743652,4391.282227,4522.436035,4576.922852,4558.077148,4545.384766,4385.0,4422.820313,4605.128418,4536.794922,4537.307617,4411.282227,4578.461426,4398.846191,4568.205078,4506.666504,4399.615234,4531.025879,4505.128418,2826.0,0.0,14.0,2560.0,38024.0,,,,0.0,4.0,4.0,4.0,4.0,4.0,4.0,4.0,4.0,4.0,4.0,4.0,4.0,4.0,4.0,4.0,4.0,4.0,4.0,4.0,4.0,4.0,4.0,4.0,4.0,4.0,4.0,4.0,4.0,4.0,4.0,4.0,4.0,100.0,,,,,,,,,,,,,,,,,,,,,,,,,,,,,,,,,,,33935.0,0.0,0.477395,0.294067,0.209473,0.801086,0.900012,-0.460505,0.058601,37.0,-19.666666,-25.166666,,,,,,,,,,,,,,,,,,,,,,,,,,,,,,,,,,,,,,,,,,,,,,,,,,,,,,,,,,,,,,,,,,,,,,,,,,,,,,,,,,,,,,,,,,,,,,,,,,,,,,,,,,,,,,,,,,,,,,,,,,,,,,,,,,,,,,,,,,,,,,,,,,,,,,,,,,,,,,,,
1763975431.766539,4670.0,0.0,4386.282227,4400.641113,4486.666504,4505.769043,4393.846191,4502.179688,4543.589844,4387.05127,4570.641113,4408.333496,4520.0,4515.256348,4592.563965,4412.179688,4381.538574,4516.794922,4573.846191,4545.384766,4538.333496,4376.666504,4419.871582,4602.563965,4531.922852,4533.461426,4414.102539,4575.512695,4391.282227,4562.692383,4498.974121,4391.794922,4528.077148,4496.282227,3005.0,0.0,14.0,2560.0,38032.0,,,,0.0,4.0,4.0,4.0,4.0,4.0,4.0,4.0,4.0,4.0,4.0,4.0,4.0,4.0,4.0,4.0,4.0,4.0,4.0,4.0,4.0,4.0,4.0,4.0,4.0,4.0,4.0,4.0,4.0,4.0,4.0,4.0,4.0,100.0,,,,,,,,,,,,,,,,,,,,,,,,,,,,,,,,,,,,,,,,,,,,,,,,,,,,,,,,,,,,,,,,,,,,,,,,,,,,,,,,,,,,,,,,,,,,,,,,,,,,,,,,,,,,,,,,,,,,,,,,,,,,,,,,,,,,,,,,,,,,,,,,,,,,,,,,,,,,,,,,,,,,,,,,,,,,,,,,,,,,,,,,,,,,,,,,,,,,,,,,,,,,,,
1763975431.770444,4671.0,0.0,4377.94873,4388.717773,4477.05127,4497.05127,4385.128418,4493.589844,4532.94873,4373.205078,4562.436035,4421.922852,4508.589844,4507.94873,4580.897461,4403.589844,4371.538574,4511.282227,4567.563965,4536.025879,4523.461426,4372.820313,4414.615234,4595.641113,4525.512695,4527.05127,4410.512695,4570.769043,4380.512695,4556.410156,4490.256348,4381.794922,4522.563965,4483.846191,2922.0,0.0,14.0,2560.0,38032.0,,,,0.0,4.0,4.0,4.0,4.0,4.0,4.0,4.0,4.0,4.0,4.0,4.0,4.0,4.0,4.0,4.0,4.0,4.0,4.0,4.0,4.0,4.0,4.0,4.0,4.0,4.0,4.0,4.0,4.0,4.0,4.0,4.0,4.0,100.0,,,,,,,,,,,,,,,,,,,,,,,,,,,,,,,,,,,,,,,,,,,,,,,,,,,,,,,,,,,,,,,,,,,,,,,,,,,,,,,,,,,,,,,,,,,,,,,,,,,,,,,,,,,,,,,,,,,,,,,,,,,,,,,,,,,,,,,,,,,,,,,,,,,,,,,,,,,,,,,,,,,,,,,,,,,,,,,,,,,,,,,,,,,,,,,,,,,,,,,,,,,,,,
1763975431.77435,4672.0,0.0,4376.922852,4381.922852,4473.589844,4494.102539,4381.922852,4490.256348,4526.922852,4366.410156,4554.102539,4426.666504,4500.897461,4507.94873,4575.769043,4399.102539,4366.794922,4517.94873,4566.025879,4542.307617,4515.512695,4377.307617,4415.128418,4594.230957,4524.487305,4525.384766,4406.153809,4570.512695,4375.897461,4556.153809,4487.436035,4377.436035,4520.897461,4476.410156,2850.0,0.0,14.0,2560.0,38040.0,,,,0.0,4.0,4.0,4.0,4.0,4.0,4.0,4.0,4.0,4.0,4.0,4.0,4.0,4.0,4.0,4.0,4.0,4.0,4.0,4.0,4.0,4.0,4.0,4.0,4.0,4.0,4.0,4.0,4.0,4.0,4.0,4.0,4.0,100.0,,,,,,,,,,,,,,,,,,,,,,,,,,,,,,,,,,,,,,,,,,,,,,,,,,,,,,,,,,,,,,,,,,,,,,,,,,,,,,,,,,,,,,,,,,,,,,,,,,,,,,,,,,,,,,,,,,,,,,,,,,,,,,,,,,,,,,,,,,,,,,,,,,,,,,,,,,,,,,,,,,,,,,,,,,,,,,,,,,,,,,,,,,,,,,,,,,,,,,,,,,,,,,
1763975431.778256,4673.0,0.0,4383.846191,4382.94873,4478.077148,4498.333496,4385.897461,4492.94873,4528.846191,4369.743652,4549.743652,4422.820313,4500.384766,4515.641113,4578.974121,4400.128418,4369.358887,4535.897461,4570.769043,4561.794922,4521.282227,4387.563965,4422.307617,4600.769043,4530.769043,4530.128418,4405.128418,4576.922852,4380.897461,4562.307617,4492.05127,4381.538574,4524.743652,4479.230957,2855.0,0.0,14.0,2560.0,38040.0,,,,0.0,4.0,4.0,4.0,4.0,4.0,4.0,4.0,4.0,4.0,4.0,4.0,4.0,4.0,4.0,4.0,4.0,4.0,4.0,4.0,4.0,4.0,4.0,4.0,4.0,4.0,4.0,4.0,4.0,4.0,4.0,4.0,4.0,100.0,,,,,,,,,,,,,,,,,,,,,,,,,,,,,,,,,,,33936.0,0.0,0.47732,0.294189,0.209473,0.801086,0.906361,-0.460017,0.051764,37.0,-20.833334,-26.333334,,,,,,,,,,,,,,,,,,,,,,,,,,,,,,,,,,,,,,,,,,,,,,,,,,,,,,,,,,,,,,,,,,,,,,,,,,,,,,,,,,,,,,,,,,,,,,,,,,,,,,,,,,,,,,,,,,,,,,,,,,,,,,,,,,,,,,,,,,,,,,,,,,,,,,,,,,,,,,,,
1763975431.782162,4674.0,0.0,4393.205078,4388.461426,4487.307617,4506.922852,4393.461426,4499.102539,4535.384766,4379.230957,4551.025879,4412.820313,4504.358887,4524.871582,4585.128418,4402.692383,4376.538574,4549.487305,4577.05127,4579.102539,4534.743652,4397.179688,4430.769043,4609.230957,4539.743652,4536.666504,4407.436035,4586.025879,4391.666504,4569.358887,4499.871582,4389.743652,4530.641113,4490.128418,2283.0,0.0,14.0,2560.0,38048.0,,,,0.0,4.0,4.0,4.0,4.0,4.0,4.0,4.0,4.0,4.0,4.0,4.0,4.0,4.0,4.0,4.0,4.0,4.0,4.0,4.0,4.0,4.0,4.0,4.0,4.0,4.0,4.0,4.0,4.0,4.0,4.0,4.0,4.0,100.0,,,,,,,,,,,,,,,,,,,,,,,,,,,,,,,,,,,,,,,,,,,,,,,,,,,,,,,,,,,,,,,,,,,,,,,,,,,,,,,,,,,,,,,,,,,,,,,,,,,,,,,,,,,,,,,,,,,,,,,,,,,,,,,,,,,,,,,,,,,,,,,,,,,,,,,,,,,,,,,,,,,,,,,,,,,,,,,,,,,,,,,,,,,,,,,,,,,,,,,,,,,,,,
1763975431.786068,4675.0,0.0,4399.230957,4393.589844,4496.538574,4515.897461,4400.256348,4506.410156,4541.538574,4389.102539,4556.794922,4400.897461,4507.692383,4529.871582,4586.538574,4402.820313,4384.102539,4542.563965,4578.461426,4580.128418,4544.615234,4401.922852,4434.358887,4612.436035,4545.769043,4539.358887,4411.794922,4592.692383,4401.410156,4572.307617,4505.769043,4396.666504,4534.358887,4503.077148,2975.0,0.0,14.0,2560.0,38048.0,,,,0.0,4.0,4.0,4.0,4.0,4.0,4.0,4.0,4.0,4.0,4.0,4.0,4.0,4.0,4.0,4.0,4.0,4.0,4.0,4.0,4.0,4.0,4.0,4.0,4.0,4.0,4.0,4.0,4.0,4.0,4.0,4.0,4.0,100.0,,,,,,,,,,,,,,,,,,,,,,,,,,,,,,,,,,,,,,,,,,,,,,,,,,,,,,,,,,,,,,,,,,,,,,,,,,,,,,,,,,,,,,,,,,,,,,,,,,,,,,,,,,,,,,,,,,,,,,,,,,,,,,,,,,,,,,,,,,,,,,,,,,,,,,,,,,,,,,,,,,,,,,,,,,,,,,,,,,,,,,,,,,,,,,,,,,,,,,,,,,,,,,
1763975431.789973,4676.0,0.0,4400.256348,4396.794922,4503.974121,4524.102539,4404.871582,4514.102539,4544.871582,4396.153809,4565.384766,4392.94873,4508.974121,4529.358887,4581.025879,4401.282227,4390.256348,4515.897461,4572.94873,4565.256348,4544.358887,4403.333496,4432.179688,4608.205078,4547.307617,4537.307617,4417.307617,4595.512695,4405.897461,4570.769043,4508.205078,4400.128418,4535.512695,4513.589844,2879.0,0.0,14.0,2561.0,38056.0,,,,0.0,4.0,4.0,4.0,4.0,4.0,4.0,4.0,4.0,4.0,4.0,4.0,4.0,4.0,4.0,4.0,4.0,4.0,4.0,4.0,4.0,4.0,4.0,4.0,4.0,4.0,4.0,4.0,4.0,4.0,4.0,4.0,4.0,100.0,,,,,,,,,,,,,,,,,,,,,,,,,,,,,,,,,,,,,,,,,,,,,,,,,,,,,,,,,,,,,,,,,,,,,,,,,,,,,,,,,,,,,,,,,,,,,,,,,,,,,,,,,,,,,,,,,,,,,,,,,,,,,,,,,,,,,,,,,,,,,,,,,,,,,,,,,,,,,,,,,,,,,,,,,,,,,,,,,,,,,,,,,,,,,,,,,,,,,,,,,,,,,,
1763975431.793879,4677.0,0.0,4398.205078,4398.846191,4509.358887,4531.025879,4408.205078,4521.153809,4546.025879,4400.128418,4573.846191,4391.794922,4508.974121,4525.897461,4571.538574,4400.512695,4394.487305,4485.769043,4563.205078,4546.282227,4534.230957,4404.871582,4427.307617,4599.230957,4545.128418,4532.94873,4422.179688,4595.512695,4404.230957,4567.563965,4508.717773,4401.025879,4536.282227,4518.974121,2409.0,0.0,14.0,2561.0,38056.0,,,,0.0,4.0,4.0,4.0,4.0,4.0,4.0,4.0,4.0,4.0,4.0,4.0,4.0,4.0,4.0,4.0,4.0,4.0,4.0,4.0,4.0,4.0,4.0,4.0,4.0,4.0,4.0,4.0,4.0,4.0,4.0,4.0,4.0,100.0,,,,,,,,,,,,,,,,,,,,,,,,,,,,,,,,,,,33937.0,0.0,0.477449,0.294189,0.209412,0.801025,0.89757,-0.474179,0.065438,36.5,-21.166666,-26.0,,,,,,,,,,,,,,,,,,,,,,,,,,,,,,,,,,,,,,,,,,,,,,,,,,,,,,,,,,,,,,,,,,,,,,,,,,,,,,,,,,,,,,,,,,,,,,,,,,,,,,,,,,,,,,,,,,,,,,,,,,,,,,,,,,,,,,,,,,,,,,,,,,,,,,,,,,,,,,,,
1763975431.797785,4678.0,0.0,4394.230957,4399.743652,4512.307617,4534.743652,4409.743652,4524.743652,4544.358887,4400.641113,4577.94873,4395.641113,4507.436035,4521.282227,4561.025879,4400.128418,4394.487305,4468.461426,4551.666504,4533.717773,4519.615234,4406.153809,4421.538574,4587.563965,4538.717773,4527.436035,4422.436035,4593.205078,4397.692383,4564.230957,4507.820313,4400.384766,4537.05127,4518.077148,2985.0,0.0,14.0,2562.0,38064.0,,,,0.0,4.0,4.0,4.0,4.0,4.0,4.0,4.0,4.0,4.0,4.0,4.0,4.0,4.0,4.0,4.0,4.0,4.0,4.0,4.0,4.0,4.0,4.0,4.0,4.0,4.0,4.0,4.0,4.0,4.0,4.0,4.0,4.0,100.0,,,,,,,,,,,,,,,,,,,,,,,,,,,,,,,,,,,,,,,,,,,,,,,,,,,,,,,,,,,,,,,,,,,,,,,,,,,,,,,,,,,,,,,,,,,,,,,,,,,,,,,,,,,,,,,,,,,,,,,,,,,,,,,,,,,,,,,,,,,,,,,,,,,,,,,,,,,,,,,,,,,,,,,,,,,,,,,,,,,,,,,,,,,,,,,,,,,,,,,,,,,,,,
1763975431.801691,4679.0,0.0,4388.846191,4399.358887,4511.794922,4533.077148,4408.717773,4523.205078,4539.743652,4397.307617,4575.512695,4400.641113,4503.717773,4515.384766,4550.641113,4397.179688,4387.692383,4467.820313,4539.230957,4529.487305,4505.897461,4404.871582,4414.358887,4574.615234,4528.077148,4520.769043,4415.0,4587.94873,4389.102539,4560.128418,4505.256348,4398.846191,4536.794922,4512.179688,2967.0,0.0,14.0,2562.0,38064.0,,,,0.0,4.0,4.0,4.0,4.0,4.0,4.0,4.0,4.0,4.0,4.0,4.0,4.0,4.0,4.0,4.0,4.0,4.0,4.0,4.0,4.0,4.0,4.0,4.0,4.0,4.0,4.0,4.0,4.0,4.0,4.0,4.0,4.0,100.0,,,,,,,,,,,,,,,,,,,,,,,,,,,,,,,,,,,,,,,,,,,,,,,,,,,,,,,,,,,,,,,,,,,,,,,,,,,,,,,,,,,,,,,,,,,,,,,,,,,,,,,,,,,,,,,,,,,,,,,,,,,,,,,,,,,,,,,,,,,,,,,,,,,,,,,,,,,,,,,,,,,,,,,,,,,,,,,,,,,,,,,,,,,,,,,,,,,,,,,,,,,,,,
1763975431.805596,4680.0,0.0,4384.230957,4400.128418,4509.743652,4528.974121,4407.563965,4519.615234,4535.0,4393.077148,4570.128418,4405.128418,4499.230957,4509.871582,4542.436035,4391.538574,4376.410156,4476.922852,4528.205078,4530.0,4497.05127,4400.897461,4407.05127,4563.461426,4517.05127,4514.615234,4403.974121,4582.820313,4384.230957,4556.922852,4503.846191,4398.974121,4537.05127,4507.179688,2652.0,0.0,14.0,2563.0,38071.0,,,,0.0,4.0,4.0,4.0,4.0,4.0,4.0,4.0,4.0,4.0,4.0,4.0,4.0,4.0,4.0,4.0,4.0,4.0,4.0,4.0,4.0,4.0,4.0,4.0,4.0,4.0,4.0,4.0,4.0,4.0,4.0,4.0,4.0,100.0,1.0,25.0,1.0,1.0,1.0,1.0,1.0,1.0,1.0,1.0,1.0,1.0,1.0,1.0,1.0,1.0,1.0,1.0,1.0,1.0,1.0,1.0,1.0,1.0,1.0,1.0,1.0,1.0,1.0,1.0,1.0,1.0,1.0,1.0,,,,,,,,,,,,,4.808897,10.676102,4.37464,5.050002,7.213943,5.299376,2.593386,2.749431,4.818949,7.092024,5.247555,2.045693,3.765573,5.746471,7.552178,4.790285,2.210196,3.249333,5.104356,7.465503,3.88515,1.939261,2.573371,3.575112,5.298707,4.288286,3.20288,2.254303,3.111007,4.911141,3.745899,6.938932,3.133408,4.910907,7.832686,3.276388,2.780405,3.222685,5.651649,8.052787,3.735283,2.286886,2.563529,4.050538,7.228932,2.557971,5.791824,3.570274,11.020603,12.427345,1.935763,7.185521,2.544267,4.32886,7.484071,3.832548,18.708948,3.653253,4.980073,7.357838,2.722154,21.524828,3.077492,5.238698,8.781328,0.355312,2.740211,1.600441,3.418611,7.376132,0.462608,2.034931,2.115782,4.514781,8.659372,2.944035,5.904173,3.415051,7.153563,13.410811,3.479662,29.520531,4.455917,4.535269,7.587693,1.415749,9.39433,3.696046,6.181847,11.66516,1.865396,7.2795,6.301591,5.974134,10.608369,3.076879,5.662553,3.878366,6.471104,7.676276,2.560561,6.630435,4.425713,4.866175,7.856969,2.645742,28.9018,5.610023,5.667757,9.182456,4.709528,22.188908,5.271615,6.169216,8.707079,3.156602,10.406708,4.490699,5.126162,8.076966,5.901204,4.489992,5.373801,5.757228,7.769533,5.67437,3.115469,4.176406,5.804872,7.761528,6.706148,4.127589,3.949362,6.058929,8.088072,5.717016,9.932114,4.34925,5.902599,8.331509,6.551628,5.171178,3.627235,5.115213,7.36762,6.949858,2.734373,3.689472,5.865218,7.578884,6.922859,3.838755,3.979386,6.479867,8.465274,6.70167,2.467149,4.328541,6.477307,7.967682
1763975431.809502,4681.0,0.0,4385.512695,4406.922852,4511.282227,4529.102539,4411.410156,4520.897461,4536.153809,4394.615234,4569.615234,4410.256348,4498.717773,4509.102539,4540.769043,4388.205078,4369.230957,4488.461426,4523.974121,4533.461426,4496.282227,4398.077148,4404.743652,4560.0,4513.846191,4513.974121,4399.230957,4583.333496,4389.230957,4559.230957,4508.333496,4406.025879,4542.436035,4511.282227,2838.0,0.0,14.0,2563.0,38071.0,,,,0.0,4.0,4.0,4.0,4.0,4.0,4.0,4.0,4.0,4.0,4.0,4.0,4.0,4.0,4.0,4.0,4.0,4.0,4.0,4.0,4.0,4.0,4.0,4.0,4.0,4.0,4.0,4.0,4.0,4.0,4.0,4.0,4.0,100.0,,,,,,,,,,,,,,,,,,,,,,,,,,,,,,,,,,,33938.0,0.0,0.47753,0.294312,0.20929,0.800964,0.882432,-0.446344,0.054206,35.0,-21.0,-25.833334,,,,,,,,,,,,,,,,,,,,,,,,,,,,,,,,,,,,,,,,,,,,,,,,,,,,,,,,,,,,,,,,,,,,,,,,,,,,,,,,,,,,,,,,,,,,,,,,,,,,,,,,,,,,,,,,,,,,,,,,,,,,,,,,,,,,,,,,,,,,,,,,,,,,,,,,,,,,,,,,
1763975431.813408,4682.0,0.0,4396.538574,4422.05127,4521.538574,4538.974121,4424.102539,4531.666504,4547.436035,4406.794922,4580.256348,4417.179688,4506.666504,4517.307617,4549.230957,4393.717773,4374.615234,4500.128418,4531.025879,4542.05127,4505.256348,4401.538574,4412.436035,4568.846191,4523.974121,4523.461426,4408.846191,4593.846191,4405.641113,4570.769043,4522.05127,4422.307617,4556.538574,4527.94873,2648.0,0.0,14.0,2564.0,38079.0,,,,0.0,4.0,4.0,4.0,4.0,4.0,4.0,4.0,4.0,4.0,4.0,4.0,4.0,4.0,4.0,4.0,4.0,4.0,4.0,4.0,4.0,4.0,4.0,4.0,4.0,4.0,4.0,4.0,4.0,4.0,4.0,4.0,4.0,100.0,,,,,,,,,,,,,,,,,,,,,,,,,,,,,,,,,,,,,,,,,,,,,,,,,,,,,,,,,,,,,,,,,,,,,,,,,,,,,,,,,,,,,,,,,,,,,,,,,,,,,,,,,,,,,,,,,,,,,,,,,,,,,,,,,,,,,,,,,,,,,,,,,,,,,,,,,,,,,,,,,,,,,,,,,,,,,,,,,,,,,,,,,,,,,,,,,,,,,,,,,,,,,,
1763975431.817314,4683.0,0.0,4415.256348,4441.666504,4538.846191,4557.179688,4442.563965,4549.102539,4566.538574,4426.922852,4599.743652,4424.487305,4522.307617,4533.717773,4566.666504,4409.743652,4393.717773,4513.205078,4547.94873,4557.436035,4522.692383,4412.563965,4429.615234,4587.94873,4544.615234,4542.05127,4430.897461,4611.666504,4427.436035,4589.358887,4541.794922,4442.692383,4576.282227,4551.410156,2988.0,0.0,14.0,2564.0,38079.0,,,,0.0,4.0,4.0,4.0,4.0,4.0,4.0,4.0,4.0,4.0,4.0,4.0,4.0,4.0,4.0,4.0,4.0,4.0,4.0,4.0,4.0,4.0,4.0,4.0,4.0,4.0,4.0,4.0,4.0,4.0,4.0,4.0,4.0,100.0,,,,,,,,,,,,,,,,,,,,,,,,,,,,,,,,,,,,,,,,,,,,,,,,,,,,,,,,,,,,,,,,,,,,,,,,,,,,,,,,,,,,,,,,,,,,,,,,,,,,,,,,,,,,,,,,,,,,,,,,,,,,,,,,,,,,,,,,,,,,,,,,,,,,,,,,,,,,,,,,,,,,,,,,,,,,,,,,,,,,,,,,,,,,,,,,,,,,,,,,,,,,,,
1763975431.82122,4684.0,0.0,4432.436035,4455.641113,4553.717773,4573.974121,4456.666504,4564.102539,4584.102539,4444.743652,4617.05127,4428.846191,4538.205078,4550.384766,4585.256348,4428.974121,4416.538574,4526.666504,4566.282227,4574.743652,4542.05127,4424.487305,4447.179688,4606.794922,4563.974121,4559.743652,4452.563965,4626.666504,4442.692383,4605.641113,4557.563965,4455.897461,4591.282227,4567.94873,2937.0,0.0,14.0,2565.0,38087.0,,,,0.0,4.0,4.0,4.0,4.0,4.0,4.0,4.0,4.0,4.0,4.0,4.0,4.0,4.0,4.0,4.0,4.0,4.0,4.0,4.0,4.0,4.0,4.0,4.0,4.0,4.0,4.0,4.0,4.0,4.0,4.0,4.0,4.0,100.0,,,,,,,,,,,,,,,,,,,,,,,,,,,,,,,,,,,,,,,,,,,,,,,,,,,,,,,,,,,,,,,,,,,,,,,,,,,,,,,,,,,,,,,,,,,,,,,,,,,,,,,,,,,,,,,,,,,,,,,,,,,,,,,,,,,,,,,,,,,,,,,,,,,,,,,,,,,,,,,,,,,,,,,,,,,,,,,,,,,,,,,,,,,,,,,,,,,,,,,,,,,,,,
