Timestamp,EEG.Counter,EEG.Interpolated,EEG.Cz,EEG.Fz,EEG.Fp1,EEG.F7,EEG.F3,EEG.FC1,EEG.C3,EEG.FC5,EEG.FT9,EEG.T7,EEG.CP5,EEG.CP1,EEG.P3,EEG.P7,EEG.PO9,EEG.O1,EEG.Pz,EEG.Oz,EEG.O2,EEG.PO10,EEG.P8,EEG.P4,EEG.CP2,EEG.CP6,EEG.T8,EEG.FT10,EEG.FC6,EEG.C4,EEG.FC2,EEG.F4,EEG.F8,EEG.Fp2,EEG.RawCq,EEG.Battery,EEG.BatteryPercent,EEG.FwBufferSize,EEG.FwClockTime,MarkerIndex,MarkerType,MarkerValueInt,EEG.MarkerHardware,CQ.Cz,CQ.Fz,CQ.Fp1,CQ.F7,CQ.F3,CQ.FC1,CQ.C3,CQ.FC5,CQ.FT9,CQ.T7,CQ.CP5,CQ.CP1,CQ.P3,CQ.P7,CQ.PO9,CQ.O1,CQ.Pz,CQ.Oz,CQ.O2,CQ.PO10,CQ.P8,CQ.P4,CQ.CP2,CQ.CP6,CQ.T8,CQ.FT10,CQ.FC6,CQ.C4,CQ.FC2,CQ.F4,CQ.F8,CQ.Fp2,CQ.Overall,EQ.SampleRateQuality,EQ.OVERALL,EQ.Cz,EQ.Fz,EQ.Fp1,EQ.F7,EQ.F3,EQ.FC1,EQ.C3,EQ.FC5,EQ.FT9,EQ.T7,EQ.CP5,EQ.CP1,EQ.P3,EQ.P7,EQ.PO9,EQ.O1,EQ.Pz,EQ.Oz,EQ.O2,EQ.PO10,EQ.P8,EQ.P4,EQ.CP2,EQ.CP6,EQ.T8,EQ.FT10,EQ.FC6,EQ.C4,EQ.FC2,EQ.F4,EQ.F8,EQ.Fp2,MOT.CounterMems,MOT.InterpolatedMems,MOT.Q0,MOT.Q1,MOT.Q2,MOT.Q3,MOT.AccX,MOT.AccY,MOT.AccZ,MOT.MagX,MOT.MagY,MOT.MagZ,POW.Cz.Theta,POW.Cz.Alpha,POW.Cz.BetaL,POW.Cz.BetaH,POW.Cz.Gamma,POW.Fz.Theta,POW.Fz.Alpha,POW.Fz.BetaL,POW.Fz.BetaH,POW.Fz.Gamma,POW.Fp1.Theta,POW.Fp1.Alpha,POW.Fp1.BetaL,POW.Fp1.BetaH,POW.Fp1.Gamma,POW.F7.Theta,POW.F7.Alpha,POW.F7.BetaL,POW.F7.BetaH,POW.F7.Gamma,POW.F3.Theta,POW.F3.Alpha,POW.F3.BetaL,POW.F3.BetaH,POW.F3.Gamma,POW.FC1.Theta,POW.FC1.Alpha,POW.FC1.BetaL,POW.FC1.BetaH,POW.FC1.Gamma,POW.C3.Theta,POW.C3.Alpha,POW.C3.BetaL,POW.C3.BetaH,POW.C3.Gamma,POW.FC5.Theta,POW.FC5.Alpha,POW.FC5.BetaL,POW.FC5.BetaH,POW.FC5.Gamma,POW.FT9.Theta,POW.FT9.Alpha,POW.FT9.BetaL,POW.FT9.BetaH,POW.FT9.Gamma,POW.T7.Theta,POW.T7.Alpha,POW.T7.BetaL,POW.T7.BetaH,POW.T7.Gamma,POW.CP5.Theta,POW.CP5.Alpha,POW.CP5.BetaL,POW.CP5.BetaH,POW.CP5.Gamma,POW.CP1.Theta,POW.CP1.Alpha,POW.CP1.BetaL,POW.CP1.BetaH,POW.CP1.Gamma,POW.P3.Theta,POW.P3.Alpha,POW.P3.BetaL,POW.P3.BetaH,POW.P3.Gamma,POW.P7.Theta,POW.P7.Alpha,POW.P7.BetaL,POW.P7.BetaH,POW.P7.Gamma,POW.PO9.Theta,POW.PO9.Alpha,POW.PO9.BetaL,POW.PO9.BetaH,POW.PO9.Gamma,POW.O1.Theta,POW.O1.Alpha,POW.O1.BetaL,POW.O1.BetaH,POW.O1.Gamma,POW.Pz.Theta,POW.Pz.Alpha,POW.Pz.BetaL,POW.Pz.BetaH,POW.Pz.Gamma,POW.Oz.Theta,POW.Oz.Alpha,POW.Oz.BetaL,POW.Oz.BetaH,POW.Oz.Gamma,POW.O2.Theta,POW.O2.Alpha,POW.O2.BetaL,POW.O2.BetaH,POW.O2.Gamma,POW.PO10.Theta,POW.PO10.Alpha,POW.PO10.BetaL,POW.PO10.BetaH,POW.PO10.Gamma,POW.P8.Theta,POW.P8.Alpha,POW.P8.BetaL,POW.P8.BetaH,POW.P8.Gamma,POW.P4.Theta,POW.P4.Alpha,POW.P4.BetaL,POW.P4.BetaH,POW.P4.Gamma,POW.CP2.Theta,POW.CP2.Alpha,POW.CP2.BetaL,POW.CP2.BetaH,POW.CP2.Gamma,POW.CP6.Theta,POW.CP6.Alpha,POW.CP6.BetaL,POW.CP6.BetaH,POW.CP6.Gamma,POW.T8.Theta,POW.T8.Alpha,POW.T8.BetaL,POW.T8.BetaH,POW.T8.Gamma,POW.FT10.Theta,POW.FT10.Alpha,POW.FT10.BetaL,POW.FT10.BetaH,POW.FT10.Gamma,POW.FC6.Theta,POW.FC6.Alpha,POW.FC6.BetaL,POW.FC6.BetaH,POW.FC6.Gamma,POW.C4.Theta,POW.C4.Alpha,POW.C4.BetaL,POW.C4.BetaH,POW.C4.Gamma,POW.FC2.Theta,POW.FC2.Alpha,POW.FC2.BetaL,POW.FC2.BetaH,POW.FC2.Gamma,POW.F4.Theta,POW.F4.Alpha,POW.F4.BetaL,POW.F4.BetaH,POW.F4.Gamma,POW.F8.Theta,POW.F8.Alpha,POW.F8.BetaL,POW.F8.BetaH,POW.F8.Gamma,POW.Fp2.Theta,POW.Fp2.Alpha,POW.Fp2.BetaL,POW.Fp2.BetaH,POW.Fp2.Gamma
1763975478.953641,16751.0,0.0,4394.358887,4395.384766,4519.102539,4532.563965,4389.743652,4532.179688,4530.769043,4382.692383,4574.743652,4416.153809,4497.820313,4526.282227,4572.179688,4391.794922,4401.153809,4487.05127,4560.769043,4532.436035,4536.666504,4400.769043,4407.436035,4584.615234,4536.538574,4500.641113,4412.94873,4589.615234,4397.692383,4568.974121,4509.102539,4404.230957,4546.922852,4506.922852,2844.0,0.0,13.0,1024.0,19677.0,7.0,1.0,5.0,0.0,4.0,4.0,4.0,4.0,4.0,4.0,4.0,4.0,4.0,4.0,4.0,4.0,4.0,4.0,4.0,4.0,4.0,4.0,4.0,4.0,4.0,4.0,4.0,4.0,4.0,4.0,4.0,4.0,4.0,4.0,4.0,4.0,100.0,,,,,,,,,,,,,,,,,,,,,,,,,,,,,,,,,,,,,,,,,,,,,,,,,,,,,,,,,,,,,,,,,,,,,,,,,,,,,,,,,,,,,,,,,,,,,,,,,,,,,,,,,,,,,,,,,,,,,,,,,,,,,,,,,,,,,,,,,,,,,,,,,,,,,,,,,,,,,,,,,,,,,,,,,,,,,,,,,,,,,,,,,,,,,,,,,,,,,,,,,,,,,,
1763975478.957547,16752.0,0.0,4384.230957,4386.282227,4503.846191,4521.410156,4382.436035,4523.333496,4522.692383,4372.436035,4564.358887,4409.102539,4488.589844,4519.615234,4565.0,4390.512695,4391.922852,4488.589844,4551.538574,4523.589844,4520.128418,4388.077148,4396.538574,4570.641113,4523.589844,4490.0,4402.563965,4582.179688,4389.230957,4556.794922,4500.256348,4395.384766,4539.102539,4499.743652,2943.0,0.0,13.0,1280.0,19685.0,,,,0.0,4.0,4.0,4.0,4.0,4.0,4.0,4.0,4.0,4.0,4.0,4.0,4.0,4.0,4.0,4.0,4.0,4.0,4.0,4.0,4.0,4.0,4.0,4.0,4.0,4.0,4.0,4.0,4.0,4.0,4.0,4.0,4.0,100.0,,,,,,,,,,,,,,,,,,,,,,,,,,,,,,,,,,,,,,,,,,,,,,,,,,,,,,,,,,,,,,,,,,,,,,,,,,,,,,,,,,,,,,,,,,,,,,,,,,,,,,,,,,,,,,,,,,,,,,,,,,,,,,,,,,,,,,,,,,,,,,,,,,,,,,,,,,,,,,,,,,,,,,,,,,,,,,,,,,,,,,,,,,,,,,,,,,,,,,,,,,,,,,
1763975478.961453,16753.0,0.0,4388.205078,4391.282227,4505.384766,4525.128418,4387.179688,4524.871582,4528.846191,4376.538574,4568.589844,4412.307617,4493.717773,4527.307617,4574.615234,4400.641113,4392.307617,4516.794922,4557.820313,4535.256348,4523.333496,4388.333496,4400.256348,4573.589844,4527.179688,4497.05127,4405.769043,4584.358887,4395.769043,4561.538574,4505.769043,4399.871582,4543.974121,4507.05127,3070.0,0.0,13.0,1280.0,19685.0,,,,0.0,4.0,4.0,4.0,4.0,4.0,4.0,4.0,4.0,4.0,4.0,4.0,4.0,4.0,4.0,4.0,4.0,4.0,4.0,4.0,4.0,4.0,4.0,4.0,4.0,4.0,4.0,4.0,4.0,4.0,4.0,4.0,4.0,100.0,,,,,,,,,,,,,,,,,,,,,,,,,,,,,,,,,,,36956.0,0.0,0.464836,0.309326,0.2099,0.802612,0.874618,-0.482969,0.046881,37.333332,-20.0,-25.5,,,,,,,,,,,,,,,,,,,,,,,,,,,,,,,,,,,,,,,,,,,,,,,,,,,,,,,,,,,,,,,,,,,,,,,,,,,,,,,,,,,,,,,,,,,,,,,,,,,,,,,,,,,,,,,,,,,,,,,,,,,,,,,,,,,,,,,,,,,,,,,,,,,,,,,,,,,,,,,,
1763975478.965359,16754.0,0.0,4399.743652,4403.333496,4519.358887,4537.820313,4398.077148,4531.282227,4542.436035,4389.615234,4581.153809,4418.205078,4506.153809,4541.282227,4590.641113,4413.333496,4399.102539,4550.128418,4572.307617,4556.922852,4541.538574,4397.94873,4412.563965,4586.666504,4540.384766,4512.436035,4416.538574,4589.871582,4408.333496,4575.641113,4517.820313,4410.512695,4553.589844,4520.512695,2824.0,0.0,13.0,1536.0,19693.0,,,,0.0,4.0,4.0,4.0,4.0,4.0,4.0,4.0,4.0,4.0,4.0,4.0,4.0,4.0,4.0,4.0,4.0,4.0,4.0,4.0,4.0,4.0,4.0,4.0,4.0,4.0,4.0,4.0,4.0,4.0,4.0,4.0,4.0,100.0,,,,,,,,,,,,,,,,,,,,,,,,,,,,,,,,,,,,,,,,,,,,,,,,,,,,,,,,,,,,,,,,,,,,,,,,,,,,,,,,,,,,,,,,,,,,,,,,,,,,,,,,,,,,,,,,,,,,,,,,,,,,,,,,,,,,,,,,,,,,,,,,,,,,,,,,,,,,,,,,,,,,,,,,,,,,,,,,,,,,,,,,,,,,,,,,,,,,,,,,,,,,,,
1763975478.969265,16755.0,0.0,4403.589844,4407.563965,4530.256348,4544.102539,4402.692383,4530.256348,4548.846191,4396.410156,4587.436035,4414.230957,4510.641113,4545.128418,4594.871582,4416.153809,4401.538574,4559.871582,4577.94873,4566.282227,4553.461426,4403.717773,4418.589844,4592.05127,4545.512695,4518.461426,4419.102539,4587.563965,4411.410156,4581.153809,4520.897461,4412.820313,4553.461426,4524.358887,3020.0,0.0,13.0,1536.0,19693.0,,,,0.0,4.0,4.0,4.0,4.0,4.0,4.0,4.0,4.0,4.0,4.0,4.0,4.0,4.0,4.0,4.0,4.0,4.0,4.0,4.0,4.0,4.0,4.0,4.0,4.0,4.0,4.0,4.0,4.0,4.0,4.0,4.0,4.0,100.0,,,,,,,,,,,,,,,,,,,,,,,,,,,,,,,,,,,,,,,,,,,,,,,,,,,,,,,,,,,,,,,,,,,,,,,,,,,,,,,,,,,,,,,,,,,,,,,,,,,,,,,,,,,,,,,,,,,,,,,,,,,,,,,,,,,,,,,,,,,,,,,,,,,,,,,,,,,,,,,,,,,,,,,,,,,,,,,,,,,,,,,,,,,,,,,,,,,,,,,,,,,,,,
1763975478.973171,16756.0,0.0,4391.922852,4396.666504,4526.538574,4534.871582,4394.487305,4516.410156,4540.256348,4388.205078,4580.0,4397.307617,4499.358887,4531.794922,4579.230957,4405.769043,4392.820313,4536.666504,4565.0,4552.179688,4543.205078,4396.538574,4410.384766,4579.358887,4532.94873,4506.666504,4405.256348,4574.871582,4399.358887,4568.333496,4508.717773,4400.256348,4538.846191,4512.307617,3009.0,0.0,13.0,1792.0,19700.0,,,,0.0,4.0,4.0,4.0,4.0,4.0,4.0,4.0,4.0,4.0,4.0,4.0,4.0,4.0,4.0,4.0,4.0,4.0,4.0,4.0,4.0,4.0,4.0,4.0,4.0,4.0,4.0,4.0,4.0,4.0,4.0,4.0,4.0,100.0,,,,,,,,,,,,,,,,,,,,,,,,,,,,,,,,,,,,,,,,,,,,,,,,,,,,,,,,,,,,,,,,,,,,,,,,,,,,,,,,,,,,,,,,,,,,,,,,,,,,,,,,,,,,,,,,,,,,,,,,,,,,,,,,,,,,,,,,,,,,,,,,,,,,,,,,,,,,,,,,,,,,,,,,,,,,,,,,,,,,,,,,,,,,,,,,,,,,,,,,,,,,,,
1763975478.977077,16757.0,0.0,4373.974121,4379.487305,4513.461426,4518.077148,4380.512695,4498.077148,4524.743652,4372.436035,4567.563965,4378.461426,4481.538574,4511.666504,4555.769043,4392.94873,4379.743652,4499.358887,4541.794922,4527.05127,4517.307617,4382.307617,4395.641113,4557.563965,4512.692383,4487.563965,4385.641113,4563.589844,4384.102539,4547.436035,4491.794922,4383.974121,4522.179688,4496.538574,2928.0,0.0,13.0,1792.0,19700.0,,,,0.0,4.0,4.0,4.0,4.0,4.0,4.0,4.0,4.0,4.0,4.0,4.0,4.0,4.0,4.0,4.0,4.0,4.0,4.0,4.0,4.0,4.0,4.0,4.0,4.0,4.0,4.0,4.0,4.0,4.0,4.0,4.0,4.0,100.0,,,,,,,,,,,,,,,,,,,,,,,,,,,,,,,,,,,36957.0,0.0,0.464809,0.309326,0.209961,0.802612,0.886827,-0.482969,0.049322,38.0,-21.0,-24.166666,,,,,,,,,,,,,,,,,,,,,,,,,,,,,,,,,,,,,,,,,,,,,,,,,,,,,,,,,,,,,,,,,,,,,,,,,,,,,,,,,,,,,,,,,,,,,,,,,,,,,,,,,,,,,,,,,,,,,,,,,,,,,,,,,,,,,,,,,,,,,,,,,,,,,,,,,,,,,,,,
1763975478.980983,16758.0,0.0,4368.974121,4374.871582,4507.94873,4513.461426,4376.666504,4492.05127,4520.512695,4367.94873,4567.436035,4374.487305,4476.282227,4505.128418,4547.436035,4393.974121,4376.922852,4480.0,4529.615234,4517.05127,4501.410156,4378.589844,4392.820313,4548.717773,4506.666504,4482.692383,4382.436035,4570.641113,4385.897461,4540.256348,4490.0,4383.205078,4524.358887,4497.563965,2999.0,0.0,13.0,2048.0,19708.0,,,,0.0,4.0,4.0,4.0,4.0,4.0,4.0,4.0,4.0,4.0,4.0,4.0,4.0,4.0,4.0,4.0,4.0,4.0,4.0,4.0,4.0,4.0,4.0,4.0,4.0,4.0,4.0,4.0,4.0,4.0,4.0,4.0,4.0,100.0,,,,,,,,,,,,,,,,,,,,,,,,,,,,,,,,,,,,,,,,,,,,,,,,,,,,,,,,,,,,,,,,,,,,,,,,,,,,,,,,,,,,,,,,,,,,,,,,,,,,,,,,,,,,,,,,,,,,,,,,,,,,,,,,,,,,,,,,,,,,,,,,,,,,,,,,,,,,,,,,,,,,,,,,,,,,,,,,,,,,,,,,,,,,,,,,,,,,,,,,,,,,,,
1763975478.984889,16759.0,0.0,4389.102539,4394.871582,4523.974121,4534.102539,4393.205078,4508.589844,4539.230957,4387.307617,4590.256348,4394.358887,4495.512695,4524.615234,4568.205078,4415.384766,4394.358887,4498.077148,4543.717773,4539.358887,4516.410156,4399.102539,4413.333496,4567.563965,4528.717773,4504.871582,4408.077148,4602.05127,4414.102539,4560.897461,4513.589844,4408.846191,4555.256348,4525.0,2944.0,0.0,13.0,2048.0,19708.0,,,,0.0,4.0,4.0,4.0,4.0,4.0,4.0,4.0,4.0,4.0,4.0,4.0,4.0,4.0,4.0,4.0,4.0,4.0,4.0,4.0,4.0,4.0,4.0,4.0,4.0,4.0,4.0,4.0,4.0,4.0,4.0,4.0,4.0,100.0,,,,,,,,,,,,,,,,,,,,,,,,,,,,,,,,,,,,,,,,,,,,,,,,,,,,,,,,,,,,,,,,,,,,,,,,,,,,,,,,,,,,,,,,,,,,,,,,,,,,,,,,,,,,,,,,,,,,,,,,,,,,,,,,,,,,,,,,,,,,,,,,,,,,,,,,,,,,,,,,,,,,,,,,,,,,,,,,,,,,,,,,,,,,,,,,,,,,,,,,,,,,,,
1763975478.988795,16760.0,0.0,4426.538574,4431.922852,4557.436035,4572.94873,4423.461426,4541.025879,4573.846191,4424.358887,4627.820313,4431.410156,4531.538574,4562.05127,4609.358887,4447.692383,4426.410156,4544.615234,4578.846191,4585.512695,4557.307617,4438.717773,4449.358887,4606.538574,4569.230957,4544.358887,4452.692383,4643.974121,4456.922852,4601.410156,4552.820313,4450.897461,4602.563965,4567.436035,2865.0,0.0,13.0,2304.0,19716.0,,,,0.0,4.0,4.0,4.0,4.0,4.0,4.0,4.0,4.0,4.0,4.0,4.0,4.0,4.0,4.0,4.0,4.0,4.0,4.0,4.0,4.0,4.0,4.0,4.0,4.0,4.0,4.0,4.0,4.0,4.0,4.0,4.0,4.0,100.0,,,,,,,,,,,,,,,,,,,,,,,,,,,,,,,,,,,,,,,,,,,,,,,,,,,,,,,,,,,,,,,,,,,,,,,,,,,,,,,,,,,,,,,,,,,,,,,,,,,,,,,,,,,,,,,,,,,,,,,,,,,,,,,,,,,,,,,,,,,,,,,,,,,,,,,,,,,,,,,,,,,,,,,,,,,,,,,,,,,,,,,,,,,,,,,,,,,,,,,,,,,,,,
1763975478.992701,16761.0,0.0,4456.025879,4462.179688,4586.794922,4604.743652,4447.179688,4568.077148,4601.153809,4454.487305,4656.410156,4465.897461,4560.0,4591.794922,4643.205078,4469.487305,4454.871582,4587.179688,4610.641113,4623.974121,4594.487305,4473.205078,4476.666504,4638.077148,4599.871582,4573.717773,4487.563965,4670.0,4486.410156,4634.487305,4581.922852,4482.94873,4637.436035,4597.563965,2860.0,0.0,13.0,2304.0,19716.0,,,,0.0,4.0,4.0,4.0,4.0,4.0,4.0,4.0,4.0,4.0,4.0,4.0,4.0,4.0,4.0,4.0,4.0,4.0,4.0,4.0,4.0,4.0,4.0,4.0,4.0,4.0,4.0,4.0,4.0,4.0,4.0,4.0,4.0,100.0,,,,,,,,,,,,,,,,,,,,,,,,,,,,,,,,,,,36958.0,0.0,0.464768,0.309387,0.209961,0.802612,0.881455,-0.481992,0.046881,38.166668,-19.666666,-25.5,,,,,,,,,,,,,,,,,,,,,,,,,,,,,,,,,,,,,,,,,,,,,,,,,,,,,,,,,,,,,,,,,,,,,,,,,,,,,,,,,,,,,,,,,,,,,,,,,,,,,,,,,,,,,,,,,,,,,,,,,,,,,,,,,,,,,,,,,,,,,,,,,,,,,,,,,,,,,,,,
1763975478.996607,16762.0,0.0,4453.205078,4461.666504,4588.461426,4603.589844,4444.358887,4568.846191,4598.461426,4452.436035,4652.94873,4476.538574,4557.05127,4588.974121,4642.436035,4463.077148,4459.615234,4591.153809,4612.307617,4622.692383,4595.897461,4475.256348,4471.538574,4633.717773,4593.333496,4567.436035,4486.538574,4659.871582,4478.974121,4633.333496,4577.692383,4480.256348,4633.717773,4591.794922,2762.0,0.0,13.0,2560.0,19724.0,,,,0.0,4.0,4.0,4.0,4.0,4.0,4.0,4.0,4.0,4.0,4.0,4.0,4.0,4.0,4.0,4.0,4.0,4.0,4.0,4.0,4.0,4.0,4.0,4.0,4.0,4.0,4.0,4.0,4.0,4.0,4.0,4.0,4.0,100.0,,,,,,,,,,,,,,,,,,,,,,,,,,,,,,,,,,,,,,,,,,,,,,,,,,,,,,,,,,,,,,,,,,,,,,,,,,,,,,,,,,,,,,,,,,,,,,,,,,,,,,,,,,,,,,,,,,,,,,,,,,,,,,,,,,,,,,,,,,,,,,,,,,,,,,,,,,,,,,,,,,,,,,,,,,,,,,,,,,,,,,,,,,,,,,,,,,,,,,,,,,,,,,
1763975479.000513,16763.0,0.0,4413.461426,4425.0,4555.256348,4563.589844,4411.410156,4538.461426,4560.641113,4412.307617,4612.563965,4452.563965,4517.820313,4548.717773,4601.282227,4427.307617,4433.205078,4545.512695,4576.025879,4574.358887,4553.077148,4436.025879,4430.256348,4588.205078,4546.153809,4522.94873,4446.153809,4614.487305,4432.94873,4592.436035,4537.179688,4439.358887,4588.205078,4547.563965,3009.0,0.0,13.0,2560.0,19724.0,,,,0.0,4.0,4.0,4.0,4.0,4.0,4.0,4.0,4.0,4.0,4.0,4.0,4.0,4.0,4.0,4.0,4.0,4.0,4.0,4.0,4.0,4.0,4.0,4.0,4.0,4.0,4.0,4.0,4.0,4.0,4.0,4.0,4.0,100.0,,,,,,,,,,,,,,,,,,,,,,,,,,,,,,,,,,,,,,,,,,,,,,,,,,,,,,,,,,,,,,,,,,,,,,,,,,,,,,,,,,,,,,,,,,,,,,,,,,,,,,,,,,,,,,,,,,,,,,,,,,,,,,,,,,,,,,,,,,,,,,,,,,,,,,,,,,,,,,,,,,,,,,,,,,,,,,,,,,,,,,,,,,,,,,,,,,,,,,,,,,,,,,
1763975479.004419,16764.0,0.0,4357.94873,4371.282227,4503.333496,4504.358887,4365.128418,4493.461426,4506.794922,4354.871582,4555.128418,4402.563965,4462.179688,4492.563965,4541.666504,4380.0,4386.922852,4474.358887,4520.769043,4505.0,4489.743652,4374.230957,4373.974121,4525.641113,4483.846191,4464.102539,4389.102539,4557.179688,4372.179688,4533.589844,4482.436035,4382.179688,4524.871582,4488.077148,2961.0,0.0,13.0,2560.0,19732.0,,,,0.0,4.0,4.0,4.0,4.0,4.0,4.0,4.0,4.0,4.0,4.0,4.0,4.0,4.0,4.0,4.0,4.0,4.0,4.0,4.0,4.0,4.0,4.0,4.0,4.0,4.0,4.0,4.0,4.0,4.0,4.0,4.0,4.0,100.0,,,,,,,,,,,,,,,,,,,,,,,,,,,,,,,,,,,,,,,,,,,,,,,,,,,,,,,,,,,,,,,,,,,,,,,,,,,,,,,,,,,,,,,,,,,,,,,,,,,,,,,,,,,,,,,,,,,,,,,,,,,,,,,,,,,,,,,,,,,,,,,,,,,,,,,,,,,,,,,,,,,,,,,,,,,,,,,,,,,,,,,,,,,,,,,,,,,,,,,,,,,,,,
1763975479.008325,16765.0,0.0,4320.128418,4332.179688,4461.794922,4458.846191,4331.922852,4461.538574,4468.589844,4313.974121,4512.563965,4352.307617,4421.666504,4454.102539,4499.615234,4346.922852,4345.0,4420.384766,4480.641113,4456.025879,4445.641113,4324.358887,4334.871582,4484.487305,4444.743652,4425.384766,4349.230957,4518.846191,4331.282227,4491.922852,4445.769043,4342.05127,4479.871582,4446.922852,2822.0,0.0,13.0,2560.0,19732.0,,,,0.0,4.0,4.0,4.0,4.0,4.0,4.0,4.0,4.0,4.0,4.0,4.0,4.0,4.0,4.0,4.0,4.0,4.0,4.0,4.0,4.0,4.0,4.0,4.0,4.0,4.0,4.0,4.0,4.0,4.0,4.0,4.0,4.0,100.0,,,,,,,,,,,,,,,,,,,,,,,,,,,,,,,,,,,36959.0,0.0,0.464812,0.309204,0.2099,0.802673,0.885362,-0.487853,0.055183,36.333332,-20.666666,-26.166666,,,,,,,,,,,,,,,,,,,,,,,,,,,,,,,,,,,,,,,,,,,,,,,,,,,,,,,,,,,,,,,,,,,,,,,,,,,,,,,,,,,,,,,,,,,,,,,,,,,,,,,,,,,,,,,,,,,,,,,,,,,,,,,,,,,,,,,,,,,,,,,,,,,,,,,,,,,,,,,,
1763975479.012231,16766.0,0.0,4322.05127,4328.846191,4452.05127,4450.512695,4329.487305,4462.307617,4467.436035,4311.666504,4507.436035,4329.230957,4417.692383,4455.0,4498.846191,4343.717773,4328.333496,4412.94873,4480.384766,4453.589844,4446.666504,4313.077148,4334.230957,4489.230957,4451.282227,4428.077148,4346.666504,4517.820313,4331.025879,4491.794922,4447.563965,4340.769043,4476.922852,4445.641113,3008.0,0.0,13.0,2560.0,19739.0,,,,0.0,4.0,4.0,4.0,4.0,4.0,4.0,4.0,4.0,4.0,4.0,4.0,4.0,4.0,4.0,4.0,4.0,4.0,4.0,4.0,4.0,4.0,4.0,4.0,4.0,4.0,4.0,4.0,4.0,4.0,4.0,4.0,4.0,100.0,,,,,,,,,,,,,,,,,,,,,,,,,,,,,,,,,,,,,,,,,,,,,,,,,,,,,,,,,,,,,,,,,,,,,,,,,,,,,,,,,,,,,,,,,,,,,,,,,,,,,,,,,,,,,,,,,,,,,,,,,,,,,,,,,,,,,,,,,,,,,,,,,,,,,,,,,,,,,,,,,,,,,,,,,,,,,,,,,,,,,,,,,,,,,,,,,,,,,,,,,,,,,,
1763975479.016137,16767.0,0.0,4358.589844,4358.333496,4473.846191,4477.563965,4354.871582,4492.692383,4499.871582,4343.974121,4537.179688,4344.871582,4446.538574,4489.743652,4533.717773,4365.897461,4340.128418,4446.153809,4517.05127,4490.897461,4485.769043,4340.897461,4367.820313,4532.820313,4495.256348,4466.025879,4375.641113,4548.717773,4365.384766,4529.102539,4482.436035,4373.333496,4511.410156,4478.717773,2933.0,0.0,13.0,2560.0,19739.0,,,,0.0,4.0,4.0,4.0,4.0,4.0,4.0,4.0,4.0,4.0,4.0,4.0,4.0,4.0,4.0,4.0,4.0,4.0,4.0,4.0,4.0,4.0,4.0,4.0,4.0,4.0,4.0,4.0,4.0,4.0,4.0,4.0,4.0,100.0,,,,,,,,,,,,,,,,,,,,,,,,,,,,,,,,,,,,,,,,,,,,,,,,,,,,,,,,,,,,,,,,,,,,,,,,,,,,,,,,,,,,,,,,,,,,,,,,,,,,,,,,,,,,,,,,,,,,,,,,,,,,,,,,,,,,,,,,,,,,,,,,,,,,,,,,,,,,,,,,,,,,,,,,,,,,,,,,,,,,,,,,,,,,,,,,,,,,,,,,,,,,,,
1763975479.020043,16768.0,0.0,4403.589844,4397.307617,4507.94873,4517.692383,4388.333496,4530.897461,4541.282227,4385.256348,4577.692383,4386.153809,4484.871582,4532.179688,4576.153809,4393.589844,4365.769043,4487.563965,4564.358887,4537.05127,4530.769043,4385.128418,4411.282227,4584.487305,4545.512695,4512.307617,4411.794922,4588.717773,4407.692383,4577.05127,4525.128418,4414.615234,4556.666504,4520.256348,2843.0,0.0,13.0,2561.0,19747.0,,,,0.0,4.0,4.0,4.0,4.0,4.0,4.0,4.0,4.0,4.0,4.0,4.0,4.0,4.0,4.0,4.0,4.0,4.0,4.0,4.0,4.0,4.0,4.0,4.0,4.0,4.0,4.0,4.0,4.0,4.0,4.0,4.0,4.0,100.0,,,,,,,,,,,,,,,,,,,,,,,,,,,,,,,,,,,,,,,,,,,,,,,,,,,,,,,,,,,,,,,,,,,,,,,,,,,,,,,,,,,,,,,,,,,,,,,,,,,,,,,,,,,,,,,,,,,,,,,,,,,,,,,,,,,,,,,,,,,,,,,,,,,,,,,,,,,,,,,,,,,,,,,,,,,,,,,,,,,,,,,,,,,,,,,,,,,,,,,,,,,,,,
1763975479.023949,16769.0,0.0,4430.641113,4421.794922,4532.436035,4545.897461,4409.230957,4553.717773,4565.641113,4409.615234,4603.333496,4425.512695,4508.333496,4556.794922,4599.358887,4407.820313,4386.922852,4506.538574,4593.974121,4563.717773,4551.922852,4418.717773,4439.230957,4613.974121,4573.205078,4540.384766,4433.333496,4614.487305,4433.077148,4607.179688,4550.384766,4438.974121,4584.487305,4544.358887,2864.0,0.0,13.0,2561.0,19747.0,,,,0.0,4.0,4.0,4.0,4.0,4.0,4.0,4.0,4.0,4.0,4.0,4.0,4.0,4.0,4.0,4.0,4.0,4.0,4.0,4.0,4.0,4.0,4.0,4.0,4.0,4.0,4.0,4.0,4.0,4.0,4.0,4.0,4.0,100.0,,,,,,,,,,,,,,,,,,,,,,,,,,,,,,,,,,,36960.0,0.0,0.46488,0.309143,0.209839,0.802673,0.890734,-0.477597,0.044927,37.333332,-19.166666,-27.666666,,,,,,,,,,,,,,,,,,,,,,,,,,,,,,,,,,,,,,,,,,,,,,,,,,,,,,,,,,,,,,,,,,,,,,,,,,,,,,,,,,,,,,,,,,,,,,,,,,,,,,,,,,,,,,,,,,,,,,,,,,,,,,,,,,,,,,,,,,,,,,,,,,,,,,,,,,,,,,,,
1763975479.027855,16770.0,0.0,4431.282227,4423.589844,4538.461426,4552.436035,4411.025879,4553.974121,4564.743652,4409.615234,4605.256348,4439.743652,4509.230957,4556.794922,4596.922852,4404.871582,4395.897461,4497.563965,4596.410156,4564.615234,4544.871582,4429.743652,4443.461426,4614.102539,4571.922852,4542.94873,4435.512695,4618.333496,4435.0,4609.743652,4550.769043,4439.487305,4586.025879,4543.333496,2276.0,0.0,13.0,2562.0,19755.0,,,,0.0,4.0,4.0,4.0,4.0,4.0,4.0,4.0,4.0,4.0,4.0,4.0,4.0,4.0,4.0,4.0,4.0,4.0,4.0,4.0,4.0,4.0,4.0,4.0,4.0,4.0,4.0,4.0,4.0,4.0,4.0,4.0,4.0,100.0,,,,,,,,,,,,,,,,,,,,,,,,,,,,,,,,,,,,,,,,,,,,,,,,,,,,,,,,,,,,,,,,,,,,,,,,,,,,,,,,,,,,,,,,,,,,,,,,,,,,,,,,,,,,,,,,,,,,,,,,,,,,,,,,,,,,,,,,,,,,,,,,,,,,,,,,,,,,,,,,,,,,,,,,,,,,,,,,,,,,,,,,,,,,,,,,,,,,,,,,,,,,,,
1763975479.031761,16771.0,0.0,4417.563965,4413.461426,4533.333496,4545.897461,4402.94873,4542.692383,4550.641113,4398.077148,4594.487305,4426.153809,4498.846191,4544.871582,4583.974121,4396.410156,4398.974121,4477.820313,4583.846191,4554.743652,4530.256348,4425.641113,4435.641113,4601.538574,4557.436035,4533.077148,4430.641113,4610.512695,4425.512695,4596.922852,4538.461426,4428.333496,4572.94873,4529.487305,2975.0,0.0,13.0,2562.0,19755.0,,,,0.0,4.0,4.0,4.0,4.0,4.0,4.0,4.0,4.0,4.0,4.0,4.0,4.0,4.0,4.0,4.0,4.0,4.0,4.0,4.0,4.0,4.0,4.0,4.0,4.0,4.0,4.0,4.0,4.0,4.0,4.0,4.0,4.0,100.0,,,,,,,,,,,,,,,,,,,,,,,,,,,,,,,,,,,,,,,,,,,,,,,,,,,,,,,,,,,,,,,,,,,,,,,,,,,,,,,,,,,,,,,,,,,,,,,,,,,,,,,,,,,,,,,,,,,,,,,,,,,,,,,,,,,,,,,,,,,,,,,,,,,,,,,,,,,,,,,,,,,,,,,,,,,,,,,,,,,,,,,,,,,,,,,,,,,,,,,,,,,,,,
1763975479.035667,16772.0,0.0,4408.077148,4407.563965,4530.641113,4541.922852,4398.974121,4536.153809,4542.307617,4393.077148,4588.333496,4400.769043,4493.846191,4538.333496,4579.358887,4396.794922,4406.410156,4469.230957,4576.153809,4553.077148,4531.922852,4421.794922,4432.94873,4598.461426,4551.025879,4529.102539,4433.077148,4606.538574,4420.897461,4588.205078,4531.025879,4423.205078,4563.717773,4521.538574,2889.0,0.0,13.0,2048.0,19763.0,,,,0.0,4.0,4.0,4.0,4.0,4.0,4.0,4.0,4.0,4.0,4.0,4.0,4.0,4.0,4.0,4.0,4.0,4.0,4.0,4.0,4.0,4.0,4.0,4.0,4.0,4.0,4.0,4.0,4.0,4.0,4.0,4.0,4.0,100.0,,,,,,,,,,,,,,,,,,,,,,,,,,,,,,,,,,,,,,,,,,,,,,,,,,,,,,,,,,,,,,,,,,,,,,,,,,,,,,,,,,,,,,,,,,,,,,,,,,,,,,,,,,,,,,,,,,,,,,,,,,,,,,,,,,,,,,,,,,,,,,,,,,,,,,,,,,,,,,,,,,,,,,,,,,,,,,,,,,,,,,,,,,,,,,,,,,,,,,,,,,,,,,
1763975479.039573,16773.0,0.0,4411.922852,4413.205078,4536.922852,4547.820313,4405.384766,4541.538574,4548.846191,4402.436035,4593.974121,4384.743652,4501.410156,4544.743652,4589.871582,4410.256348,4421.025879,4479.487305,4582.820313,4565.0,4555.897461,4426.282227,4442.307617,4613.077148,4560.128418,4537.692383,4445.384766,4612.94873,4426.794922,4592.563965,4535.769043,4431.025879,4566.922852,4528.205078,2403.0,0.0,13.0,2048.0,19763.0,,,,0.0,4.0,4.0,4.0,4.0,4.0,4.0,4.0,4.0,4.0,4.0,4.0,4.0,4.0,4.0,4.0,4.0,4.0,4.0,4.0,4.0,4.0,4.0,4.0,4.0,4.0,4.0,4.0,4.0,4.0,4.0,4.0,4.0,100.0,,,,,,,,,,,,,,,,,,,,,,,,,,,,,,,,,,,36961.0,0.0,0.46489,0.308777,0.209656,0.802856,0.87999,-0.485411,0.060554,37.166668,-20.666666,-25.333334,,,,,,,,,,,,,,,,,,,,,,,,,,,,,,,,,,,,,,,,,,,,,,,,,,,,,,,,,,,,,,,,,,,,,,,,,,,,,,,,,,,,,,,,,,,,,,,,,,,,,,,,,,,,,,,,,,,,,,,,,,,,,,,,,,,,,,,,,,,,,,,,,,,,,,,,,,,,,,,,
1763975479.043479,16774.0,0.0,4422.692383,4424.487305,4546.794922,4558.717773,4416.410156,4552.436035,4563.461426,4418.205078,4604.871582,4389.358887,4515.256348,4557.179688,4606.282227,4428.333496,4435.384766,4498.589844,4597.307617,4580.512695,4585.128418,4434.871582,4455.897461,4634.102539,4575.256348,4550.0,4457.436035,4623.589844,4436.025879,4602.692383,4545.769043,4443.717773,4577.307617,4542.692383,2987.0,0.0,13.0,1024.0,19771.0,,,,0.0,4.0,4.0,4.0,4.0,4.0,4.0,4.0,4.0,4.0,4.0,4.0,4.0,4.0,4.0,4.0,4.0,4.0,4.0,4.0,4.0,4.0,4.0,4.0,4.0,4.0,4.0,4.0,4.0,4.0,4.0,4.0,4.0,100.0,,,,,,,,,,,,,,,,,,,,,,,,,,,,,,,,,,,,,,,,,,,,,,,,,,,,,,,,,,,,,,,,,,,,,,,,,,,,,,,,,,,,,,,,,,,,,,,,,,,,,,,,,,,,,,,,,,,,,,,,,,,,,,,,,,,,,,,,,,,,,,,,,,,,,,,,,,,,,,,,,,,,,,,,,,,,,,,,,,,,,,,,,,,,,,,,,,,,,,,,,,,,,,
1763975479.047385,16775.0,0.0,4427.05127,4430.256348,4550.128418,4563.974121,4421.666504,4557.179688,4571.922852,4426.794922,4609.358887,4410.128418,4522.692383,4562.94873,4613.717773,4438.205078,4438.589844,4509.871582,4605.128418,4584.358887,4595.897461,4437.94873,4460.641113,4642.820313,4580.512695,4552.179688,4456.922852,4627.307617,4437.05127,4604.615234,4549.102539,4448.205078,4582.692383,4551.153809,2971.0,0.0,13.0,1024.0,19771.0,,,,0.0,4.0,4.0,4.0,4.0,4.0,4.0,4.0,4.0,4.0,4.0,4.0,4.0,4.0,4.0,4.0,4.0,4.0,4.0,4.0,4.0,4.0,4.0,4.0,4.0,4.0,4.0,4.0,4.0,4.0,4.0,4.0,4.0,100.0,,,,,,,,,,,,,,,,,,,,,,,,,,,,,,,,,,,,,,,,,,,,,,,,,,,,,,,,,,,,,,,,,,,,,,,,,,,,,,,,,,,,,,,,,,,,,,,,,,,,,,,,,,,,,,,,,,,,,,,,,,,,,,,,,,,,,,,,,,,,,,,,,,,,,,,,,,,,,,,,,,,,,,,,,,,,,,,,,,,,,,,,,,,,,,,,,,,,,,,,,,,,,,
1763975479.051291,16776.0,0.0,4417.05127,4423.717773,4541.922852,4557.692383,4415.384766,4549.487305,4565.0,4420.512695,4601.666504,4431.282227,4516.666504,4555.128418,4604.358887,4432.179688,4425.769043,4504.102539,4596.922852,4570.128418,4576.794922,4430.384766,4449.230957,4629.102539,4567.692383,4538.077148,4440.641113,4618.333496,4425.128418,4590.769043,4539.230957,4437.94873,4575.512695,4545.0,2650.0,0.0,13.0,512.0,19778.0,,,,0.0,4.0,4.0,4.0,4.0,4.0,4.0,4.0,4.0,4.0,4.0,4.0,4.0,4.0,4.0,4.0,4.0,4.0,4.0,4.0,4.0,4.0,4.0,4.0,4.0,4.0,4.0,4.0,4.0,4.0,4.0,4.0,4.0,100.0,,,,,,,,,,,,,,,,,,,,,,,,,,,,,,,,,,,,,,,,,,,,,,,5.573444,10.041068,5.118748,4.072724,5.521289,3.734837,7.050535,5.703724,3.598144,5.474257,3.784338,6.246991,5.758015,5.36536,6.023875,3.096436,5.792662,5.666076,5.537237,6.426945,2.171692,4.460419,3.721627,3.262191,4.333732,4.413523,5.075513,2.853039,2.340416,3.396708,4.288501,11.293687,4.468271,4.358535,5.568332,3.874789,6.525197,4.807784,5.38521,5.989169,2.449898,5.426829,4.05216,4.82374,6.05108,2.633131,5.052667,4.147177,9.691892,9.543742,3.847522,8.995309,3.735842,3.977917,5.126318,6.843061,16.083334,4.165246,4.22052,5.160476,11.11207,27.103714,4.020281,4.40268,6.080721,2.870717,4.721975,2.739205,2.692064,4.723354,3.220474,3.779548,3.527292,4.311962,5.474292,9.948771,10.988689,4.858469,3.795166,8.157703,10.493428,20.975021,3.936317,4.379388,5.028618,4.324707,7.84756,6.800799,4.818402,7.964227,3.443503,5.571086,7.261096,5.248301,6.969083,3.700006,3.57363,6.053513,6.332126,6.705839,4.626712,4.044101,6.359813,5.585117,5.741297,7.86041,10.148939,7.129573,5.219924,6.646565,7.537256,14.425795,6.03726,4.585677,6.359178,5.064731,5.197375,7.126919,5.041386,5.769162,6.315547,7.325979,9.285016,6.654296,7.053499,3.446882,5.561722,6.887293,5.318303,6.379611,4.33562,6.429158,6.490112,4.763424,5.958353,5.889941,6.960964,5.569541,4.447361,6.233045,4.618563,8.030308,5.478366,3.864603,5.696125,4.24656,7.941594,5.793449,4.355618,5.989023,2.948496,6.625188,6.430594,4.895869,5.93022,3.352968,5.772794,5.906948,4.613156,6.218356
1763975479.055197,16777.0,0.0,4397.436035,4408.461426,4527.179688,4544.230957,4401.282227,4533.846191,4547.436035,4403.589844,4586.922852,4438.974121,4501.538574,4537.692383,4584.487305,4414.358887,4402.94873,4488.333496,4576.666504,4546.153809,4538.205078,4416.538574,4427.307617,4599.615234,4543.717773,4515.0,4417.820313,4601.410156,4406.538574,4567.692383,4521.538574,4419.102539,4559.871582,4528.333496,2839.0,0.0,13.0,512.0,19778.0,,,,0.0,4.0,4.0,4.0,4.0,4.0,4.0,4.0,4.0,4.0,4.0,4.0,4.0,4.0,4.0,4.0,4.0,4.0,4.0,4.0,4.0,4.0,4.0,4.0,4.0,4.0,4.0,4.0,4.0,4.0,4.0,4.0,4.0,100.0,,,,,,,,,,,,,,,,,,,,,,,,,,,,,,,,,,,36962.0,0.0,0.464931,0.308716,0.209656,0.802856,0.87999,-0.485411,0.060554,38.0,-20.666666,-25.833334,,,,,,,,,,,,,,,,,,,,,,,,,,,,,,,,,,,,,,,,,,,,,,,,,,,,,,,,,,,,,,,,,,,,,,,,,,,,,,,,,,,,,,,,,,,,,,,,,,,,,,,,,,,,,,,,,,,,,,,,,,,,,,,,,,,,,,,,,,,,,,,,,,,,,,,,,,,,,,,,
1763975479.059103,16778.0,0.0,4383.077148,4396.922852,4518.461426,4536.025879,4391.153809,4522.692383,4534.102539,4390.512695,4578.077148,4433.974121,4490.256348,4524.487305,4570.384766,4399.358887,4385.256348,4481.025879,4559.102539,4531.025879,4506.025879,4407.820313,4410.0,4574.743652,4525.897461,4499.230957,4404.358887,4589.743652,4395.512695,4552.179688,4509.743652,4406.922852,4548.974121,4515.384766,2660.0,0.0,13.0,768.0,19786.0,,,,0.0,4.0,4.0,4.0,4.0,4.0,4.0,4.0,4.0,4.0,4.0,4.0,4.0,4.0,4.0,4.0,4.0,4.0,4.0,4.0,4.0,4.0,4.0,4.0,4.0,4.0,4.0,4.0,4.0,4.0,4.0,4.0,4.0,100.0,,,,,,,,,,,,,,,,,,,,,,,,,,,,,,,,,,,,,,,,,,,,,,,,,,,,,,,,,,,,,,,,,,,,,,,,,,,,,,,,,,,,,,,,,,,,,,,,,,,,,,,,,,,,,,,,,,,,,,,,,,,,,,,,,,,,,,,,,,,,,,,,,,,,,,,,,,,,,,,,,,,,,,,,,,,,,,,,,,,,,,,,,,,,,,,,,,,,,,,,,,,,,,
1763975479.063009,16779.0,0.0,4388.205078,4401.922852,4527.692383,4544.871582,4396.666504,4527.179688,4539.487305,4395.512695,4586.922852,4431.282227,4496.153809,4529.102539,4576.666504,4402.563965,4387.94873,4498.589844,4559.615234,4540.256348,4504.102539,4413.974121,4412.436035,4573.846191,4529.871582,4504.743652,4413.205078,4595.897461,4404.615234,4559.230957,4516.666504,4415.128418,4555.897461,4520.641113,2986.0,0.0,13.0,768.0,19786.0,,,,0.0,4.0,4.0,4.0,4.0,4.0,4.0,4.0,4.0,4.0,4.0,4.0,4.0,4.0,4.0,4.0,4.0,4.0,4.0,4.0,4.0,4.0,4.0,4.0,4.0,4.0,4.0,4.0,4.0,4.0,4.0,4.0,4.0,100.0,,,,,,,,,,,,,,,,,,,,,,,,,,,,,,,,,,,,,,,,,,,,,,,,,,,,,,,,,,,,,,,,,,,,,,,,,,,,,,,,,,,,,,,,,,,,,,,,,,,,,,,,,,,,,,,,,,,,,,,,,,,,,,,,,,,,,,,,,,,,,,,,,,,,,,,,,,,,,,,,,,,,,,,,,,,,,,,,,,,,,,,,,,,,,,,,,,,,,,,,,,,,,,
1763975479.066915,16780.0,0.0,4414.102539,4425.897461,4555.384766,4571.794922,4419.615234,4547.436035,4565.256348,4421.153809,4614.230957,4446.794922,4521.282227,4553.974121,4604.487305,4427.94873,4413.205078,4540.384766,4582.179688,4573.461426,4535.897461,4434.358887,4436.922852,4600.256348,4557.436035,4531.282227,4443.077148,4621.282227,4433.846191,4589.871582,4543.461426,4444.358887,4582.94873,4547.307617,2939.0,0.0,13.0,1024.0,19794.0,,,,0.0,4.0,4.0,4.0,4.0,4.0,4.0,4.0,4.0,4.0,4.0,4.0,4.0,4.0,4.0,4.0,4.0,4.0,4.0,4.0,4.0,4.0,4.0,4.0,4.0,4.0,4.0,4.0,4.0,4.0,4.0,4.0,4.0,100.0,,,,,,,,,,,,,,,,,,,,,,,,,,,,,,,,,,,,,,,,,,,,,,,,,,,,,,,,,,,,,,,,,,,,,,,,,,,,,,,,,,,,,,,,,,,,,,,,,,,,,,,,,,,,,,,,,,,,,,,,,,,,,,,,,,,,,,,,,,,,,,,,,,,,,,,,,,,,,,,,,,,,,,,,,,,,,,,,,,,,,,,,,,,,,,,,,,,,,,,,,,,,,,
1763975479.070821,16781.0,0.0,4446.025879,4455.641113,4587.436035,4602.820313,4447.307617,4569.743652,4596.153809,4453.333496,4645.384766,4477.563965,4551.538574,4585.128418,4637.307617,4461.666504,4446.153809,4586.153809,4613.077148,4611.282227,4579.615234,4456.153809,4468.461426,4636.153809,4591.794922,4562.05127,4476.666504,4651.922852,4467.179688,4626.666504,4575.128418,4478.077148,4615.0,4581.410156,2710.0,0.0,13.0,1024.0,19794.0,,,,0.0,4.0,4.0,4.0,4.0,4.0,4.0,4.0,4.0,4.0,4.0,4.0,4.0,4.0,4.0,4.0,4.0,4.0,4.0,4.0,4.0,4.0,4.0,4.0,4.0,4.0,4.0,4.0,4.0,4.0,4.0,4.0,4.0,100.0,,,,,,,,,,,,,,,,,,,,,,,,,,,,,,,,,,,36963.0,0.0,0.464961,0.308594,0.209534,0.802917,0.882432,-0.482969,0.050787,37.5,-19.833334,-26.166666,,,,,,,,,,,,,,,,,,,,,,,,,,,,,,,,,,,,,,,,,,,,,,,,,,,,,,,,,,,,,,,,,,,,,,,,,,,,,,,,,,,,,,,,,,,,,,,,,,,,,,,,,,,,,,,,,,,,,,,,,,,,,,,,,,,,,,,,,,,,,,,,,,,,,,,,,,,,,,,,
1763975479.074727,16782.0,0.0,4460.641113,4468.717773,4602.05127,4615.384766,4459.358887,4575.0,4609.102539,4468.205078,4656.666504,4498.846191,4565.128418,4599.230957,4651.025879,4479.230957,4462.94873,4608.205078,4628.846191,4626.410156,4601.282227,4461.922852,4482.820313,4653.589844,4606.538574,4573.589844,4489.102539,4664.871582,4481.410156,4643.589844,4588.974121,4492.307617,4628.846191,4598.205078,2717.0,0.0,13.0,1280.0,19802.0,,,,0.0,4.0,4.0,4.0,4.0,4.0,4.0,4.0,4.0,4.0,4.0,4.0,4.0,4.0,4.0,4.0,4.0,4.0,4.0,4.0,4.0,4.0,4.0,4.0,4.0,4.0,4.0,4.0,4.0,4.0,4.0,4.0,4.0,100.0,,,,,,,,,,,,,,,,,,,,,,,,,,,,,,,,,,,,,,,,,,,,,,,,,,,,,,,,,,,,,,,,,,,,,,,,,,,,,,,,,,,,,,,,,,,,,,,,,,,,,,,,,,,,,,,,,,,,,,,,,,,,,,,,,,,,,,,,,,,,,,,,,,,,,,,,,,,,,,,,,,,,,,,,,,,,,,,,,,,,,,,,,,,,,,,,,,,,,,,,,,,,,,
1763975479.078633,16783.0,0.0,4443.077148,4450.0,4583.846191,4593.846191,4442.820313,4552.563965,4588.974121,4449.102539,4632.820313,4481.922852,4546.922852,4580.641113,4630.384766,4464.102539,4448.333496,4591.538574,4612.05127,4603.205078,4579.230957,4441.538574,4463.077148,4633.717773,4585.256348,4551.794922,4465.0,4644.102539,4461.794922,4624.102539,4570.512695,4472.692383,4608.333496,4579.615234,2836.0,0.0,13.0,1280.0,19802.0,,,,0.0,4.0,4.0,4.0,4.0,4.0,4.0,4.0,4.0,4.0,4.0,4.0,4.0,4.0,4.0,4.0,4.0,4.0,4.0,4.0,4.0,4.0,4.0,4.0,4.0,4.0,4.0,4.0,4.0,4.0,4.0,4.0,4.0,100.0,,,,,,,,,,,,,,,,,,,,,,,,,,,,,,,,,,,,,,,,,,,,,,,,,,,,,,,,,,,,,,,,,,,,,,,,,,,,,,,,,,,,,,,,,,,,,,,,,,,,,,,,,,,,,,,,,,,,,,,,,,,,,,,,,,,,,,,,,,,,,,,,,,,,,,,,,,,,,,,,,,,,,,,,,,,,,,,,,,,,,,,,,,,,,,,,,,,,,,,,,,,,,,
1763975479.082539,16784.0,0.0,4397.820313,4403.589844,4536.282227,4542.05127,4402.179688,4509.102539,4541.025879,4399.743652,4578.846191,4420.384766,4500.769043,4533.717773,4581.666504,4420.384766,4406.538574,4544.615234,4565.897461,4550.641113,4521.538574,4399.102539,4413.589844,4581.025879,4533.589844,4502.820313,4410.384766,4593.461426,4414.102539,4573.974121,4525.0,4425.384766,4558.205078,4528.846191,2935.0,0.0,13.0,1536.0,19810.0,,,,0.0,4.0,4.0,4.0,4.0,4.0,4.0,4.0,4.0,4.0,4.0,4.0,4.0,4.0,4.0,4.0,4.0,4.0,4.0,4.0,4.0,4.0,4.0,4.0,4.0,4.0,4.0,4.0,4.0,4.0,4.0,4.0,4.0,100.0,,,,,,,,,,,,,,,,,,,,,,,,,,,,,,,,,,,,,,,,,,,,,,,,,,,,,,,,,,,,,,,,,,,,,,,,,,,,,,,,,,,,,,,,,,,,,,,,,,,,,,,,,,,,,,,,,,,,,,,,,,,,,,,,,,,,,,,,,,,,,,,,,,,,,,,,,,,,,,,,,,,,,,,,,,,,,,,,,,,,,,,,,,,,,,,,,,,,,,,,,,,,,,
1763975479.086445,16785.0,0.0,4347.436035,4352.05127,4481.153809,4483.717773,4357.563965,4465.384766,4488.205078,4343.589844,4518.846191,4340.128418,4448.461426,4481.282227,4528.974121,4371.153809,4359.615234,4493.205078,4513.077148,4496.794922,4461.666504,4351.922852,4358.077148,4521.922852,4477.820313,4450.384766,4350.641113,4535.769043,4362.307617,4518.333496,4475.128418,4374.102539,4502.307617,4470.769043,3057.0,0.0,13.0,1536.0,19810.0,,,,0.0,4.0,4.0,4.0,4.0,4.0,4.0,4.0,4.0,4.0,4.0,4.0,4.0,4.0,4.0,4.0,4.0,4.0,4.0,4.0,4.0,4.0,4.0,4.0,4.0,4.0,4.0,4.0,4.0,4.0,4.0,4.0,4.0,100.0,,,,,,,,,,,,,,,,,,,,,,,,,,,,,,,,,,,36964.0,0.0,0.464964,0.308472,0.209473,0.802979,0.882432,-0.482969,0.050787,37.5,-19.833334,-26.166666,,,,,,,,,,,,,,,,,,,,,,,,,,,,,,,,,,,,,,,,,,,,,,,,,,,,,,,,,,,,,,,,,,,,,,,,,,,,,,,,,,,,,,,,,,,,,,,,,,,,,,,,,,,,,,,,,,,,,,,,,,,,,,,,,,,,,,,,,,,,,,,,,,,,,,,,,,,,,,,,
1763975479.090351,16786.0,0.0,4317.307617,4321.410156,4445.256348,4446.153809,4331.538574,4442.179688,4456.025879,4307.563965,4481.025879,4283.333496,4415.256348,4449.358887,4498.333496,4342.179688,4331.025879,4462.692383,4480.512695,4469.743652,4434.615234,4320.256348,4324.230957,4486.153809,4445.769043,4420.0,4315.769043,4499.230957,4331.922852,4485.128418,4445.641113,4343.717773,4468.333496,4434.743652,2814.0,0.0,13.0,1792.0,19818.0,,,,0.0,4.0,4.0,4.0,4.0,4.0,4.0,4.0,4.0,4.0,4.0,4.0,4.0,4.0,4.0,4.0,4.0,4.0,4.0,4.0,4.0,4.0,4.0,4.0,4.0,4.0,4.0,4.0,4.0,4.0,4.0,4.0,4.0,100.0,,,,,,,,,,,,,,,,,,,,,,,,,,,,,,,,,,,,,,,,,,,,,,,,,,,,,,,,,,,,,,,,,,,,,,,,,,,,,,,,,,,,,,,,,,,,,,,,,,,,,,,,,,,,,,,,,,,,,,,,,,,,,,,,,,,,,,,,,,,,,,,,,,,,,,,,,,,,,,,,,,,,,,,,,,,,,,,,,,,,,,,,,,,,,,,,,,,,,,,,,,,,,,
1763975479.094257,16787.0,0.0,4318.846191,4324.230957,4442.94873,4444.102539,4333.974121,4446.794922,4456.282227,4305.769043,4479.871582,4279.102539,4414.358887,4450.512695,4500.769043,4345.256348,4330.769043,4463.333496,4480.897461,4478.846191,4451.410156,4315.512695,4325.769043,4487.94873,4449.743652,4423.333496,4320.256348,4498.589844,4333.974121,4487.179688,4446.922852,4345.512695,4470.128418,4435.256348,3008.0,0.0,13.0,1792.0,19818.0,,,,0.0,4.0,4.0,4.0,4.0,4.0,4.0,4.0,4.0,4.0,4.0,4.0,4.0,4.0,4.0,4.0,4.0,4.0,4.0,4.0,4.0,4.0,4.0,4.0,4.0,4.0,4.0,4.0,4.0,4.0,4.0,4.0,4.0,100.0,,,,,,,,,,,,,,,,,,,,,,,,,,,,,,,,,,,,,,,,,,,,,,,,,,,,,,,,,,,,,,,,,,,,,,,,,,,,,,,,,,,,,,,,,,,,,,,,,,,,,,,,,,,,,,,,,,,,,,,,,,,,,,,,,,,,,,,,,,,,,,,,,,,,,,,,,,,,,,,,,,,,,,,,,,,,,,,,,,,,,,,,,,,,,,,,,,,,,,,,,,,,,,
1763975479.098163,16788.0,0.0,4344.615234,4352.94873,4468.974121,4471.410156,4357.692383,4470.769043,4481.282227,4332.179688,4509.615234,4324.487305,4439.358887,4477.05127,4527.94873,4371.794922,4351.153809,4486.538574,4506.794922,4509.871582,4493.461426,4335.256348,4354.743652,4518.205078,4479.871582,4452.820313,4355.384766,4527.307617,4360.0,4516.025879,4471.282227,4372.05127,4500.256348,4465.256348,2997.0,0.0,13.0,2048.0,19825.0,,,,0.0,4.0,4.0,4.0,4.0,4.0,4.0,4.0,4.0,4.0,4.0,4.0,4.0,4.0,4.0,4.0,4.0,4.0,4.0,4.0,4.0,4.0,4.0,4.0,4.0,4.0,4.0,4.0,4.0,4.0,4.0,4.0,4.0,100.0,,,,,,,,,,,,,,,,,,,,,,,,,,,,,,,,,,,,,,,,,,,,,,,,,,,,,,,,,,,,,,,,,,,,,,,,,,,,,,,,,,,,,,,,,,,,,,,,,,,,,,,,,,,,,,,,,,,,,,,,,,,,,,,,,,,,,,,,,,,,,,,,,,,,,,,,,,,,,,,,,,,,,,,,,,,,,,,,,,,,,,,,,,,,,,,,,,,,,,,,,,,,,,
1763975479.102069,16789.0,0.0,4375.897461,4387.436035,4505.0,4509.102539,4386.538574,4497.436035,4512.692383,4368.205078,4550.256348,4388.846191,4471.666504,4510.0,4561.410156,4401.410156,4375.641113,4514.102539,4538.717773,4538.974121,4530.384766,4367.179688,4390.384766,4554.615234,4515.128418,4488.846191,4397.692383,4565.0,4390.769043,4551.025879,4500.769043,4404.615234,4537.436035,4503.717773,2918.0,0.0,13.0,2048.0,19825.0,,,,0.0,4.0,4.0,4.0,4.0,4.0,4.0,4.0,4.0,4.0,4.0,4.0,4.0,4.0,4.0,4.0,4.0,4.0,4.0,4.0,4.0,4.0,4.0,4.0,4.0,4.0,4.0,4.0,4.0,4.0,4.0,4.0,4.0,100.0,,,,,,,,,,,,,,,,,,,,,,,,,,,,,,,,,,,36965.0,0.0,0.464967,0.30835,0.209412,0.80304,0.87706,-0.480039,0.039556,37.333332,-20.5,-26.0,,,,,,,,,,,,,,,,,,,,,,,,,,,,,,,,,,,,,,,,,,,,,,,,,,,,,,,,,,,,,,,,,,,,,,,,,,,,,,,,,,,,,,,,,,,,,,,,,,,,,,,,,,,,,,,,,,,,,,,,,,,,,,,,,,,,,,,,,,,,,,,,,,,,,,,,,,,,,,,,
1763975479.105975,16790.0,0.0,4397.563965,4411.025879,4533.205078,4539.230957,4407.307617,4514.743652,4535.769043,4396.794922,4582.436035,4437.05127,4494.743652,4533.077148,4585.769043,4417.94873,4391.538574,4530.769043,4560.512695,4551.153809,4542.820313,4397.563965,4415.384766,4579.358887,4538.333496,4514.743652,4426.794922,4593.461426,4411.922852,4575.256348,4521.410156,4427.563965,4562.563965,4531.538574,2988.0,0.0,13.0,2304.0,19833.0,,,,0.0,4.0,4.0,4.0,4.0,4.0,4.0,4.0,4.0,4.0,4.0,4.0,4.0,4.0,4.0,4.0,4.0,4.0,4.0,4.0,4.0,4.0,4.0,4.0,4.0,4.0,4.0,4.0,4.0,4.0,4.0,4.0,4.0,100.0,,,,,,,,,,,,,,,,,,,,,,,,,,,,,,,,,,,,,,,,,,,,,,,,,,,,,,,,,,,,,,,,,,,,,,,,,,,,,,,,,,,,,,,,,,,,,,,,,,,,,,,,,,,,,,,,,,,,,,,,,,,,,,,,,,,,,,,,,,,,,,,,,,,,,,,,,,,,,,,,,,,,,,,,,,,,,,,,,,,,,,,,,,,,,,,,,,,,,,,,,,,,,,
1763975479.109881,16791.0,0.0,4406.153809,4419.743652,4546.794922,4555.256348,4417.05127,4521.025879,4546.922852,4411.794922,4598.077148,4451.794922,4504.102539,4542.307617,4596.538574,4419.102539,4397.179688,4533.461426,4568.846191,4548.717773,4534.743652,4418.846191,4425.769043,4588.717773,4546.666504,4526.153809,4437.307617,4606.282227,4421.153809,4584.743652,4530.512695,4436.410156,4569.743652,4542.179688,2932.0,0.0,13.0,2304.0,19833.0,,,,0.0,4.0,4.0,4.0,4.0,4.0,4.0,4.0,4.0,4.0,4.0,4.0,4.0,4.0,4.0,4.0,4.0,4.0,4.0,4.0,4.0,4.0,4.0,4.0,4.0,4.0,4.0,4.0,4.0,4.0,4.0,4.0,4.0,100.0,,,,,,,,,,,,,,,,,,,,,,,,,,,,,,,,,,,,,,,,,,,,,,,,,,,,,,,,,,,,,,,,,,,,,,,,,,,,,,,,,,,,,,,,,,,,,,,,,,,,,,,,,,,,,,,,,,,,,,,,,,,,,,,,,,,,,,,,,,,,,,,,,,,,,,,,,,,,,,,,,,,,,,,,,,,,,,,,,,,,,,,,,,,,,,,,,,,,,,,,,,,,,,
1763975479.113787,16792.0,0.0,4408.461426,4419.743652,4548.589844,4559.871582,4419.743652,4521.538574,4551.153809,4416.410156,4599.615234,4440.512695,4505.641113,4543.717773,4598.589844,4413.717773,4399.230957,4530.128418,4570.512695,4545.769043,4524.230957,4429.871582,4427.94873,4591.282227,4547.94873,4528.205078,4436.025879,4607.692383,4424.230957,4586.282227,4533.205078,4436.410156,4565.256348,4540.128418,2868.0,0.0,13.0,2560.0,19841.0,,,,0.0,4.0,4.0,4.0,4.0,4.0,4.0,4.0,4.0,4.0,4.0,4.0,4.0,4.0,4.0,4.0,4.0,4.0,4.0,4.0,4.0,4.0,4.0,4.0,4.0,4.0,4.0,4.0,4.0,4.0,4.0,4.0,4.0,100.0,,,,,,,,,,,,,,,,,,,,,,,,,,,,,,,,,,,,,,,,,,,,,,,,,,,,,,,,,,,,,,,,,,,,,,,,,,,,,,,,,,,,,,,,,,,,,,,,,,,,,,,,,,,,,,,,,,,,,,,,,,,,,,,,,,,,,,,,,,,,,,,,,,,,,,,,,,,,,,,,,,,,,,,,,,,,,,,,,,,,,,,,,,,,,,,,,,,,,,,,,,,,,,
1763975479.117693,16793.0,0.0,4410.512695,4417.563965,4543.589844,4558.077148,4419.230957,4521.794922,4552.820313,4415.128418,4593.846191,4423.205078,4505.512695,4544.102539,4598.077148,4411.153809,4403.461426,4529.871582,4572.820313,4551.538574,4524.871582,4432.179688,4428.333496,4595.128418,4549.743652,4526.666504,4430.769043,4603.717773,4425.641113,4586.666504,4534.487305,4433.333496,4558.205078,4533.205078,2849.0,0.0,13.0,2560.0,19841.0,,,,0.0,4.0,4.0,4.0,4.0,4.0,4.0,4.0,4.0,4.0,4.0,4.0,4.0,4.0,4.0,4.0,4.0,4.0,4.0,4.0,4.0,4.0,4.0,4.0,4.0,4.0,4.0,4.0,4.0,4.0,4.0,4.0,4.0,100.0,,,,,,,,,,,,,,,,,,,,,,,,,,,,,,,,,,,36966.0,0.0,0.464862,0.30835,0.209412,0.803101,0.87413,-0.491759,0.049322,37.333332,-20.5,-26.0,,,,,,,,,,,,,,,,,,,,,,,,,,,,,,,,,,,,,,,,,,,,,,,,,,,,,,,,,,,,,,,,,,,,,,,,,,,,,,,,,,,,,,,,,,,,,,,,,,,,,,,,,,,,,,,,,,,,,,,,,,,,,,,,,,,,,,,,,,,,,,,,,,,,,,,,,,,,,,,,
1763975479.1216,16794.0,0.0,4412.563965,4414.743652,4534.743652,4551.794922,4415.769043,4523.077148,4552.05127,4409.615234,4585.897461,4415.641113,4505.641113,4545.0,4596.538574,4413.974121,4408.717773,4534.743652,4577.436035,4562.820313,4536.282227,4427.307617,4428.333496,4601.282227,4552.820313,4523.974121,4424.102539,4597.307617,4423.974121,4587.179688,4534.358887,4429.487305,4552.307617,4525.256348,2766.0,0.0,13.0,2304.0,19849.0,,,,0.0,4.0,4.0,4.0,4.0,4.0,4.0,4.0,4.0,4.0,4.0,4.0,4.0,4.0,4.0,4.0,4.0,4.0,4.0,4.0,4.0,4.0,4.0,4.0,4.0,4.0,4.0,4.0,4.0,4.0,4.0,4.0,4.0,100.0,,,,,,,,,,,,,,,,,,,,,,,,,,,,,,,,,,,,,,,,,,,,,,,,,,,,,,,,,,,,,,,,,,,,,,,,,,,,,,,,,,,,,,,,,,,,,,,,,,,,,,,,,,,,,,,,,,,,,,,,,,,,,,,,,,,,,,,,,,,,,,,,,,,,,,,,,,,,,,,,,,,,,,,,,,,,,,,,,,,,,,,,,,,,,,,,,,,,,,,,,,,,,,
1763975479.125506,16795.0,0.0,4412.436035,4410.128418,4524.358887,4543.077148,4409.871582,4524.871582,4548.205078,4401.410156,4579.743652,4420.384766,4505.128418,4545.128418,4593.846191,4419.102539,4411.410156,4540.384766,4581.794922,4570.769043,4549.871582,4418.846191,4427.05127,4606.538574,4554.743652,4520.769043,4416.538574,4590.256348,4417.692383,4586.025879,4532.05127,4425.128418,4547.94873,4518.205078,2994.0,0.0,13.0,2304.0,19849.0,,,,0.0,4.0,4.0,4.0,4.0,4.0,4.0,4.0,4.0,4.0,4.0,4.0,4.0,4.0,4.0,4.0,4.0,4.0,4.0,4.0,4.0,4.0,4.0,4.0,4.0,4.0,4.0,4.0,4.0,4.0,4.0,4.0,4.0,100.0,,,,,,,,,,,,,,,,,,,,,,,,,,,,,,,,,,,,,,,,,,,,,,,,,,,,,,,,,,,,,,,,,,,,,,,,,,,,,,,,,,,,,,,,,,,,,,,,,,,,,,,,,,,,,,,,,,,,,,,,,,,,,,,,,,,,,,,,,,,,,,,,,,,,,,,,,,,,,,,,,,,,,,,,,,,,,,,,,,,,,,,,,,,,,,,,,,,,,,,,,,,,,,
1763975479.129412,16796.0,0.0,4410.897461,4405.769043,4517.692383,4536.282227,4405.769043,4528.589844,4545.0,4395.641113,4579.230957,4429.358887,4505.512695,4545.128418,4592.436035,4424.102539,4411.794922,4543.333496,4585.641113,4572.692383,4559.743652,4412.692383,4426.410156,4610.384766,4556.282227,4519.871582,4411.538574,4585.897461,4410.769043,4584.487305,4529.743652,4422.563965,4546.153809,4514.871582,2951.0,0.0,13.0,2048.0,19857.0,,,,0.0,4.0,4.0,4.0,4.0,4.0,4.0,4.0,4.0,4.0,4.0,4.0,4.0,4.0,4.0,4.0,4.0,4.0,4.0,4.0,4.0,4.0,4.0,4.0,4.0,4.0,4.0,4.0,4.0,4.0,4.0,4.0,4.0,100.0,,,,,,,,,,,,,,,,,,,,,,,,,,,,,,,,,,,,,,,,,,,,,,,,,,,,,,,,,,,,,,,,,,,,,,,,,,,,,,,,,,,,,,,,,,,,,,,,,,,,,,,,,,,,,,,,,,,,,,,,,,,,,,,,,,,,,,,,,,,,,,,,,,,,,,,,,,,,,,,,,,,,,,,,,,,,,,,,,,,,,,,,,,,,,,,,,,,,,,,,,,,,,,
1763975479.133318,16797.0,0.0,4412.307617,4406.538574,4520.128418,4537.179688,4408.717773,4536.538574,4548.461426,4398.717773,4586.153809,4433.205078,4509.871582,4548.974121,4596.922852,4429.230957,4413.333496,4545.128418,4592.307617,4573.589844,4566.794922,4413.461426,4429.615234,4616.538574,4561.538574,4525.384766,4414.871582,4588.589844,4410.769043,4587.05127,4532.179688,4425.256348,4549.871582,4518.205078,2812.0,0.0,13.0,2048.0,19857.0,,,,0.0,4.0,4.0,4.0,4.0,4.0,4.0,4.0,4.0,4.0,4.0,4.0,4.0,4.0,4.0,4.0,4.0,4.0,4.0,4.0,4.0,4.0,4.0,4.0,4.0,4.0,4.0,4.0,4.0,4.0,4.0,4.0,4.0,100.0,,,,,,,,,,,,,,,,,,,,,,,,,,,,,,,,,,,36967.0,0.0,0.464967,0.30835,0.209412,0.80304,0.879014,-0.481992,0.053229,38.166668,-20.5,-25.166666,,,,,,,,,,,,,,,,,,,,,,,,,,,,,,,,,,,,,,,,,,,,,,,,,,,,,,,,,,,,,,,,,,,,,,,,,,,,,,,,,,,,,,,,,,,,,,,,,,,,,,,,,,,,,,,,,,,,,,,,,,,,,,,,,,,,,,,,,,,,,,,,,,,,,,,,,,,,,,,,
1763975479.137224,16798.0,0.0,4419.743652,4415.512695,4531.794922,4546.922852,4418.974121,4547.563965,4560.256348,4412.05127,4598.589844,4430.128418,4518.846191,4558.589844,4608.461426,4435.512695,4418.461426,4548.461426,4603.461426,4578.846191,4572.94873,4420.256348,4437.692383,4627.307617,4572.307617,4537.179688,4427.179688,4598.333496,4421.153809,4596.153809,4541.410156,4433.461426,4559.358887,4527.94873,2998.0,0.0,13.0,768.0,19864.0,,,,0.0,4.0,4.0,4.0,4.0,4.0,4.0,4.0,4.0,4.0,4.0,4.0,4.0,4.0,4.0,4.0,4.0,4.0,4.0,4.0,4.0,4.0,4.0,4.0,4.0,4.0,4.0,4.0,4.0,4.0,4.0,4.0,4.0,100.0,,,,,,,,,,,,,,,,,,,,,,,,,,,,,,,,,,,,,,,,,,,,,,,,,,,,,,,,,,,,,,,,,,,,,,,,,,,,,,,,,,,,,,,,,,,,,,,,,,,,,,,,,,,,,,,,,,,,,,,,,,,,,,,,,,,,,,,,,,,,,,,,,,,,,,,,,,,,,,,,,,,,,,,,,,,,,,,,,,,,,,,,,,,,,,,,,,,,,,,,,,,,,,
1763975479.14113,16799.0,0.0,4430.128418,4429.230957,4545.128418,4559.487305,4430.897461,4556.410156,4574.102539,4427.563965,4609.871582,4424.615234,4527.307617,4569.743652,4620.512695,4440.897461,4423.333496,4552.307617,4614.743652,4586.025879,4575.512695,4426.153809,4445.512695,4638.077148,4583.717773,4547.94873,4441.025879,4609.230957,4435.897461,4607.307617,4552.94873,4442.05127,4568.974121,4538.077148,2925.0,0.0,13.0,768.0,19864.0,,,,0.0,4.0,4.0,4.0,4.0,4.0,4.0,4.0,4.0,4.0,4.0,4.0,4.0,4.0,4.0,4.0,4.0,4.0,4.0,4.0,4.0,4.0,4.0,4.0,4.0,4.0,4.0,4.0,4.0,4.0,4.0,4.0,4.0,100.0,,,,,,,,,,,,,,,,,,,,,,,,,,,,,,,,,,,,,,,,,,,,,,,,,,,,,,,,,,,,,,,,,,,,,,,,,,,,,,,,,,,,,,,,,,,,,,,,,,,,,,,,,,,,,,,,,,,,,,,,,,,,,,,,,,,,,,,,,,,,,,,,,,,,,,,,,,,,,,,,,,,,,,,,,,,,,,,,,,,,,,,,,,,,,,,,,,,,,,,,,,,,,,
1763975479.145036,16800.0,0.0,4435.769043,4438.333496,4549.487305,4564.743652,4435.641113,4557.820313,4580.0,4433.717773,4612.820313,4422.307617,4528.205078,4573.974121,4623.205078,4440.769043,4420.641113,4552.94873,4617.563965,4587.05127,4568.333496,4423.974121,4445.0,4639.487305,4586.538574,4548.717773,4444.871582,4611.922852,4442.563965,4611.922852,4557.436035,4443.333496,4570.256348,4540.512695,2836.0,0.0,13.0,512.0,19872.0,,,,0.0,4.0,4.0,4.0,4.0,4.0,4.0,4.0,4.0,4.0,4.0,4.0,4.0,4.0,4.0,4.0,4.0,4.0,4.0,4.0,4.0,4.0,4.0,4.0,4.0,4.0,4.0,4.0,4.0,4.0,4.0,4.0,4.0,100.0,,,,,,,,,,,,,,,,,,,,,,,,,,,,,,,,,,,,,,,,,,,,,,,,,,,,,,,,,,,,,,,,,,,,,,,,,,,,,,,,,,,,,,,,,,,,,,,,,,,,,,,,,,,,,,,,,,,,,,,,,,,,,,,,,,,,,,,,,,,,,,,,,,,,,,,,,,,,,,,,,,,,,,,,,,,,,,,,,,,,,,,,,,,,,,,,,,,,,,,,,,,,,,
1763975479.148942,16801.0,0.0,4431.794922,4436.025879,4539.871582,4557.563965,4429.487305,4551.153809,4572.820313,4424.615234,4605.256348,4424.487305,4518.974121,4566.538574,4612.05127,4432.94873,4407.307617,4547.820313,4606.794922,4576.794922,4550.0,4413.205078,4433.461426,4625.769043,4576.282227,4536.538574,4434.487305,4602.563965,4433.974121,4604.358887,4550.128418,4433.846191,4559.615234,4531.922852,2861.0,0.0,13.0,512.0,19872.0,,,,0.0,4.0,4.0,4.0,4.0,4.0,4.0,4.0,4.0,4.0,4.0,4.0,4.0,4.0,4.0,4.0,4.0,4.0,4.0,4.0,4.0,4.0,4.0,4.0,4.0,4.0,4.0,4.0,4.0,4.0,4.0,4.0,4.0,100.0,,,,,,,,,,,,,,,,,,,,,,,,,,,,,,,,,,,36968.0,0.0,0.4649,0.308411,0.209473,0.80304,0.878525,-0.475644,0.033696,38.166668,-21.166666,-26.333334,,,,,,,,,,,,,,,,,,,,,,,,,,,,,,,,,,,,,,,,,,,,,,,,,,,,,,,,,,,,,,,,,,,,,,,,,,,,,,,,,,,,,,,,,,,,,,,,,,,,,,,,,,,,,,,,,,,,,,,,,,,,,,,,,,,,,,,,,,,,,,,,,,,,,,,,,,,,,,,,
1763975479.152848,16802.0,0.0,4420.512695,4424.102539,4522.179688,4541.538574,4416.794922,4542.05127,4556.794922,4405.897461,4592.179688,4428.333496,4504.615234,4551.282227,4592.179688,4420.256348,4388.974121,4537.94873,4586.025879,4558.846191,4528.974121,4399.615234,4417.179688,4601.922852,4557.179688,4517.94873,4416.666504,4585.512695,4414.615234,4587.820313,4534.743652,4418.717773,4542.436035,4516.922852,2272.0,0.0,13.0,768.0,19880.0,,,,0.0,4.0,4.0,4.0,4.0,4.0,4.0,4.0,4.0,4.0,4.0,4.0,4.0,4.0,4.0,4.0,4.0,4.0,4.0,4.0,4.0,4.0,4.0,4.0,4.0,4.0,4.0,4.0,4.0,4.0,4.0,4.0,4.0,100.0,,,,,,,,,,,,,,,,,,,,,,,,,,,,,,,,,,,,,,,,,,,,,,,,,,,,,,,,,,,,,,,,,,,,,,,,,,,,,,,,,,,,,,,,,,,,,,,,,,,,,,,,,,,,,,,,,,,,,,,,,,,,,,,,,,,,,,,,,,,,,,,,,,,,,,,,,,,,,,,,,,,,,,,,,,,,,,,,,,,,,,,,,,,,,,,,,,,,,,,,,,,,,,
1763975479.156754,16803.0,0.0,4409.230957,4410.512695,4507.05127,4525.897461,4405.897461,4536.794922,4541.538574,4389.102539,4581.538574,4428.333496,4492.94873,4536.538574,4573.974121,4408.205078,4374.487305,4525.897461,4564.487305,4541.794922,4516.410156,4389.358887,4405.641113,4578.974121,4538.974121,4503.205078,4403.333496,4570.128418,4396.025879,4571.410156,4520.512695,4406.538574,4528.333496,4503.974121,2965.0,0.0,13.0,768.0,19880.0,,,,0.0,4.0,4.0,4.0,4.0,4.0,4.0,4.0,4.0,4.0,4.0,4.0,4.0,4.0,4.0,4.0,4.0,4.0,4.0,4.0,4.0,4.0,4.0,4.0,4.0,4.0,4.0,4.0,4.0,4.0,4.0,4.0,4.0,100.0,,,,,,,,,,,,,,,,,,,,,,,,,,,,,,,,,,,,,,,,,,,,,,,,,,,,,,,,,,,,,,,,,,,,,,,,,,,,,,,,,,,,,,,,,,,,,,,,,,,,,,,,,,,,,,,,,,,,,,,,,,,,,,,,,,,,,,,,,,,,,,,,,,,,,,,,,,,,,,,,,,,,,,,,,,,,,,,,,,,,,,,,,,,,,,,,,,,,,,,,,,,,,,
1763975479.16066,16804.0,0.0,4402.692383,4402.307617,4501.538574,4517.05127,4401.410156,4536.282227,4533.333496,4382.307617,4576.666504,4420.512695,4487.307617,4527.563965,4563.589844,4400.128418,4368.333496,4513.974121,4549.358887,4531.538574,4515.897461,4382.94873,4402.820313,4564.871582,4528.077148,4496.922852,4399.615234,4562.436035,4386.922852,4561.666504,4513.461426,4401.794922,4523.205078,4497.94873,2880.0,0.0,13.0,1024.0,19888.0,,,,0.0,4.0,4.0,4.0,4.0,4.0,4.0,4.0,4.0,4.0,4.0,4.0,4.0,4.0,4.0,4.0,4.0,4.0,4.0,4.0,4.0,4.0,4.0,4.0,4.0,4.0,4.0,4.0,4.0,4.0,4.0,4.0,4.0,100.0,,,,,,,,,,,,,,,,,,,,,,,,,,,,,,,,,,,,,,,,,,,,,,,,,,,,,,,,,,,,,,,,,,,,,,,,,,,,,,,,,,,,,,,,,,,,,,,,,,,,,,,,,,,,,,,,,,,,,,,,,,,,,,,,,,,,,,,,,,,,,,,,,,,,,,,,,,,,,,,,,,,,,,,,,,,,,,,,,,,,,,,,,,,,,,,,,,,,,,,,,,,,,,
1763975479.164566,16805.0,0.0,4399.743652,4400.384766,4504.102539,4515.128418,4401.794922,4535.641113,4531.922852,4384.358887,4575.384766,4405.641113,4485.512695,4523.589844,4560.256348,4395.641113,4367.05127,4506.025879,4541.922852,4528.205078,4520.0,4377.820313,4403.974121,4559.743652,4523.717773,4496.282227,4401.153809,4562.179688,4387.563965,4558.589844,4512.307617,4402.307617,4525.128418,4497.94873,2399.0,0.0,13.0,1024.0,19888.0,,,,0.0,4.0,4.0,4.0,4.0,4.0,4.0,4.0,4.0,4.0,4.0,4.0,4.0,4.0,4.0,4.0,4.0,4.0,4.0,4.0,4.0,4.0,4.0,4.0,4.0,4.0,4.0,4.0,4.0,4.0,4.0,4.0,4.0,100.0,,,,,,,,,,,,,,,,,,,,,,,,,,,,,,,,,,,36969.0,0.0,0.464927,0.308411,0.209412,0.80304,0.8712,-0.493713,0.050787,37.666668,-19.666666,-26.0,,,,,,,,,,,,,,,,,,,,,,,,,,,,,,,,,,,,,,,,,,,,,,,,,,,,,,,,,,,,,,,,,,,,,,,,,,,,,,,,,,,,,,,,,,,,,,,,,,,,,,,,,,,,,,,,,,,,,,,,,,,,,,,,,,,,,,,,,,,,,,,,,,,,,,,,,,,,,,,,
1763975479.168472,16806.0,0.0,4398.077148,4402.05127,4509.230957,4516.794922,4403.205078,4530.0,4533.717773,4389.871582,4574.358887,4391.794922,4484.358887,4522.563965,4560.769043,4394.743652,4366.666504,4506.794922,4540.128418,4529.230957,4519.102539,4373.205078,4403.205078,4559.358887,4522.563965,4496.794922,4401.282227,4566.025879,4393.077148,4559.487305,4513.205078,4404.358887,4529.615234,4500.897461,2979.0,0.0,13.0,1280.0,19896.0,,,,0.0,4.0,4.0,4.0,4.0,4.0,4.0,4.0,4.0,4.0,4.0,4.0,4.0,4.0,4.0,4.0,4.0,4.0,4.0,4.0,4.0,4.0,4.0,4.0,4.0,4.0,4.0,4.0,4.0,4.0,4.0,4.0,4.0,100.0,,,,,,,,,,,,,,,,,,,,,,,,,,,,,,,,,,,,,,,,,,,,,,,,,,,,,,,,,,,,,,,,,,,,,,,,,,,,,,,,,,,,,,,,,,,,,,,,,,,,,,,,,,,,,,,,,,,,,,,,,,,,,,,,,,,,,,,,,,,,,,,,,,,,,,,,,,,,,,,,,,,,,,,,,,,,,,,,,,,,,,,,,,,,,,,,,,,,,,,,,,,,,,
1763975479.172378,16807.0,0.0,4398.846191,4407.436035,4514.358887,4521.794922,4405.769043,4521.922852,4537.94873,4396.282227,4575.512695,4390.0,4485.512695,4525.256348,4565.256348,4399.358887,4368.205078,4519.743652,4543.717773,4534.871582,4512.436035,4373.717773,4401.153809,4562.307617,4525.0,4498.974121,4400.384766,4573.461426,4400.897461,4564.358887,4516.282227,4408.333496,4535.769043,4506.794922,2970.0,0.0,13.0,1280.0,19896.0,,,,0.0,4.0,4.0,4.0,4.0,4.0,4.0,4.0,4.0,4.0,4.0,4.0,4.0,4.0,4.0,4.0,4.0,4.0,4.0,4.0,4.0,4.0,4.0,4.0,4.0,4.0,4.0,4.0,4.0,4.0,4.0,4.0,4.0,100.0,,,,,,,,,,,,,,,,,,,,,,,,,,,,,,,,,,,,,,,,,,,,,,,,,,,,,,,,,,,,,,,,,,,,,,,,,,,,,,,,,,,,,,,,,,,,,,,,,,,,,,,,,,,,,,,,,,,,,,,,,,,,,,,,,,,,,,,,,,,,,,,,,,,,,,,,,,,,,,,,,,,,,,,,,,,,,,,,,,,,,,,,,,,,,,,,,,,,,,,,,,,,,,
1763975479.176284,16808.0,0.0,4406.666504,4418.846191,4522.820313,4533.589844,4413.461426,4518.717773,4547.05127,4406.282227,4583.717773,4405.512695,4493.846191,4535.512695,4577.692383,4411.666504,4377.179688,4543.333496,4554.487305,4548.205078,4509.358887,4385.384766,4403.974121,4571.025879,4535.641113,4507.307617,4405.128418,4586.922852,4412.820313,4576.025879,4525.512695,4418.717773,4547.05127,4518.974121,2651.0,0.0,13.0,1536.0,19903.0,,,,0.0,4.0,4.0,4.0,4.0,4.0,4.0,4.0,4.0,4.0,4.0,4.0,4.0,4.0,4.0,4.0,4.0,4.0,4.0,4.0,4.0,4.0,4.0,4.0,4.0,4.0,4.0,4.0,4.0,4.0,4.0,4.0,4.0,100.0,,,,,,,,,,,,,,,,,,,,,,,,,,,,,,,,,,,,,,,,,,,,,,,4.311663,9.68681,5.107448,4.523897,6.214985,2.881142,6.098304,5.372114,3.962392,6.07462,2.925007,5.069295,5.516263,5.903605,6.624092,2.465204,4.777229,5.784945,6.433661,6.991703,1.762052,3.72855,3.633779,3.637927,4.779129,3.397074,4.789608,2.57499,2.413558,3.676091,3.305032,10.845513,4.443536,4.720753,6.107224,3.002944,5.733871,4.892259,6.28276,6.565855,2.002711,4.438674,4.161748,5.630129,6.552953,1.993287,4.740941,4.388776,10.120263,9.913463,3.004861,8.68516,3.678179,4.412303,5.651177,5.246571,16.148613,4.207087,4.704316,5.814813,8.446383,28.475321,4.051229,5.075425,6.732493,2.170516,4.629993,2.533961,3.35986,5.119422,2.662383,2.989367,3.365813,4.697279,5.854185,8.052427,11.33083,4.523951,4.417352,9.035143,7.758021,22.777746,4.135843,4.958373,5.616562,3.284882,7.120928,6.400449,5.44998,8.888468,2.873942,4.090167,7.500167,5.648525,7.748416,3.179626,2.213971,5.952816,7.068307,7.407581,3.899657,2.856877,6.367891,6.502653,6.254951,6.247775,9.084885,7.462223,5.791493,7.364229,5.868556,14.205438,6.207187,5.120153,7.062952,4.639904,4.065377,7.017439,5.890398,6.328135,5.476567,5.452662,8.900252,7.320716,7.577224,3.360302,4.08224,6.33148,6.311517,6.745324,3.756763,4.979277,6.135912,5.36432,6.514246,4.573313,6.011091,5.440644,5.100861,6.837802,3.513618,7.298417,5.406119,4.373074,6.30227,3.181158,6.500211,5.689132,4.676451,6.497819,2.609036,5.17579,6.065798,5.397177,6.410536,2.86458,4.614254,5.557219,5.057887,6.711482
1763975479.18019,16809.0,0.0,4423.077148,4436.282227,4537.05127,4552.820313,4428.205078,4525.641113,4562.179688,4421.666504,4599.871582,4431.025879,4511.025879,4553.717773,4598.333496,4429.487305,4395.512695,4569.230957,4571.153809,4569.230957,4518.077148,4407.436035,4415.641113,4586.666504,4555.256348,4523.461426,4420.512695,4605.897461,4430.0,4594.743652,4542.820313,4436.282227,4564.487305,4537.307617,2838.0,0.0,13.0,1536.0,19903.0,,,,0.0,4.0,4.0,4.0,4.0,4.0,4.0,4.0,4.0,4.0,4.0,4.0,4.0,4.0,4.0,4.0,4.0,4.0,4.0,4.0,4.0,4.0,4.0,4.0,4.0,4.0,4.0,4.0,4.0,4.0,4.0,4.0,4.0,100.0,,,,,,,,,,,,,,,,,,,,,,,,,,,,,,,,,,,36970.0,0.0,0.46492,0.308228,0.209229,0.803162,0.870223,-0.485411,0.052741,37.666668,-19.666666,-26.333334,,,,,,,,,,,,,,,,,,,,,,,,,,,,,,,,,,,,,,,,,,,,,,,,,,,,,,,,,,,,,,,,,,,,,,,,,,,,,,,,,,,,,,,,,,,,,,,,,,,,,,,,,,,,,,,,,,,,,,,,,,,,,,,,,,,,,,,,,,,,,,,,,,,,,,,,,,,,,,,,
1763975479.184096,16810.0,0.0,4441.666504,4452.307617,4552.820313,4571.794922,4444.102539,4539.230957,4578.461426,4437.436035,4616.666504,4450.0,4530.256348,4573.077148,4620.0,4445.128418,4416.538574,4585.512695,4586.794922,4589.615234,4536.153809,4428.846191,4430.769043,4602.94873,4576.282227,4540.897461,4441.666504,4622.94873,4446.922852,4613.717773,4561.922852,4453.974121,4581.282227,4553.589844,2654.0,0.0,13.0,1792.0,19911.0,,,,0.0,4.0,4.0,4.0,4.0,4.0,4.0,4.0,4.0,4.0,4.0,4.0,4.0,4.0,4.0,4.0,4.0,4.0,4.0,4.0,4.0,4.0,4.0,4.0,4.0,4.0,4.0,4.0,4.0,4.0,4.0,4.0,4.0,100.0,,,,,,,,,,,,,,,,,,,,,,,,,,,,,,,,,,,,,,,,,,,,,,,,,,,,,,,,,,,,,,,,,,,,,,,,,,,,,,,,,,,,,,,,,,,,,,,,,,,,,,,,,,,,,,,,,,,,,,,,,,,,,,,,,,,,,,,,,,,,,,,,,,,,,,,,,,,,,,,,,,,,,,,,,,,,,,,,,,,,,,,,,,,,,,,,,,,,,,,,,,,,,,
1763975479.188002,16811.0,0.0,4451.025879,4455.897461,4559.230957,4577.563965,4450.128418,4548.717773,4586.025879,4442.94873,4622.307617,4448.846191,4539.615234,4582.436035,4630.128418,4449.743652,4427.563965,4582.436035,4591.794922,4595.384766,4550.769043,4434.358887,4437.692383,4609.358887,4585.256348,4548.333496,4455.0,4626.666504,4453.461426,4621.410156,4570.641113,4460.512695,4586.538574,4556.025879,2986.0,0.0,13.0,1792.0,19911.0,,,,0.0,4.0,4.0,4.0,4.0,4.0,4.0,4.0,4.0,4.0,4.0,4.0,4.0,4.0,4.0,4.0,4.0,4.0,4.0,4.0,4.0,4.0,4.0,4.0,4.0,4.0,4.0,4.0,4.0,4.0,4.0,4.0,4.0,100.0,,,,,,,,,,,,,,,,,,,,,,,,,,,,,,,,,,,,,,,,,,,,,,,,,,,,,,,,,,,,,,,,,,,,,,,,,,,,,,,,,,,,,,,,,,,,,,,,,,,,,,,,,,,,,,,,,,,,,,,,,,,,,,,,,,,,,,,,,,,,,,,,,,,,,,,,,,,,,,,,,,,,,,,,,,,,,,,,,,,,,,,,,,,,,,,,,,,,,,,,,,,,,,
1763975479.191908,16812.0,0.0,4443.077148,4441.282227,4548.717773,4562.436035,4439.102539,4545.0,4577.94873,4431.282227,4609.743652,4427.05127,4530.384766,4573.974121,4620.897461,4439.102539,4419.743652,4557.820313,4580.897461,4577.307617,4549.230957,4417.436035,4429.102539,4599.358887,4573.846191,4538.846191,4448.461426,4611.666504,4442.692383,4611.025879,4561.025879,4449.230957,4573.846191,4539.743652,2938.0,0.0,13.0,2048.0,19919.0,,,,0.0,4.0,4.0,4.0,4.0,4.0,4.0,4.0,4.0,4.0,4.0,4.0,4.0,4.0,4.0,4.0,4.0,4.0,4.0,4.0,4.0,4.0,4.0,4.0,4.0,4.0,4.0,4.0,4.0,4.0,4.0,4.0,4.0,100.0,,,,,,,,,,,,,,,,,,,,,,,,,,,,,,,,,,,,,,,,,,,,,,,,,,,,,,,,,,,,,,,,,,,,,,,,,,,,,,,,,,,,,,,,,,,,,,,,,,,,,,,,,,,,,,,,,,,,,,,,,,,,,,,,,,,,,,,,,,,,,,,,,,,,,,,,,,,,,,,,,,,,,,,,,,,,,,,,,,,,,,,,,,,,,,,,,,,,,,,,,,,,,,
1763975479.195814,16813.0,0.0,4420.256348,4414.102539,4524.358887,4532.692383,4414.871582,4528.974121,4556.666504,4406.025879,4583.974121,4398.717773,4505.256348,4551.025879,4595.769043,4417.179688,4394.871582,4519.487305,4559.487305,4540.128418,4530.128418,4386.794922,4409.102539,4578.333496,4547.05127,4516.794922,4422.820313,4585.0,4418.461426,4587.179688,4537.179688,4424.871582,4548.205078,4512.179688,2713.0,0.0,13.0,2048.0,19919.0,,,,0.0,4.0,4.0,4.0,4.0,4.0,4.0,4.0,4.0,4.0,4.0,4.0,4.0,4.0,4.0,4.0,4.0,4.0,4.0,4.0,4.0,4.0,4.0,4.0,4.0,4.0,4.0,4.0,4.0,4.0,4.0,4.0,4.0,100.0,,,,,,,,,,,,,,,,,,,,,,,,,,,,,,,,,,,36971.0,0.0,0.464849,0.308411,0.209351,0.803101,0.879502,-0.481992,0.055183,39.5,-18.666666,-25.0,,,,,,,,,,,,,,,,,,,,,,,,,,,,,,,,,,,,,,,,,,,,,,,,,,,,,,,,,,,,,,,,,,,,,,,,,,,,,,,,,,,,,,,,,,,,,,,,,,,,,,,,,,,,,,,,,,,,,,,,,,,,,,,,,,,,,,,,,,,,,,,,,,,,,,,,,,,,,,,,
1763975479.19972,16814.0,0.0,4396.153809,4389.743652,4500.0,4506.153809,4391.282227,4511.153809,4534.487305,4380.897461,4560.256348,4382.94873,4478.846191,4527.692383,4569.487305,4395.128418,4366.282227,4484.358887,4540.769043,4503.974121,4506.666504,4362.436035,4391.282227,4561.410156,4521.538574,4497.436035,4393.974121,4562.820313,4395.384766,4565.256348,4513.717773,4402.307617,4524.743652,4489.871582,2718.0,0.0,13.0,2304.0,19927.0,,,,0.0,4.0,4.0,4.0,4.0,4.0,4.0,4.0,4.0,4.0,4.0,4.0,4.0,4.0,4.0,4.0,4.0,4.0,4.0,4.0,4.0,4.0,4.0,4.0,4.0,4.0,4.0,4.0,4.0,4.0,4.0,4.0,4.0,100.0,,,,,,,,,,,,,,,,,,,,,,,,,,,,,,,,,,,,,,,,,,,,,,,,,,,,,,,,,,,,,,,,,,,,,,,,,,,,,,,,,,,,,,,,,,,,,,,,,,,,,,,,,,,,,,,,,,,,,,,,,,,,,,,,,,,,,,,,,,,,,,,,,,,,,,,,,,,,,,,,,,,,,,,,,,,,,,,,,,,,,,,,,,,,,,,,,,,,,,,,,,,,,,
1763975479.203626,16815.0,0.0,4386.282227,4382.94873,4491.025879,4499.743652,4382.820313,4504.871582,4525.641113,4371.922852,4553.461426,4390.769043,4468.589844,4519.871582,4560.0,4386.025879,4350.897461,4472.179688,4539.102539,4493.333496,4498.974121,4361.153809,4390.256348,4564.102539,4515.641113,4495.769043,4382.179688,4559.743652,4389.358887,4560.769043,4505.897461,4396.282227,4518.589844,4487.05127,2837.0,0.0,13.0,2304.0,19927.0,,,,0.0,4.0,4.0,4.0,4.0,4.0,4.0,4.0,4.0,4.0,4.0,4.0,4.0,4.0,4.0,4.0,4.0,4.0,4.0,4.0,4.0,4.0,4.0,4.0,4.0,4.0,4.0,4.0,4.0,4.0,4.0,4.0,4.0,100.0,,,,,,,,,,,,,,,,,,,,,,,,,,,,,,,,,,,,,,,,,,,,,,,,,,,,,,,,,,,,,,,,,,,,,,,,,,,,,,,,,,,,,,,,,,,,,,,,,,,,,,,,,,,,,,,,,,,,,,,,,,,,,,,,,,,,,,,,,,,,,,,,,,,,,,,,,,,,,,,,,,,,,,,,,,,,,,,,,,,,,,,,,,,,,,,,,,,,,,,,,,,,,,
1763975479.207532,16816.0,0.0,4397.436035,4396.794922,4502.94873,4517.436035,4394.230957,4516.282227,4536.282227,4384.615234,4567.692383,4417.563965,4481.922852,4533.846191,4575.384766,4395.769043,4357.94873,4493.589844,4559.230957,4519.102539,4517.307617,4383.205078,4409.230957,4590.0,4534.487305,4515.512695,4396.282227,4577.307617,4405.641113,4577.820313,4518.589844,4411.025879,4533.846191,4505.897461,2940.0,0.0,13.0,2560.0,19935.0,,,,0.0,4.0,4.0,4.0,4.0,4.0,4.0,4.0,4.0,4.0,4.0,4.0,4.0,4.0,4.0,4.0,4.0,4.0,4.0,4.0,4.0,4.0,4.0,4.0,4.0,4.0,4.0,4.0,4.0,4.0,4.0,4.0,4.0,100.0,,,,,,,,,,,,,,,,,,,,,,,,,,,,,,,,,,,,,,,,,,,,,,,,,,,,,,,,,,,,,,,,,,,,,,,,,,,,,,,,,,,,,,,,,,,,,,,,,,,,,,,,,,,,,,,,,,,,,,,,,,,,,,,,,,,,,,,,,,,,,,,,,,,,,,,,,,,,,,,,,,,,,,,,,,,,,,,,,,,,,,,,,,,,,,,,,,,,,,,,,,,,,,
1763975479.211438,16817.0,0.0,4420.512695,4420.0,4526.410156,4545.641113,4416.282227,4537.820313,4558.846191,4409.358887,4591.666504,4444.743652,4508.589844,4560.384766,4606.153809,4418.333496,4382.05127,4540.128418,4590.769043,4566.922852,4551.666504,4412.05127,4436.153809,4625.384766,4565.128418,4543.589844,4425.0,4601.538574,4432.563965,4604.358887,4541.794922,4434.871582,4558.717773,4532.692383,3058.0,0.0,13.0,2560.0,19935.0,,,,0.0,4.0,4.0,4.0,4.0,4.0,4.0,4.0,4.0,4.0,4.0,4.0,4.0,4.0,4.0,4.0,4.0,4.0,4.0,4.0,4.0,4.0,4.0,4.0,4.0,4.0,4.0,4.0,4.0,4.0,4.0,4.0,4.0,100.0,,,,,,,,,,,,,,,,,,,,,,,,,,,,,,,,,,,36972.0,0.0,0.464849,0.308411,0.209351,0.803101,0.879502,-0.481992,0.055183,38.5,-19.166666,-25.5,,,,,,,,,,,,,,,,,,,,,,,,,,,,,,,,,,,,,,,,,,,,,,,,,,,,,,,,,,,,,,,,,,,,,,,,,,,,,,,,,,,,,,,,,,,,,,,,,,,,,,,,,,,,,,,,,,,,,,,,,,,,,,,,,,,,,,,,,,,,,,,,,,,,,,,,,,,,,,,,
1763975479.215344,16818.0,0.0,4437.436035,4434.615234,4543.461426,4564.230957,4433.077148,4554.230957,4576.410156,4427.563965,4607.307617,4452.563965,4529.230957,4580.641113,4630.897461,4438.717773,4406.282227,4585.128418,4614.230957,4605.384766,4576.666504,4427.307617,4451.794922,4647.94873,4585.641113,4558.846191,4446.025879,4613.846191,4449.615234,4620.0,4557.563965,4449.487305,4574.487305,4547.436035,2822.0,0.0,13.0,2560.0,19943.0,,,,0.0,4.0,4.0,4.0,4.0,4.0,4.0,4.0,4.0,4.0,4.0,4.0,4.0,4.0,4.0,4.0,4.0,4.0,4.0,4.0,4.0,4.0,4.0,4.0,4.0,4.0,4.0,4.0,4.0,4.0,4.0,4.0,4.0,100.0,,,,,,,,,,,,,,,,,,,,,,,,,,,,,,,,,,,,,,,,,,,,,,,,,,,,,,,,,,,,,,,,,,,,,,,,,,,,,,,,,,,,,,,,,,,,,,,,,,,,,,,,,,,,,,,,,,,,,,,,,,,,,,,,,,,,,,,,,,,,,,,,,,,,,,,,,,,,,,,,,,,,,,,,,,,,,,,,,,,,,,,,,,,,,,,,,,,,,,,,,,,,,,
1763975479.21925,16819.0,0.0,4435.0,4430.256348,4542.05127,4561.666504,4434.230957,4553.974121,4576.666504,4426.922852,4605.128418,4435.897461,4530.512695,4580.384766,4632.307617,4444.487305,4415.0,4601.153809,4614.743652,4610.0,4573.589844,4421.410156,4445.128418,4643.205078,4582.179688,4549.615234,4444.487305,4605.641113,4444.230957,4613.333496,4554.743652,4443.846191,4570.384766,4540.128418,3020.0,0.0,13.0,2560.0,19943.0,,,,0.0,4.0,4.0,4.0,4.0,4.0,4.0,4.0,4.0,4.0,4.0,4.0,4.0,4.0,4.0,4.0,4.0,4.0,4.0,4.0,4.0,4.0,4.0,4.0,4.0,4.0,4.0,4.0,4.0,4.0,4.0,4.0,4.0,100.0,,,,,,,,,,,,,,,,,,,,,,,,,,,,,,,,,,,,,,,,,,,,,,,,,,,,,,,,,,,,,,,,,,,,,,,,,,,,,,,,,,,,,,,,,,,,,,,,,,,,,,,,,,,,,,,,,,,,,,,,,,,,,,,,,,,,,,,,,,,,,,,,,,,,,,,,,,,,,,,,,,,,,,,,,,,,,,,,,,,,,,,,,,,,,,,,,,,,,,,,,,,,,,
1763975479.223156,16820.0,0.0,4415.897461,4412.179688,4525.384766,4543.974121,4422.05127,4539.230957,4561.153809,4410.769043,4590.641113,4408.717773,4515.0,4561.282227,4610.769043,4434.358887,4405.641113,4579.487305,4594.487305,4581.538574,4546.538574,4403.205078,4422.436035,4616.538574,4560.0,4522.94873,4423.974121,4584.615234,4421.538574,4590.128418,4536.794922,4423.333496,4551.282227,4518.077148,2998.0,0.0,13.0,2561.0,19950.0,,,,0.0,4.0,4.0,4.0,4.0,4.0,4.0,4.0,4.0,4.0,4.0,4.0,4.0,4.0,4.0,4.0,4.0,4.0,4.0,4.0,4.0,4.0,4.0,4.0,4.0,4.0,4.0,4.0,4.0,4.0,4.0,4.0,4.0,100.0,,,,,,,,,,,,,,,,,,,,,,,,,,,,,,,,,,,,,,,,,,,,,,,,,,,,,,,,,,,,,,,,,,,,,,,,,,,,,,,,,,,,,,,,,,,,,,,,,,,,,,,,,,,,,,,,,,,,,,,,,,,,,,,,,,,,,,,,,,,,,,,,,,,,,,,,,,,,,,,,,,,,,,,,,,,,,,,,,,,,,,,,,,,,,,,,,,,,,,,,,,,,,,
1763975479.227062,16821.0,0.0,4395.0,4394.743652,4507.94873,4527.179688,4407.820313,4522.94873,4542.436035,4393.589844,4578.461426,4393.333496,4496.794922,4538.205078,4582.563965,4417.05127,4388.717773,4535.897461,4569.230957,4543.846191,4519.358887,4388.461426,4401.922852,4588.333496,4536.666504,4498.717773,4401.794922,4567.307617,4398.974121,4567.436035,4518.333496,4403.589844,4532.563965,4498.846191,2924.0,0.0,13.0,2561.0,19950.0,,,,0.0,4.0,4.0,4.0,4.0,4.0,4.0,4.0,4.0,4.0,4.0,4.0,4.0,4.0,4.0,4.0,4.0,4.0,4.0,4.0,4.0,4.0,4.0,4.0,4.0,4.0,4.0,4.0,4.0,4.0,4.0,4.0,4.0,100.0,,,,,,,,,,,,,,,,,,,,,,,,,,,,,,,,,,,36973.0,0.0,0.46493,0.308289,0.209351,0.803101,0.8712,-0.481992,0.057136,38.333332,-20.166666,-25.0,,,,,,,,,,,,,,,,,,,,,,,,,,,,,,,,,,,,,,,,,,,,,,,,,,,,,,,,,,,,,,,,,,,,,,,,,,,,,,,,,,,,,,,,,,,,,,,,,,,,,,,,,,,,,,,,,,,,,,,,,,,,,,,,,,,,,,,,,,,,,,,,,,,,,,,,,,,,,,,,
1763975479.230968,16822.0,0.0,4386.666504,4389.871582,4501.922852,4523.205078,4401.282227,4516.666504,4532.436035,4387.820313,4577.94873,4399.615234,4488.077148,4525.897461,4565.384766,4403.717773,4378.077148,4497.563965,4555.256348,4522.820313,4513.717773,4386.282227,4397.820313,4576.538574,4526.922852,4492.307617,4393.589844,4565.0,4391.025879,4558.974121,4511.666504,4397.563965,4526.666504,4495.256348,2997.0,0.0,13.0,2561.0,19958.0,,,,0.0,4.0,4.0,4.0,4.0,4.0,4.0,4.0,4.0,4.0,4.0,4.0,4.0,4.0,4.0,4.0,4.0,4.0,4.0,4.0,4.0,4.0,4.0,4.0,4.0,4.0,4.0,4.0,4.0,4.0,4.0,4.0,4.0,100.0,,,,,,,,,,,,,,,,,,,,,,,,,,,,,,,,,,,,,,,,,,,,,,,,,,,,,,,,,,,,,,,,,,,,,,,,,,,,,,,,,,,,,,,,,,,,,,,,,,,,,,,,,,,,,,,,,,,,,,,,,,,,,,,,,,,,,,,,,,,,,,,,,,,,,,,,,,,,,,,,,,,,,,,,,,,,,,,,,,,,,,,,,,,,,,,,,,,,,,,,,,,,,,
1763975479.234874,16823.0,0.0,4391.922852,4396.922852,4507.94873,4530.384766,4402.94873,4521.538574,4533.077148,4393.717773,4586.282227,4416.538574,4490.512695,4527.563965,4564.230957,4399.102539,4379.487305,4483.717773,4556.410156,4526.922852,4531.410156,4393.461426,4409.102539,4582.692383,4531.282227,4503.077148,4400.897461,4575.128418,4398.077148,4564.487305,4517.436035,4405.384766,4533.205078,4505.384766,2939.0,0.0,13.0,2561.0,19958.0,,,,0.0,4.0,4.0,4.0,4.0,4.0,4.0,4.0,4.0,4.0,4.0,4.0,4.0,4.0,4.0,4.0,4.0,4.0,4.0,4.0,4.0,4.0,4.0,4.0,4.0,4.0,4.0,4.0,4.0,4.0,4.0,4.0,4.0,100.0,,,,,,,,,,,,,,,,,,,,,,,,,,,,,,,,,,,,,,,,,,,,,,,,,,,,,,,,,,,,,,,,,,,,,,,,,,,,,,,,,,,,,,,,,,,,,,,,,,,,,,,,,,,,,,,,,,,,,,,,,,,,,,,,,,,,,,,,,,,,,,,,,,,,,,,,,,,,,,,,,,,,,,,,,,,,,,,,,,,,,,,,,,,,,,,,,,,,,,,,,,,,,,
1763975479.23878,16824.0,0.0,4400.769043,4406.410156,4516.282227,4537.94873,4406.410156,4529.102539,4537.820313,4402.179688,4592.563965,4423.205078,4496.538574,4534.487305,4571.153809,4401.025879,4387.94873,4494.358887,4563.846191,4545.128418,4554.230957,4400.769043,4422.563965,4593.974121,4538.717773,4517.05127,4413.077148,4586.025879,4409.102539,4572.436035,4525.897461,4416.410156,4542.05127,4516.922852,2872.0,0.0,13.0,2304.0,19966.0,,,,0.0,4.0,4.0,4.0,4.0,4.0,4.0,4.0,4.0,4.0,4.0,4.0,4.0,4.0,4.0,4.0,4.0,4.0,4.0,4.0,4.0,4.0,4.0,4.0,4.0,4.0,4.0,4.0,4.0,4.0,4.0,4.0,4.0,100.0,,,,,,,,,,,,,,,,,,,,,,,,,,,,,,,,,,,,,,,,,,,,,,,,,,,,,,,,,,,,,,,,,,,,,,,,,,,,,,,,,,,,,,,,,,,,,,,,,,,,,,,,,,,,,,,,,,,,,,,,,,,,,,,,,,,,,,,,,,,,,,,,,,,,,,,,,,,,,,,,,,,,,,,,,,,,,,,,,,,,,,,,,,,,,,,,,,,,,,,,,,,,,,
1763975479.242686,16825.0,0.0,4402.436035,4409.487305,4518.205078,4537.563965,4406.025879,4530.512695,4538.846191,4405.256348,4590.0,4408.846191,4498.205078,4536.410156,4575.256348,4404.230957,4395.256348,4516.153809,4565.641113,4559.615234,4561.410156,4402.692383,4425.897461,4596.025879,4538.717773,4520.512695,4418.205078,4588.333496,4412.692383,4572.820313,4527.307617,4420.0,4543.974121,4519.230957,2856.0,0.0,13.0,2304.0,19966.0,,,,0.0,4.0,4.0,4.0,4.0,4.0,4.0,4.0,4.0,4.0,4.0,4.0,4.0,4.0,4.0,4.0,4.0,4.0,4.0,4.0,4.0,4.0,4.0,4.0,4.0,4.0,4.0,4.0,4.0,4.0,4.0,4.0,4.0,100.0,,,,,,,,,,,,,,,,,,,,,,,,,,,,,,,,,,,36974.0,0.0,0.464822,0.308411,0.209412,0.803101,0.876572,-0.487364,0.046392,37.666668,-21.166666,-26.0,,,,,,,,,,,,,,,,,,,,,,,,,,,,,,,,,,,,,,,,,,,,,,,,,,,,,,,,,,,,,,,,,,,,,,,,,,,,,,,,,,,,,,,,,,,,,,,,,,,,,,,,,,,,,,,,,,,,,,,,,,,,,,,,,,,,,,,,,,,,,,,,,,,,,,,,,,,,,,,,
1763975479.246592,16826.0,0.0,4395.512695,4405.512695,4513.717773,4530.641113,4401.666504,4524.230957,4535.0,4401.794922,4581.666504,4382.692383,4494.615234,4530.769043,4571.922852,4406.410156,4396.666504,4534.487305,4558.205078,4561.025879,4547.179688,4400.256348,4416.922852,4585.769043,4530.384766,4510.641113,4412.179688,4581.922852,4406.153809,4564.743652,4520.512695,4414.487305,4537.692383,4511.410156,2770.0,0.0,13.0,2560.0,19974.0,,,,0.0,4.0,4.0,4.0,4.0,4.0,4.0,4.0,4.0,4.0,4.0,4.0,4.0,4.0,4.0,4.0,4.0,4.0,4.0,4.0,4.0,4.0,4.0,4.0,4.0,4.0,4.0,4.0,4.0,4.0,4.0,4.0,4.0,100.0,,,,,,,,,,,,,,,,,,,,,,,,,,,,,,,,,,,,,,,,,,,,,,,,,,,,,,,,,,,,,,,,,,,,,,,,,,,,,,,,,,,,,,,,,,,,,,,,,,,,,,,,,,,,,,,,,,,,,,,,,,,,,,,,,,,,,,,,,,,,,,,,,,,,,,,,,,,,,,,,,,,,,,,,,,,,,,,,,,,,,,,,,,,,,,,,,,,,,,,,,,,,,,
1763975479.250498,16827.0,0.0,4387.179688,4400.384766,4509.102539,4525.384766,4398.077148,4516.153809,4530.0,4397.307617,4576.666504,4364.358887,4490.897461,4522.563965,4565.256348,4407.820313,4392.94873,4543.974121,4546.922852,4553.205078,4523.846191,4397.94873,4402.820313,4571.282227,4521.410156,4495.769043,4400.128418,4573.717773,4395.769043,4556.025879,4512.436035,4406.025879,4529.743652,4501.410156,2998.0,0.0,13.0,2560.0,19974.0,,,,0.0,4.0,4.0,4.0,4.0,4.0,4.0,4.0,4.0,4.0,4.0,4.0,4.0,4.0,4.0,4.0,4.0,4.0,4.0,4.0,4.0,4.0,4.0,4.0,4.0,4.0,4.0,4.0,4.0,4.0,4.0,4.0,4.0,100.0,,,,,,,,,,,,,,,,,,,,,,,,,,,,,,,,,,,,,,,,,,,,,,,,,,,,,,,,,,,,,,,,,,,,,,,,,,,,,,,,,,,,,,,,,,,,,,,,,,,,,,,,,,,,,,,,,,,,,,,,,,,,,,,,,,,,,,,,,,,,,,,,,,,,,,,,,,,,,,,,,,,,,,,,,,,,,,,,,,,,,,,,,,,,,,,,,,,,,,,,,,,,,,
1763975479.254404,16828.0,0.0,4385.384766,4400.0,4510.897461,4528.589844,4399.487305,4513.205078,4529.230957,4397.179688,4580.769043,4368.333496,4492.307617,4519.102539,4562.179688,4410.512695,4387.692383,4546.922852,4540.641113,4546.025879,4510.256348,4398.589844,4393.461426,4563.461426,4520.128418,4486.794922,4390.641113,4570.641113,4390.0,4554.871582,4510.256348,4402.692383,4527.436035,4498.205078,2955.0,0.0,13.0,2560.0,19982.0,,,,0.0,4.0,4.0,4.0,4.0,4.0,4.0,4.0,4.0,4.0,4.0,4.0,4.0,4.0,4.0,4.0,4.0,4.0,4.0,4.0,4.0,4.0,4.0,4.0,4.0,4.0,4.0,4.0,4.0,4.0,4.0,4.0,4.0,100.0,,,,,,,,,,,,,,,,,,,,,,,,,,,,,,,,,,,,,,,,,,,,,,,,,,,,,,,,,,,,,,,,,,,,,,,,,,,,,,,,,,,,,,,,,,,,,,,,,,,,,,,,,,,,,,,,,,,,,,,,,,,,,,,,,,,,,,,,,,,,,,,,,,,,,,,,,,,,,,,,,,,,,,,,,,,,,,,,,,,,,,,,,,,,,,,,,,,,,,,,,,,,,,
1763975479.25831,16829.0,0.0,4392.179688,4406.538574,4520.128418,4540.128418,4406.025879,4518.205078,4534.615234,4402.307617,4592.94873,4394.358887,4499.615234,4523.846191,4567.05127,4415.256348,4384.871582,4548.974121,4544.358887,4545.769043,4516.794922,4401.922852,4394.871582,4567.436035,4528.461426,4489.743652,4390.897461,4575.384766,4393.974121,4563.205078,4516.666504,4407.94873,4533.333496,4505.641113,2822.0,0.0,13.0,2560.0,19982.0,,,,0.0,4.0,4.0,4.0,4.0,4.0,4.0,4.0,4.0,4.0,4.0,4.0,4.0,4.0,4.0,4.0,4.0,4.0,4.0,4.0,4.0,4.0,4.0,4.0,4.0,4.0,4.0,4.0,4.0,4.0,4.0,4.0,4.0,100.0,,,,,,,,,,,,,,,,,,,,,,,,,,,,,,,,,,,36975.0,0.0,0.464903,0.308289,0.209412,0.803101,0.88585,-0.478086,0.051276,37.5,-20.666666,-26.666666,,,,,,,,,,,,,,,,,,,,,,,,,,,,,,,,,,,,,,,,,,,,,,,,,,,,,,,,,,,,,,,,,,,,,,,,,,,,,,,,,,,,,,,,,,,,,,,,,,,,,,,,,,,,,,,,,,,,,,,,,,,,,,,,,,,,,,,,,,,,,,,,,,,,,,,,,,,,,,,,
1763975479.262216,16830.0,0.0,4404.487305,4418.589844,4533.461426,4554.615234,4415.0,4528.846191,4544.615234,4409.871582,4606.538574,4430.256348,4509.871582,4534.871582,4578.974121,4421.794922,4386.794922,4552.563965,4556.794922,4552.05127,4538.461426,4406.666504,4407.05127,4580.897461,4542.436035,4503.717773,4402.94873,4586.922852,4407.307617,4577.436035,4529.487305,4420.128418,4546.153809,4521.153809,3000.0,0.0,13.0,2561.0,19989.0,,,,0.0,4.0,4.0,4.0,4.0,4.0,4.0,4.0,4.0,4.0,4.0,4.0,4.0,4.0,4.0,4.0,4.0,4.0,4.0,4.0,4.0,4.0,4.0,4.0,4.0,4.0,4.0,4.0,4.0,4.0,4.0,4.0,4.0,100.0,,,,,,,,,,,,,,,,,,,,,,,,,,,,,,,,,,,,,,,,,,,,,,,,,,,,,,,,,,,,,,,,,,,,,,,,,,,,,,,,,,,,,,,,,,,,,,,,,,,,,,,,,,,,,,,,,,,,,,,,,,,,,,,,,,,,,,,,,,,,,,,,,,,,,,,,,,,,,,,,,,,,,,,,,,,,,,,,,,,,,,,,,,,,,,,,,,,,,,,,,,,,,,
1763975479.266122,16831.0,0.0,4417.05127,4432.820313,4546.538574,4566.666504,4423.589844,4540.256348,4555.641113,4417.05127,4615.897461,4459.230957,4519.230957,4547.692383,4593.589844,4428.974121,4394.102539,4556.538574,4572.307617,4559.615234,4560.384766,4413.205078,4425.256348,4596.666504,4555.897461,4522.179688,4422.820313,4602.179688,4425.384766,4591.922852,4544.230957,4435.256348,4562.563965,4538.589844,2929.0,0.0,13.0,2561.0,19989.0,,,,0.0,4.0,4.0,4.0,4.0,4.0,4.0,4.0,4.0,4.0,4.0,4.0,4.0,4.0,4.0,4.0,4.0,4.0,4.0,4.0,4.0,4.0,4.0,4.0,4.0,4.0,4.0,4.0,4.0,4.0,4.0,4.0,4.0,100.0,,,,,,,,,,,,,,,,,,,,,,,,,,,,,,,,,,,,,,,,,,,,,,,,,,,,,,,,,,,,,,,,,,,,,,,,,,,,,,,,,,,,,,,,,,,,,,,,,,,,,,,,,,,,,,,,,,,,,,,,,,,,,,,,,,,,,,,,,,,,,,,,,,,,,,,,,,,,,,,,,,,,,,,,,,,,,,,,,,,,,,,,,,,,,,,,,,,,,,,,,,,,,,
1763975479.270028,16832.0,0.0,4426.153809,4445.769043,4556.153809,4573.589844,4430.256348,4548.589844,4564.102539,4422.820313,4618.846191,4470.128418,4525.0,4557.692383,4604.871582,4434.871582,4404.871582,4556.922852,4583.974121,4563.589844,4569.102539,4421.794922,4441.922852,4607.563965,4563.974121,4537.692383,4442.563965,4617.307617,4441.666504,4602.563965,4556.410156,4448.717773,4578.077148,4551.794922,2838.0,0.0,13.0,2561.0,19997.0,,,,0.0,4.0,4.0,4.0,4.0,4.0,4.0,4.0,4.0,4.0,4.0,4.0,4.0,4.0,4.0,4.0,4.0,4.0,4.0,4.0,4.0,4.0,4.0,4.0,4.0,4.0,4.0,4.0,4.0,4.0,4.0,4.0,4.0,100.0,,,,,,,,,,,,,,,,,,,,,,,,,,,,,,,,,,,,,,,,,,,,,,,,,,,,,,,,,,,,,,,,,,,,,,,,,,,,,,,,,,,,,,,,,,,,,,,,,,,,,,,,,,,,,,,,,,,,,,,,,,,,,,,,,,,,,,,,,,,,,,,,,,,,,,,,,,,,,,,,,,,,,,,,,,,,,,,,,,,,,,,,,,,,,,,,,,,,,,,,,,,,,,
1763975479.273934,16833.0,0.0,4430.256348,4453.461426,4560.256348,4575.641113,4433.461426,4552.307617,4567.692383,4426.922852,4617.05127,4462.692383,4526.922852,4561.922852,4609.487305,4437.307617,4414.615234,4552.05127,4587.820313,4563.333496,4561.538574,4431.153809,4450.256348,4610.384766,4565.128418,4545.128418,4454.871582,4627.179688,4450.512695,4607.563965,4562.692383,4456.922852,4587.692383,4557.05127,2859.0,0.0,13.0,2561.0,19997.0,,,,0.0,4.0,4.0,4.0,4.0,4.0,4.0,4.0,4.0,4.0,4.0,4.0,4.0,4.0,4.0,4.0,4.0,4.0,4.0,4.0,4.0,4.0,4.0,4.0,4.0,4.0,4.0,4.0,4.0,4.0,4.0,4.0,4.0,100.0,,,,,,,,,,,,,,,,,,,,,,,,,,,,,,,,,,,36976.0,0.0,0.464903,0.308289,0.209412,0.803101,0.88585,-0.483457,0.047369,38.0,-20.166666,-24.5,,,,,,,,,,,,,,,,,,,,,,,,,,,,,,,,,,,,,,,,,,,,,,,,,,,,,,,,,,,,,,,,,,,,,,,,,,,,,,,,,,,,,,,,,,,,,,,,,,,,,,,,,,,,,,,,,,,,,,,,,,,,,,,,,,,,,,,,,,,,,,,,,,,,,,,,,,,,,,,,
1763975479.27784,16834.0,0.0,4430.128418,4453.333496,4558.333496,4573.846191,4432.179688,4552.692383,4565.897461,4428.717773,4613.461426,4446.666504,4525.769043,4560.641113,4608.589844,4435.897461,4419.743652,4544.743652,4584.743652,4562.436035,4546.922852,4436.410156,4448.077148,4606.282227,4561.794922,4544.487305,4456.025879,4628.461426,4449.743652,4607.307617,4562.307617,4458.077148,4588.461426,4553.717773,2273.0,0.0,13.0,2048.0,20005.0,,,,0.0,4.0,4.0,4.0,4.0,4.0,4.0,4.0,4.0,4.0,4.0,4.0,4.0,4.0,4.0,4.0,4.0,4.0,4.0,4.0,4.0,4.0,4.0,4.0,4.0,4.0,4.0,4.0,4.0,4.0,4.0,4.0,4.0,100.0,,,,,,,,,,,,,,,,,,,,,,,,,,,,,,,,,,,,,,,,,,,,,,,,,,,,,,,,,,,,,,,,,,,,,,,,,,,,,,,,,,,,,,,,,,,,,,,,,,,,,,,,,,,,,,,,,,,,,,,,,,,,,,,,,,,,,,,,,,,,,,,,,,,,,,,,,,,,,,,,,,,,,,,,,,,,,,,,,,,,,,,,,,,,,,,,,,,,,,,,,,,,,,
1763975479.281746,16835.0,0.0,4426.794922,4445.0,4550.512695,4567.692383,4426.153809,4551.410156,4560.384766,4426.538574,4608.333496,4431.153809,4522.307617,4555.641113,4605.0,4431.538574,4418.077148,4540.512695,4579.102539,4563.717773,4536.538574,4431.666504,4437.563965,4599.615234,4556.666504,4537.94873,4447.563965,4620.384766,4440.0,4602.179688,4556.410156,4451.666504,4580.641113,4543.461426,2968.0,0.0,13.0,2048.0,20005.0,,,,0.0,4.0,4.0,4.0,4.0,4.0,4.0,4.0,4.0,4.0,4.0,4.0,4.0,4.0,4.0,4.0,4.0,4.0,4.0,4.0,4.0,4.0,4.0,4.0,4.0,4.0,4.0,4.0,4.0,4.0,4.0,4.0,4.0,100.0,,,,,,,,,,,,,,,,,,,,,,,,,,,,,,,,,,,,,,,,,,,,,,,,,,,,,,,,,,,,,,,,,,,,,,,,,,,,,,,,,,,,,,,,,,,,,,,,,,,,,,,,,,,,,,,,,,,,,,,,,,,,,,,,,,,,,,,,,,,,,,,,,,,,,,,,,,,,,,,,,,,,,,,,,,,,,,,,,,,,,,,,,,,,,,,,,,,,,,,,,,,,,,
1763975479.285652,16836.0,0.0,4419.358887,4429.230957,4536.794922,4555.769043,4415.256348,4547.692383,4551.410156,4417.179688,4598.461426,4416.666504,4514.743652,4547.692383,4598.717773,4423.846191,4407.820313,4539.615234,4572.692383,4563.589844,4532.563965,4413.461426,4422.05127,4592.05127,4549.615234,4527.05127,4432.179688,4604.102539,4423.333496,4591.282227,4545.384766,4437.692383,4565.384766,4527.692383,2882.0,0.0,13.0,2304.0,20013.0,,,,0.0,4.0,4.0,4.0,4.0,4.0,4.0,4.0,4.0,4.0,4.0,4.0,4.0,4.0,4.0,4.0,4.0,4.0,4.0,4.0,4.0,4.0,4.0,4.0,4.0,4.0,4.0,4.0,4.0,4.0,4.0,4.0,4.0,100.0,,,,,,,,,,,,,,,,,,,,,,,,,,,,,,,,,,,,,,,,,,,,,,,,,,,,,,,,,,,,,,,,,,,,,,,,,,,,,,,,,,,,,,,,,,,,,,,,,,,,,,,,,,,,,,,,,,,,,,,,,,,,,,,,,,,,,,,,,,,,,,,,,,,,,,,,,,,,,,,,,,,,,,,,,,,,,,,,,,,,,,,,,,,,,,,,,,,,,,,,,,,,,,
1763975479.289558,16837.0,0.0,4405.769043,4408.333496,4517.179688,4536.410156,4400.512695,4538.205078,4538.461426,4399.102539,4580.641113,4396.922852,4500.256348,4535.128418,4586.282227,4411.153809,4387.563965,4535.641113,4562.820313,4553.589844,4525.769043,4384.743652,4403.205078,4581.666504,4538.077148,4511.538574,4411.538574,4581.666504,4401.410156,4573.077148,4528.846191,4416.794922,4543.974121,4506.922852,2401.0,0.0,13.0,2304.0,20013.0,,,,0.0,4.0,4.0,4.0,4.0,4.0,4.0,4.0,4.0,4.0,4.0,4.0,4.0,4.0,4.0,4.0,4.0,4.0,4.0,4.0,4.0,4.0,4.0,4.0,4.0,4.0,4.0,4.0,4.0,4.0,4.0,4.0,4.0,100.0,,,,,,,,,,,,,,,,,,,,,,,,,,,,,,,,,,,36977.0,0.0,0.464903,0.308289,0.209412,0.803101,0.884385,-0.481992,0.048834,38.166668,-20.0,-26.333334,,,,,,,,,,,,,,,,,,,,,,,,,,,,,,,,,,,,,,,,,,,,,,,,,,,,,,,,,,,,,,,,,,,,,,,,,,,,,,,,,,,,,,,,,,,,,,,,,,,,,,,,,,,,,,,,,,,,,,,,,,,,,,,,,,,,,,,,,,,,,,,,,,,,,,,,,,,,,,,,
1763975479.293464,16838.0,0.0,4387.307617,4387.179688,4494.743652,4512.820313,4384.871582,4522.94873,4522.436035,4376.153809,4557.692383,4369.871582,4480.128418,4518.717773,4567.563965,4393.846191,4360.641113,4522.563965,4547.436035,4530.512695,4509.230957,4355.512695,4384.102539,4567.563965,4522.436035,4493.461426,4388.205078,4557.94873,4378.717773,4550.897461,4509.487305,4393.333496,4520.641113,4485.384766,2984.0,0.0,13.0,2560.0,20021.0,,,,0.0,4.0,4.0,4.0,4.0,4.0,4.0,4.0,4.0,4.0,4.0,4.0,4.0,4.0,4.0,4.0,4.0,4.0,4.0,4.0,4.0,4.0,4.0,4.0,4.0,4.0,4.0,4.0,4.0,4.0,4.0,4.0,4.0,100.0,,,,,,,,,,,,,,,,,,,,,,,,,,,,,,,,,,,,,,,,,,,,,,,,,,,,,,,,,,,,,,,,,,,,,,,,,,,,,,,,,,,,,,,,,,,,,,,,,,,,,,,,,,,,,,,,,,,,,,,,,,,,,,,,,,,,,,,,,,,,,,,,,,,,,,,,,,,,,,,,,,,,,,,,,,,,,,,,,,,,,,,,,,,,,,,,,,,,,,,,,,,,,,
1763975479.29737,16839.0,0.0,4372.307617,4374.615234,4477.820313,4494.743652,4374.487305,4508.846191,4508.717773,4358.461426,4540.384766,4346.282227,4463.077148,4504.615234,4550.0,4378.205078,4337.94873,4504.358887,4531.538574,4505.0,4489.102539,4339.358887,4371.666504,4555.512695,4509.871582,4480.384766,4370.128418,4541.794922,4364.487305,4534.358887,4495.128418,4377.820313,4504.358887,4471.666504,2972.0,0.0,13.0,2560.0,20021.0,,,,0.0,4.0,4.0,4.0,4.0,4.0,4.0,4.0,4.0,4.0,4.0,4.0,4.0,4.0,4.0,4.0,4.0,4.0,4.0,4.0,4.0,4.0,4.0,4.0,4.0,4.0,4.0,4.0,4.0,4.0,4.0,4.0,4.0,100.0,,,,,,,,,,,,,,,,,,,,,,,,,,,,,,,,,,,,,,,,,,,,,,,,,,,,,,,,,,,,,,,,,,,,,,,,,,,,,,,,,,,,,,,,,,,,,,,,,,,,,,,,,,,,,,,,,,,,,,,,,,,,,,,,,,,,,,,,,,,,,,,,,,,,,,,,,,,,,,,,,,,,,,,,,,,,,,,,,,,,,,,,,,,,,,,,,,,,,,,,,,,,,,
1763975479.301276,16840.0,0.0,4371.025879,4378.333496,4475.897461,4492.179688,4375.128418,4505.128418,4505.641113,4356.538574,4539.615234,4342.820313,4459.487305,4502.179688,4545.384766,4372.94873,4333.205078,4493.333496,4526.025879,4493.974121,4479.743652,4344.743652,4373.717773,4555.128418,4509.487305,4481.025879,4366.410156,4541.410156,4367.05127,4533.589844,4495.0,4380.0,4504.102539,4474.358887,2653.0,0.0,13.0,2560.0,20028.0,,,,0.0,4.0,4.0,4.0,4.0,4.0,4.0,4.0,4.0,4.0,4.0,4.0,4.0,4.0,4.0,4.0,4.0,4.0,4.0,4.0,4.0,4.0,4.0,4.0,4.0,4.0,4.0,4.0,4.0,4.0,4.0,4.0,4.0,100.0,0.953125,25.0,1.0,1.0,1.0,1.0,1.0,1.0,1.0,1.0,1.0,1.0,1.0,1.0,1.0,1.0,1.0,1.0,1.0,1.0,1.0,1.0,1.0,1.0,1.0,1.0,1.0,1.0,1.0,1.0,1.0,1.0,1.0,1.0,,,,,,,,,,,,,3.163755,9.183803,5.066706,5.209225,7.045775,2.315158,5.418076,5.141012,4.57728,6.862924,2.152875,4.224402,5.260034,6.699249,7.404776,1.839465,4.053191,5.894885,7.567305,7.741076,1.482899,3.162938,3.564561,4.231119,5.299679,2.519171,4.559422,2.318937,2.684224,4.085703,2.381452,9.908242,4.442971,5.327362,6.797223,2.179438,5.005455,5.004067,7.387192,7.310653,1.562331,3.732098,4.439899,6.624634,7.268954,1.378369,4.375177,4.872676,10.421347,10.666256,2.202459,7.888812,3.826622,5.086984,6.321009,3.637516,15.545197,4.377822,5.441389,6.613801,5.598445,27.888546,4.238283,5.967235,7.610361,1.449471,4.439058,2.5881,4.182878,5.704132,2.037432,2.517979,3.472182,5.142514,6.544893,5.793985,11.404501,4.37767,5.537407,10.246742,5.005409,23.505352,4.48277,5.734622,6.369345,2.210155,6.747072,6.203781,6.385674,9.921353,2.218561,3.422271,8.021729,6.239525,8.499583,2.505837,1.832769,6.304562,7.940285,8.32778,3.00502,2.404442,6.655397,7.52393,6.878448,4.547301,8.42018,8.119142,6.625379,8.19045,4.219794,13.709858,6.474392,6.01447,7.939482,4.007644,3.476184,7.124754,7.018229,7.022558,4.414815,4.090247,8.396074,8.319138,8.237932,3.096565,3.083868,5.88563,7.52526,7.306056,3.148677,3.898623,5.968557,6.255018,7.263139,3.292072,5.360137,5.483306,6.070126,7.587833,2.617807,6.793661,5.445408,5.153971,7.02263,2.273633,5.356303,5.694756,5.242443,7.175973,2.267795,4.008707,5.772331,6.138874,7.128981,2.394941,3.775371,5.244529,5.735141,7.355045
1763975479.305182,16841.0,0.0,4386.025879,4396.794922,4490.128418,4506.666504,4386.666504,4514.487305,4516.282227,4371.410156,4556.410156,4365.769043,4472.179688,4514.871582,4557.692383,4381.410156,4351.282227,4498.589844,4536.794922,4504.615234,4488.589844,4368.077148,4390.256348,4569.615234,4523.589844,4496.153809,4380.0,4556.666504,4385.512695,4549.743652,4510.0,4399.230957,4521.025879,4492.307617,2839.0,0.0,13.0,2560.0,20028.0,,,,0.0,4.0,4.0,4.0,4.0,4.0,4.0,4.0,4.0,4.0,4.0,4.0,4.0,4.0,4.0,4.0,4.0,4.0,4.0,4.0,4.0,4.0,4.0,4.0,4.0,4.0,4.0,4.0,4.0,4.0,4.0,4.0,4.0,100.0,,,,,,,,,,,,,,,,,,,,,,,,,,,,,,,,,,,36978.0,0.0,0.464933,0.308167,0.20929,0.803162,0.883409,-0.487364,0.055183,36.333332,-20.166666,-25.833334,,,,,,,,,,,,,,,,,,,,,,,,,,,,,,,,,,,,,,,,,,,,,,,,,,,,,,,,,,,,,,,,,,,,,,,,,,,,,,,,,,,,,,,,,,,,,,,,,,,,,,,,,,,,,,,,,,,,,,,,,,,,,,,,,,,,,,,,,,,,,,,,,,,,,,,,,,,,,,,,
1763975479.309088,16842.0,0.0,4408.205078,4417.94873,4511.153809,4528.333496,4401.538574,4530.256348,4534.615234,4392.307617,4579.230957,4403.717773,4493.077148,4535.641113,4579.102539,4398.077148,4382.05127,4516.666504,4558.589844,4528.974121,4508.846191,4395.769043,4411.025879,4591.153809,4544.487305,4515.897461,4402.05127,4578.077148,4408.589844,4572.436035,4530.512695,4423.333496,4544.230957,4514.358887,2654.0,0.0,13.0,2561.0,20036.0,,,,0.0,4.0,4.0,4.0,4.0,4.0,4.0,4.0,4.0,4.0,4.0,4.0,4.0,4.0,4.0,4.0,4.0,4.0,4.0,4.0,4.0,4.0,4.0,4.0,4.0,4.0,4.0,4.0,4.0,4.0,4.0,4.0,4.0,100.0,,,,,,,,,,,,,,,,,,,,,,,,,,,,,,,,,,,,,,,,,,,,,,,,,,,,,,,,,,,,,,,,,,,,,,,,,,,,,,,,,,,,,,,,,,,,,,,,,,,,,,,,,,,,,,,,,,,,,,,,,,,,,,,,,,,,,,,,,,,,,,,,,,,,,,,,,,,,,,,,,,,,,,,,,,,,,,,,,,,,,,,,,,,,,,,,,,,,,,,,,,,,,,
1763975479.312994,16843.0,0.0,4424.743652,4428.974121,4525.769043,4543.589844,4410.769043,4541.794922,4550.384766,4405.641113,4593.589844,4435.384766,4509.615234,4552.820313,4596.410156,4413.589844,4407.307617,4535.897461,4579.358887,4551.922852,4528.461426,4412.94873,4423.974121,4608.077148,4561.282227,4527.563965,4419.358887,4593.461426,4422.436035,4587.820313,4543.717773,4437.179688,4559.102539,4527.05127,2991.0,0.0,13.0,2561.0,20036.0,,,,0.0,4.0,4.0,4.0,4.0,4.0,4.0,4.0,4.0,4.0,4.0,4.0,4.0,4.0,4.0,4.0,4.0,4.0,4.0,4.0,4.0,4.0,4.0,4.0,4.0,4.0,4.0,4.0,4.0,4.0,4.0,4.0,4.0,100.0,,,,,,,,,,,,,,,,,,,,,,,,,,,,,,,,,,,,,,,,,,,,,,,,,,,,,,,,,,,,,,,,,,,,,,,,,,,,,,,,,,,,,,,,,,,,,,,,,,,,,,,,,,,,,,,,,,,,,,,,,,,,,,,,,,,,,,,,,,,,,,,,,,,,,,,,,,,,,,,,,,,,,,,,,,,,,,,,,,,,,,,,,,,,,,,,,,,,,,,,,,,,,,
1763975479.3169,16844.0,0.0,4428.333496,4425.641113,4527.692383,4544.743652,4410.641113,4544.487305,4556.410156,4405.384766,4592.94873,4445.256348,4513.589844,4558.589844,4601.538574,4420.897461,4414.487305,4546.666504,4589.487305,4563.846191,4540.384766,4413.846191,4423.461426,4613.589844,4567.436035,4525.512695,4422.94873,4596.666504,4421.282227,4588.846191,4542.94873,4434.871582,4557.179688,4525.256348,2939.0,0.0,13.0,2562.0,20044.0,,,,0.0,4.0,4.0,4.0,4.0,4.0,4.0,4.0,4.0,4.0,4.0,4.0,4.0,4.0,4.0,4.0,4.0,4.0,4.0,4.0,4.0,4.0,4.0,4.0,4.0,4.0,4.0,4.0,4.0,4.0,4.0,4.0,4.0,100.0,,,,,,,,,,,,,,,,,,,,,,,,,,,,,,,,,,,,,,,,,,,,,,,,,,,,,,,,,,,,,,,,,,,,,,,,,,,,,,,,,,,,,,,,,,,,,,,,,,,,,,,,,,,,,,,,,,,,,,,,,,,,,,,,,,,,,,,,,,,,,,,,,,,,,,,,,,,,,,,,,,,,,,,,,,,,,,,,,,,,,,,,,,,,,,,,,,,,,,,,,,,,,,
1763975479.320806,16845.0,0.0,4421.153809,4414.487305,4519.743652,4534.102539,4404.358887,4541.538574,4552.436035,4395.641113,4580.641113,4432.692383,4505.384766,4553.077148,4595.512695,4418.846191,4403.205078,4546.666504,4587.436035,4565.128418,4545.256348,4402.692383,4413.461426,4609.358887,4563.205078,4513.589844,4414.102539,4589.358887,4409.615234,4578.846191,4531.922852,4421.025879,4542.307617,4513.333496,2710.0,0.0,13.0,2562.0,20044.0,,,,0.0,4.0,4.0,4.0,4.0,4.0,4.0,4.0,4.0,4.0,4.0,4.0,4.0,4.0,4.0,4.0,4.0,4.0,4.0,4.0,4.0,4.0,4.0,4.0,4.0,4.0,4.0,4.0,4.0,4.0,4.0,4.0,4.0,100.0,,,,,,,,,,,,,,,,,,,,,,,,,,,,,,,,,,,36979.0,0.0,0.465066,0.308167,0.209229,0.803101,0.883409,-0.487364,0.055183,40.0,-20.166666,-25.333334,,,,,,,,,,,,,,,,,,,,,,,,,,,,,,,,,,,,,,,,,,,,,,,,,,,,,,,,,,,,,,,,,,,,,,,,,,,,,,,,,,,,,,,,,,,,,,,,,,,,,,,,,,,,,,,,,,,,,,,,,,,,,,,,,,,,,,,,,,,,,,,,,,,,,,,,,,,,,,,,
1763975479.324712,16846.0,0.0,4410.384766,4405.128418,4509.871582,4519.871582,4397.94873,4539.230957,4543.333496,4384.871582,4566.282227,4409.871582,4491.666504,4542.692383,4584.358887,4410.0,4383.461426,4539.102539,4578.333496,4560.897461,4547.307617,4388.717773,4402.563965,4601.666504,4553.717773,4501.410156,4401.666504,4578.205078,4396.666504,4566.922852,4519.871582,4406.794922,4526.025879,4501.025879,2718.0,0.0,13.0,2563.0,20052.0,,,,0.0,4.0,4.0,4.0,4.0,4.0,4.0,4.0,4.0,4.0,4.0,4.0,4.0,4.0,4.0,4.0,4.0,4.0,4.0,4.0,4.0,4.0,4.0,4.0,4.0,4.0,4.0,4.0,4.0,4.0,4.0,4.0,4.0,100.0,,,,,,,,,,,,,,,,,,,,,,,,,,,,,,,,,,,,,,,,,,,,,,,,,,,,,,,,,,,,,,,,,,,,,,,,,,,,,,,,,,,,,,,,,,,,,,,,,,,,,,,,,,,,,,,,,,,,,,,,,,,,,,,,,,,,,,,,,,,,,,,,,,,,,,,,,,,,,,,,,,,,,,,,,,,,,,,,,,,,,,,,,,,,,,,,,,,,,,,,,,,,,,
1763975479.328618,16847.0,0.0,4403.846191,4404.871582,4505.384766,4511.922852,4396.794922,4542.179688,4536.410156,4380.512695,4559.487305,4392.692383,4481.410156,4535.0,4575.641113,4400.641113,4368.717773,4530.0,4569.358887,4556.922852,4550.128418,4381.538574,4398.846191,4596.922852,4545.897461,4497.692383,4395.897461,4571.410156,4391.666504,4561.922852,4515.384766,4402.05127,4520.384766,4497.307617,2838.0,0.0,13.0,2563.0,20052.0,,,,0.0,4.0,4.0,4.0,4.0,4.0,4.0,4.0,4.0,4.0,4.0,4.0,4.0,4.0,4.0,4.0,4.0,4.0,4.0,4.0,4.0,4.0,4.0,4.0,4.0,4.0,4.0,4.0,4.0,4.0,4.0,4.0,4.0,100.0,,,,,,,,,,,,,,,,,,,,,,,,,,,,,,,,,,,,,,,,,,,,,,,,,,,,,,,,,,,,,,,,,,,,,,,,,,,,,,,,,,,,,,,,,,,,,,,,,,,,,,,,,,,,,,,,,,,,,,,,,,,,,,,,,,,,,,,,,,,,,,,,,,,,,,,,,,,,,,,,,,,,,,,,,,,,,,,,,,,,,,,,,,,,,,,,,,,,,,,,,,,,,,
1763975479.332524,16848.0,0.0,4406.153809,4415.384766,4510.384766,4516.666504,4403.461426,4550.641113,4537.692383,4387.307617,4565.897461,4392.05127,4481.666504,4536.025879,4575.512695,4398.077148,4369.743652,4525.641113,4566.922852,4557.307617,4555.641113,4386.922852,4406.922852,4599.230957,4545.897461,4506.922852,4403.077148,4575.384766,4399.871582,4568.333496,4522.436035,4411.538574,4531.282227,4506.538574,2938.0,0.0,13.0,2564.0,20060.0,,,,0.0,4.0,4.0,4.0,4.0,4.0,4.0,4.0,4.0,4.0,4.0,4.0,4.0,4.0,4.0,4.0,4.0,4.0,4.0,4.0,4.0,4.0,4.0,4.0,4.0,4.0,4.0,4.0,4.0,4.0,4.0,4.0,4.0,100.0,,,,,,,,,,,,,,,,,,,,,,,,,,,,,,,,,,,,,,,,,,,,,,,,,,,,,,,,,,,,,,,,,,,,,,,,,,,,,,,,,,,,,,,,,,,,,,,,,,,,,,,,,,,,,,,,,,,,,,,,,,,,,,,,,,,,,,,,,,,,,,,,,,,,,,,,,,,,,,,,,,,,,,,,,,,,,,,,,,,,,,,,,,,,,,,,,,,,,,,,,,,,,,
1763975479.33643,16849.0,0.0,4418.077148,4433.589844,4525.0,4535.0,4416.794922,4561.666504,4549.102539,4405.384766,4585.128418,4407.692383,4493.974121,4546.538574,4586.025879,4406.922852,4388.717773,4531.282227,4572.94873,4563.717773,4563.205078,4405.512695,4425.769043,4608.461426,4555.897461,4526.794922,4421.538574,4592.692383,4420.512695,4584.743652,4539.358887,4432.692383,4555.641113,4525.897461,3060.0,0.0,13.0,2564.0,20060.0,,,,0.0,4.0,4.0,4.0,4.0,4.0,4.0,4.0,4.0,4.0,4.0,4.0,4.0,4.0,4.0,4.0,4.0,4.0,4.0,4.0,4.0,4.0,4.0,4.0,4.0,4.0,4.0,4.0,4.0,4.0,4.0,4.0,4.0,100.0,,,,,,,,,,,,,,,,,,,,,,,,,,,,,,,,,,,36980.0,0.0,0.465103,0.308228,0.20929,0.80304,0.887804,-0.471737,0.040044,37.166668,-21.5,-25.833334,,,,,,,,,,,,,,,,,,,,,,,,,,,,,,,,,,,,,,,,,,,,,,,,,,,,,,,,,,,,,,,,,,,,,,,,,,,,,,,,,,,,,,,,,,,,,,,,,,,,,,,,,,,,,,,,,,,,,,,,,,,,,,,,,,,,,,,,,,,,,,,,,,,,,,,,,,,,,,,,
1763975479.340336,16850.0,0.0,4434.615234,4453.205078,4545.512695,4560.384766,4432.307617,4571.025879,4567.05127,4429.487305,4610.256348,4428.974121,4513.846191,4561.794922,4603.589844,4426.025879,4417.94873,4546.666504,4584.358887,4575.512695,4570.256348,4431.794922,4448.589844,4621.025879,4572.563965,4549.487305,4444.102539,4619.487305,4446.538574,4604.871582,4559.358887,4457.436035,4583.077148,4547.94873,2821.0,0.0,13.0,2564.0,20068.0,,,,0.0,4.0,4.0,4.0,4.0,4.0,4.0,4.0,4.0,4.0,4.0,4.0,4.0,4.0,4.0,4.0,4.0,4.0,4.0,4.0,4.0,4.0,4.0,4.0,4.0,4.0,4.0,4.0,4.0,4.0,4.0,4.0,4.0,100.0,,,,,,,,,,,,,,,,,,,,,,,,,,,,,,,,,,,,,,,,,,,,,,,,,,,,,,,,,,,,,,,,,,,,,,,,,,,,,,,,,,,,,,,,,,,,,,,,,,,,,,,,,,,,,,,,,,,,,,,,,,,,,,,,,,,,,,,,,,,,,,,,,,,,,,,,,,,,,,,,,,,,,,,,,,,,,,,,,,,,,,,,,,,,,,,,,,,,,,,,,,,,,,
1763975479.344242,16851.0,0.0,4447.820313,4467.05127,4564.743652,4582.179688,4443.974121,4575.769043,4582.692383,4450.256348,4631.153809,4443.077148,4532.563965,4573.846191,4619.871582,4446.794922,4443.461426,4564.615234,4594.487305,4587.94873,4574.615234,4456.282227,4465.769043,4630.641113,4587.820313,4565.256348,4461.153809,4645.641113,4467.820313,4620.769043,4574.230957,4476.025879,4601.922852,4563.846191,3023.0,0.0,13.0,2564.0,20068.0,,,,0.0,4.0,4.0,4.0,4.0,4.0,4.0,4.0,4.0,4.0,4.0,4.0,4.0,4.0,4.0,4.0,4.0,4.0,4.0,4.0,4.0,4.0,4.0,4.0,4.0,4.0,4.0,4.0,4.0,4.0,4.0,4.0,4.0,100.0,,,,,,,,,,,,,,,,,,,,,,,,,,,,,,,,,,,,,,,,,,,,,,,,,,,,,,,,,,,,,,,,,,,,,,,,,,,,,,,,,,,,,,,,,,,,,,,,,,,,,,,,,,,,,,,,,,,,,,,,,,,,,,,,,,,,,,,,,,,,,,,,,,,,,,,,,,,,,,,,,,,,,,,,,,,,,,,,,,,,,,,,,,,,,,,,,,,,,,,,,,,,,,
1763975479.348148,16852.0,0.0,4450.769043,4469.615234,4575.128418,4590.641113,4447.436035,4574.230957,4588.205078,4458.333496,4638.974121,4442.94873,4541.282227,4575.897461,4626.282227,4458.589844,4452.94873,4574.487305,4597.436035,4595.128418,4574.487305,4468.846191,4469.871582,4631.282227,4592.820313,4567.436035,4467.05127,4660.128418,4475.512695,4625.641113,4577.563965,4481.282227,4605.256348,4568.717773,3004.0,0.0,13.0,2565.0,20075.0,,,,0.0,4.0,4.0,4.0,4.0,4.0,4.0,4.0,4.0,4.0,4.0,4.0,4.0,4.0,4.0,4.0,4.0,4.0,4.0,4.0,4.0,4.0,4.0,4.0,4.0,4.0,4.0,4.0,4.0,4.0,4.0,4.0,4.0,100.0,,,,,,,,,,,,,,,,,,,,,,,,,,,,,,,,,,,,,,,,,,,,,,,,,,,,,,,,,,,,,,,,,,,,,,,,,,,,,,,,,,,,,,,,,,,,,,,,,,,,,,,,,,,,,,,,,,,,,,,,,,,,,,,,,,,,,,,,,,,,,,,,,,,,,,,,,,,,,,,,,,,,,,,,,,,,,,,,,,,,,,,,,,,,,,,,,,,,,,,,,,,,,,
1763975479.352054,16853.0,0.0,4441.282227,4459.487305,4571.666504,4582.563965,4441.282227,4566.666504,4580.0,4449.487305,4630.0,4429.615234,4535.384766,4566.410156,4619.358887,4454.487305,4442.820313,4570.384766,4590.512695,4592.307617,4568.461426,4463.974121,4459.102539,4620.256348,4582.94873,4555.512695,4461.282227,4656.153809,4466.410156,4616.794922,4567.563965,4471.922852,4593.077148,4561.666504,2920.0,0.0,13.0,2565.0,20075.0,,,,0.0,4.0,4.0,4.0,4.0,4.0,4.0,4.0,4.0,4.0,4.0,4.0,4.0,4.0,4.0,4.0,4.0,4.0,4.0,4.0,4.0,4.0,4.0,4.0,4.0,4.0,4.0,4.0,4.0,4.0,4.0,4.0,4.0,100.0,,,,,,,,,,,,,,,,,,,,,,,,,,,,,,,,,,,36981.0,0.0,0.4651,0.30835,0.209351,0.802979,0.864852,-0.490783,0.034672,37.333332,-22.0,-26.333334,,,,,,,,,,,,,,,,,,,,,,,,,,,,,,,,,,,,,,,,,,,,,,,,,,,,,,,,,,,,,,,,,,,,,,,,,,,,,,,,,,,,,,,,,,,,,,,,,,,,,,,,,,,,,,,,,,,,,,,,,,,,,,,,,,,,,,,,,,,,,,,,,,,,,,,,,,,,,,,,
1763975479.35596,16854.0,0.0,4422.05127,4438.974121,4553.974121,4560.769043,4426.794922,4553.333496,4560.769043,4426.153809,4606.794922,4408.461426,4516.153809,4548.077148,4601.410156,4435.256348,4419.102539,4554.487305,4574.615234,4578.077148,4555.0,4442.307617,4437.307617,4599.102539,4559.615234,4533.461426,4445.897461,4634.102539,4443.717773,4596.282227,4547.563965,4451.538574,4571.025879,4544.743652,2993.0,0.0,13.0,2560.0,20083.0,,,,0.0,4.0,4.0,4.0,4.0,4.0,4.0,4.0,4.0,4.0,4.0,4.0,4.0,4.0,4.0,4.0,4.0,4.0,4.0,4.0,4.0,4.0,4.0,4.0,4.0,4.0,4.0,4.0,4.0,4.0,4.0,4.0,4.0,100.0,,,,,,,,,,,,,,,,,,,,,,,,,,,,,,,,,,,,,,,,,,,,,,,,,,,,,,,,,,,,,,,,,,,,,,,,,,,,,,,,,,,,,,,,,,,,,,,,,,,,,,,,,,,,,,,,,,,,,,,,,,,,,,,,,,,,,,,,,,,,,,,,,,,,,,,,,,,,,,,,,,,,,,,,,,,,,,,,,,,,,,,,,,,,,,,,,,,,,,,,,,,,,,
1763975479.359866,16855.0,0.0,4398.461426,4412.563965,4526.153809,4531.538574,4407.307617,4535.769043,4535.897461,4395.897461,4576.025879,4384.487305,4489.615234,4525.512695,4578.077148,4408.333496,4391.153809,4533.974121,4553.333496,4555.0,4534.615234,4410.641113,4410.769043,4573.077148,4529.358887,4507.179688,4423.333496,4600.769043,4413.846191,4568.974121,4522.563965,4426.153809,4545.512695,4520.897461,2932.0,0.0,13.0,2560.0,20083.0,,,,0.0,4.0,4.0,4.0,4.0,4.0,4.0,4.0,4.0,4.0,4.0,4.0,4.0,4.0,4.0,4.0,4.0,4.0,4.0,4.0,4.0,4.0,4.0,4.0,4.0,4.0,4.0,4.0,4.0,4.0,4.0,4.0,4.0,100.0,,,,,,,,,,,,,,,,,,,,,,,,,,,,,,,,,,,,,,,,,,,,,,,,,,,,,,,,,,,,,,,,,,,,,,,,,,,,,,,,,,,,,,,,,,,,,,,,,,,,,,,,,,,,,,,,,,,,,,,,,,,,,,,,,,,,,,,,,,,,,,,,,,,,,,,,,,,,,,,,,,,,,,,,,,,,,,,,,,,,,,,,,,,,,,,,,,,,,,,,,,,,,,
1763975479.363772,16856.0,0.0,4375.128418,4386.153809,4495.641113,4501.666504,4386.666504,4516.410156,4511.282227,4367.436035,4546.410156,4362.307617,4463.589844,4503.205078,4555.256348,4382.94873,4366.666504,4516.282227,4530.512695,4529.230957,4511.025879,4378.589844,4386.153809,4548.205078,4500.641113,4481.666504,4395.897461,4565.897461,4383.717773,4541.410156,4497.94873,4400.897461,4520.769043,4493.974121,2885.0,0.0,13.0,2560.0,20091.0,,,,0.0,4.0,4.0,4.0,4.0,4.0,4.0,4.0,4.0,4.0,4.0,4.0,4.0,4.0,4.0,4.0,4.0,4.0,4.0,4.0,4.0,4.0,4.0,4.0,4.0,4.0,4.0,4.0,4.0,4.0,4.0,4.0,4.0,100.0,,,,,,,,,,,,,,,,,,,,,,,,,,,,,,,,,,,,,,,,,,,,,,,,,,,,,,,,,,,,,,,,,,,,,,,,,,,,,,,,,,,,,,,,,,,,,,,,,,,,,,,,,,,,,,,,,,,,,,,,,,,,,,,,,,,,,,,,,,,,,,,,,,,,,,,,,,,,,,,,,,,,,,,,,,,,,,,,,,,,,,,,,,,,,,,,,,,,,,,,,,,,,,
1763975479.367678,16857.0,0.0,4356.282227,4365.128418,4471.538574,4478.205078,4369.615234,4499.871582,4491.153809,4347.436035,4526.153809,4348.333496,4445.256348,4485.128418,4537.563965,4366.794922,4349.871582,4505.769043,4511.410156,4508.333496,4491.538574,4355.0,4369.102539,4530.384766,4480.897461,4461.794922,4369.358887,4539.358887,4359.743652,4520.0,4478.461426,4380.512695,4500.128418,4470.128418,2852.0,0.0,13.0,2560.0,20091.0,,,,0.0,4.0,4.0,4.0,4.0,4.0,4.0,4.0,4.0,4.0,4.0,4.0,4.0,4.0,4.0,4.0,4.0,4.0,4.0,4.0,4.0,4.0,4.0,4.0,4.0,4.0,4.0,4.0,4.0,4.0,4.0,4.0,4.0,100.0,,,,,,,,,,,,,,,,,,,,,,,,,,,,,,,,,,,36982.0,0.0,0.465113,0.308289,0.209412,0.802979,0.893664,-0.476132,0.039556,39.0,-20.0,-25.5,,,,,,,,,,,,,,,,,,,,,,,,,,,,,,,,,,,,,,,,,,,,,,,,,,,,,,,,,,,,,,,,,,,,,,,,,,,,,,,,,,,,,,,,,,,,,,,,,,,,,,,,,,,,,,,,,,,,,,,,,,,,,,,,,,,,,,,,,,,,,,,,,,,,,,,,,,,,,,,,
1763975479.371584,16858.0,0.0,4345.256348,4354.230957,4460.769043,4466.922852,4360.897461,4491.282227,4479.743652,4339.487305,4520.128418,4348.846191,4438.974121,4475.256348,4528.333496,4362.94873,4342.94873,4503.333496,4500.897461,4498.717773,4482.94873,4345.0,4364.102539,4523.846191,4473.974121,4452.692383,4352.820313,4528.461426,4347.179688,4510.0,4467.94873,4369.102539,4487.94873,4456.410156,2776.0,0.0,13.0,2560.0,20099.0,,,,0.0,4.0,4.0,4.0,4.0,4.0,4.0,4.0,4.0,4.0,4.0,4.0,4.0,4.0,4.0,4.0,4.0,4.0,4.0,4.0,4.0,4.0,4.0,4.0,4.0,4.0,4.0,4.0,4.0,4.0,4.0,4.0,4.0,100.0,,,,,,,,,,,,,,,,,,,,,,,,,,,,,,,,,,,,,,,,,,,,,,,,,,,,,,,,,,,,,,,,,,,,,,,,,,,,,,,,,,,,,,,,,,,,,,,,,,,,,,,,,,,,,,,,,,,,,,,,,,,,,,,,,,,,,,,,,,,,,,,,,,,,,,,,,,,,,,,,,,,,,,,,,,,,,,,,,,,,,,,,,,,,,,,,,,,,,,,,,,,,,,
1763975479.37549,16859.0,0.0,4344.230957,4355.128418,4464.230957,4470.128418,4361.922852,4492.563965,4479.358887,4342.692383,4527.05127,4363.077148,4444.615234,4475.128418,4528.205078,4369.615234,4346.282227,4505.897461,4501.666504,4501.025879,4486.538574,4348.077148,4371.282227,4529.102539,4478.717773,4456.282227,4352.94873,4533.461426,4347.820313,4512.692383,4467.307617,4368.461426,4486.922852,4456.153809,3001.0,0.0,13.0,2560.0,20099.0,,,,0.0,4.0,4.0,4.0,4.0,4.0,4.0,4.0,4.0,4.0,4.0,4.0,4.0,4.0,4.0,4.0,4.0,4.0,4.0,4.0,4.0,4.0,4.0,4.0,4.0,4.0,4.0,4.0,4.0,4.0,4.0,4.0,4.0,100.0,,,,,,,,,,,,,,,,,,,,,,,,,,,,,,,,,,,,,,,,,,,,,,,,,,,,,,,,,,,,,,,,,,,,,,,,,,,,,,,,,,,,,,,,,,,,,,,,,,,,,,,,,,,,,,,,,,,,,,,,,,,,,,,,,,,,,,,,,,,,,,,,,,,,,,,,,,,,,,,,,,,,,,,,,,,,,,,,,,,,,,,,,,,,,,,,,,,,,,,,,,,,,,
1763975479.379396,16860.0,0.0,4350.897461,4363.589844,4475.769043,4483.205078,4369.871582,4499.743652,4488.205078,4351.794922,4540.0,4381.538574,4456.794922,4482.307617,4534.102539,4381.153809,4356.666504,4507.563965,4510.128418,4509.358887,4495.897461,4359.102539,4385.641113,4541.153809,4489.230957,4469.615234,4367.436035,4547.179688,4358.205078,4523.846191,4473.205078,4376.153809,4495.0,4466.153809,2953.0,0.0,13.0,1536.0,20107.0,,,,0.0,4.0,4.0,4.0,4.0,4.0,4.0,4.0,4.0,4.0,4.0,4.0,4.0,4.0,4.0,4.0,4.0,4.0,4.0,4.0,4.0,4.0,4.0,4.0,4.0,4.0,4.0,4.0,4.0,4.0,4.0,4.0,4.0,100.0,,,,,,,,,,,,,,,,,,,,,,,,,,,,,,,,,,,,,,,,,,,,,,,,,,,,,,,,,,,,,,,,,,,,,,,,,,,,,,,,,,,,,,,,,,,,,,,,,,,,,,,,,,,,,,,,,,,,,,,,,,,,,,,,,,,,,,,,,,,,,,,,,,,,,,,,,,,,,,,,,,,,,,,,,,,,,,,,,,,,,,,,,,,,,,,,,,,,,,,,,,,,,,
1763975479.383302,16861.0,0.0,4359.743652,4371.922852,4486.282227,4497.307617,4378.589844,4506.922852,4499.871582,4360.128418,4550.384766,4390.897461,4468.077148,4490.897461,4540.512695,4391.153809,4368.205078,4503.717773,4519.615234,4515.0,4502.563965,4371.666504,4399.230957,4553.205078,4498.461426,4485.769043,4385.256348,4559.615234,4371.282227,4535.512695,4480.128418,4385.512695,4506.153809,4478.846191,2817.0,0.0,13.0,1536.0,20107.0,,,,0.0,4.0,4.0,4.0,4.0,4.0,4.0,4.0,4.0,4.0,4.0,4.0,4.0,4.0,4.0,4.0,4.0,4.0,4.0,4.0,4.0,4.0,4.0,4.0,4.0,4.0,4.0,4.0,4.0,4.0,4.0,4.0,4.0,100.0,,,,,,,,,,,,,,,,,,,,,,,,,,,,,,,,,,,36983.0,0.0,0.465087,0.308044,0.209595,0.80304,0.873642,-0.485411,0.057136,38.5,-20.5,-26.833334,,,,,,,,,,,,,,,,,,,,,,,,,,,,,,,,,,,,,,,,,,,,,,,,,,,,,,,,,,,,,,,,,,,,,,,,,,,,,,,,,,,,,,,,,,,,,,,,,,,,,,,,,,,,,,,,,,,,,,,,,,,,,,,,,,,,,,,,,,,,,,,,,,,,,,,,,,,,,,,,
1763975479.387208,16862.0,0.0,4366.153809,4375.384766,4491.153809,4505.384766,4383.846191,4511.153809,4508.717773,4364.487305,4554.615234,4385.128418,4473.846191,4496.410156,4545.0,4396.282227,4375.897461,4496.153809,4525.769043,4515.641113,4503.974121,4382.179688,4407.436035,4561.794922,4503.333496,4498.717773,4395.769043,4565.384766,4381.538574,4542.563965,4485.256348,4392.307617,4515.512695,4488.333496,3000.0,0.0,13.0,256.0,20114.0,,,,0.0,4.0,4.0,4.0,4.0,4.0,4.0,4.0,4.0,4.0,4.0,4.0,4.0,4.0,4.0,4.0,4.0,4.0,4.0,4.0,4.0,4.0,4.0,4.0,4.0,4.0,4.0,4.0,4.0,4.0,4.0,4.0,4.0,100.0,,,,,,,,,,,,,,,,,,,,,,,,,,,,,,,,,,,,,,,,,,,,,,,,,,,,,,,,,,,,,,,,,,,,,,,,,,,,,,,,,,,,,,,,,,,,,,,,,,,,,,,,,,,,,,,,,,,,,,,,,,,,,,,,,,,,,,,,,,,,,,,,,,,,,,,,,,,,,,,,,,,,,,,,,,,,,,,,,,,,,,,,,,,,,,,,,,,,,,,,,,,,,,
1763975479.391114,16863.0,0.0,4370.384766,4375.256348,4492.692383,4507.820313,4386.282227,4514.743652,4513.846191,4366.666504,4555.384766,4372.05127,4476.282227,4500.128418,4549.230957,4398.205078,4379.487305,4492.94873,4531.025879,4517.179688,4505.384766,4391.025879,4411.410156,4569.358887,4507.05127,4506.538574,4397.563965,4567.179688,4388.333496,4545.384766,4490.128418,4396.794922,4522.692383,4494.102539,2926.0,0.0,13.0,256.0,20114.0,,,,0.0,4.0,4.0,4.0,4.0,4.0,4.0,4.0,4.0,4.0,4.0,4.0,4.0,4.0,4.0,4.0,4.0,4.0,4.0,4.0,4.0,4.0,4.0,4.0,4.0,4.0,4.0,4.0,4.0,4.0,4.0,4.0,4.0,100.0,,,,,,,,,,,,,,,,,,,,,,,,,,,,,,,,,,,,,,,,,,,,,,,,,,,,,,,,,,,,,,,,,,,,,,,,,,,,,,,,,,,,,,,,,,,,,,,,,,,,,,,,,,,,,,,,,,,,,,,,,,,,,,,,,,,,,,,,,,,,,,,,,,,,,,,,,,,,,,,,,,,,,,,,,,,,,,,,,,,,,,,,,,,,,,,,,,,,,,,,,,,,,,
1763975479.39502,16864.0,0.0,4376.025879,4376.794922,4495.384766,4509.358887,4388.589844,4520.897461,4517.94873,4370.384766,4557.820313,4365.384766,4479.743652,4506.025879,4556.794922,4400.128418,4381.922852,4500.128418,4540.384766,4526.410156,4513.077148,4399.358887,4415.384766,4579.743652,4514.230957,4511.153809,4397.436035,4570.512695,4394.102539,4548.717773,4497.563965,4401.922852,4529.615234,4498.333496,2845.0,0.0,13.0,512.0,20122.0,,,,0.0,4.0,4.0,4.0,4.0,4.0,4.0,4.0,4.0,4.0,4.0,4.0,4.0,4.0,4.0,4.0,4.0,4.0,4.0,4.0,4.0,4.0,4.0,4.0,4.0,4.0,4.0,4.0,4.0,4.0,4.0,4.0,4.0,100.0,,,,,,,,,,,,,,,,,,,,,,,,,,,,,,,,,,,,,,,,,,,,,,,,,,,,,,,,,,,,,,,,,,,,,,,,,,,,,,,,,,,,,,,,,,,,,,,,,,,,,,,,,,,,,,,,,,,,,,,,,,,,,,,,,,,,,,,,,,,,,,,,,,,,,,,,,,,,,,,,,,,,,,,,,,,,,,,,,,,,,,,,,,,,,,,,,,,,,,,,,,,,,,
1763975479.398926,16865.0,0.0,4384.615234,4382.692383,4500.256348,4513.461426,4392.307617,4529.230957,4522.94873,4376.410156,4563.077148,4372.436035,4485.512695,4515.256348,4567.820313,4403.077148,4385.0,4515.256348,4555.0,4541.794922,4526.410156,4406.410156,4421.153809,4592.692383,4525.384766,4514.358887,4401.538574,4577.179688,4399.230957,4554.615234,4506.666504,4408.077148,4535.512695,4501.538574,2867.0,0.0,13.0,512.0,20122.0,,,,0.0,4.0,4.0,4.0,4.0,4.0,4.0,4.0,4.0,4.0,4.0,4.0,4.0,4.0,4.0,4.0,4.0,4.0,4.0,4.0,4.0,4.0,4.0,4.0,4.0,4.0,4.0,4.0,4.0,4.0,4.0,4.0,4.0,100.0,,,,,,,,,,,,,,,,,,,,,,,,,,,,,,,,,,,36984.0,0.0,0.465054,0.307617,0.209595,0.803223,0.884385,-0.477597,0.066903,36.166668,-20.833334,-26.0,,,,,,,,,,,,,,,,,,,,,,,,,,,,,,,,,,,,,,,,,,,,,,,,,,,,,,,,,,,,,,,,,,,,,,,,,,,,,,,,,,,,,,,,,,,,,,,,,,,,,,,,,,,,,,,,,,,,,,,,,,,,,,,,,,,,,,,,,,,,,,,,,,,,,,,,,,,,,,,,
1763975479.402832,16866.0,0.0,4394.615234,4391.025879,4503.974121,4518.974121,4395.897461,4536.025879,4528.717773,4382.179688,4568.205078,4387.692383,4491.410156,4525.256348,4578.717773,4406.025879,4388.717773,4528.589844,4570.128418,4555.384766,4539.358887,4410.128418,4426.922852,4603.333496,4537.05127,4517.436035,4409.615234,4584.102539,4402.307617,4561.666504,4513.461426,4412.692383,4537.692383,4502.692383,2277.0,0.0,13.0,768.0,20130.0,,,,0.0,4.0,4.0,4.0,4.0,4.0,4.0,4.0,4.0,4.0,4.0,4.0,4.0,4.0,4.0,4.0,4.0,4.0,4.0,4.0,4.0,4.0,4.0,4.0,4.0,4.0,4.0,4.0,4.0,4.0,4.0,4.0,4.0,100.0,,,,,,,,,,,,,,,,,,,,,,,,,,,,,,,,,,,,,,,,,,,,,,,,,,,,,,,,,,,,,,,,,,,,,,,,,,,,,,,,,,,,,,,,,,,,,,,,,,,,,,,,,,,,,,,,,,,,,,,,,,,,,,,,,,,,,,,,,,,,,,,,,,,,,,,,,,,,,,,,,,,,,,,,,,,,,,,,,,,,,,,,,,,,,,,,,,,,,,,,,,,,,,
1763975479.406738,16867.0,0.0,4403.717773,4398.974121,4505.384766,4524.358887,4398.846191,4538.974121,4534.615234,4386.538574,4570.897461,4399.487305,4495.769043,4532.94873,4586.666504,4409.102539,4393.717773,4533.974121,4581.153809,4562.179688,4547.563965,4411.282227,4431.025879,4608.589844,4545.512695,4521.153809,4418.077148,4588.974121,4403.461426,4567.820313,4516.794922,4415.384766,4536.282227,4502.436035,2975.0,0.0,13.0,768.0,20130.0,,,,0.0,4.0,4.0,4.0,4.0,4.0,4.0,4.0,4.0,4.0,4.0,4.0,4.0,4.0,4.0,4.0,4.0,4.0,4.0,4.0,4.0,4.0,4.0,4.0,4.0,4.0,4.0,4.0,4.0,4.0,4.0,4.0,4.0,100.0,,,,,,,,,,,,,,,,,,,,,,,,,,,,,,,,,,,,,,,,,,,,,,,,,,,,,,,,,,,,,,,,,,,,,,,,,,,,,,,,,,,,,,,,,,,,,,,,,,,,,,,,,,,,,,,,,,,,,,,,,,,,,,,,,,,,,,,,,,,,,,,,,,,,,,,,,,,,,,,,,,,,,,,,,,,,,,,,,,,,,,,,,,,,,,,,,,,,,,,,,,,,,,
1763975479.410644,16868.0,0.0,4411.922852,4406.282227,4508.461426,4530.897461,4403.205078,4540.0,4541.538574,4391.794922,4573.205078,4402.307617,4500.384766,4539.102539,4591.922852,4414.487305,4401.153809,4534.230957,4587.307617,4565.0,4551.922852,4413.846191,4434.743652,4610.384766,4551.025879,4527.179688,4425.128418,4593.589844,4406.282227,4573.846191,4520.256348,4419.487305,4536.538574,4504.871582,2888.0,0.0,13.0,1024.0,20138.0,,,,0.0,4.0,4.0,4.0,4.0,4.0,4.0,4.0,4.0,4.0,4.0,4.0,4.0,4.0,4.0,4.0,4.0,4.0,4.0,4.0,4.0,4.0,4.0,4.0,4.0,4.0,4.0,4.0,4.0,4.0,4.0,4.0,4.0,100.0,,,,,,,,,,,,,,,,,,,,,,,,,,,,,,,,,,,,,,,,,,,,,,,,,,,,,,,,,,,,,,,,,,,,,,,,,,,,,,,,,,,,,,,,,,,,,,,,,,,,,,,,,,,,,,,,,,,,,,,,,,,,,,,,,,,,,,,,,,,,,,,,,,,,,,,,,,,,,,,,,,,,,,,,,,,,,,,,,,,,,,,,,,,,,,,,,,,,,,,,,,,,,,
1763975479.41455,16869.0,0.0,4420.769043,4414.615234,4519.102539,4541.794922,4412.05127,4543.333496,4551.410156,4401.153809,4580.384766,4401.025879,4508.717773,4546.666504,4597.820313,4423.717773,4411.794922,4537.179688,4591.666504,4570.128418,4556.538574,4421.538574,4440.512695,4613.461426,4557.179688,4536.538574,4432.179688,4602.307617,4415.128418,4581.922852,4529.102539,4429.230957,4545.0,4515.0,2405.0,0.0,13.0,1024.0,20138.0,,,,0.0,4.0,4.0,4.0,4.0,4.0,4.0,4.0,4.0,4.0,4.0,4.0,4.0,4.0,4.0,4.0,4.0,4.0,4.0,4.0,4.0,4.0,4.0,4.0,4.0,4.0,4.0,4.0,4.0,4.0,4.0,4.0,4.0,100.0,,,,,,,,,,,,,,,,,,,,,,,,,,,,,,,,,,,36985.0,0.0,0.465168,0.307251,0.209412,0.803345,0.878525,-0.482481,0.039556,36.666668,-21.0,-26.666666,,,,,,,,,,,,,,,,,,,,,,,,,,,,,,,,,,,,,,,,,,,,,,,,,,,,,,,,,,,,,,,,,,,,,,,,,,,,,,,,,,,,,,,,,,,,,,,,,,,,,,,,,,,,,,,,,,,,,,,,,,,,,,,,,,,,,,,,,,,,,,,,,,,,,,,,,,,,,,,,
1763975479.418456,16870.0,0.0,4430.897461,4424.615234,4537.94873,4557.820313,4425.128418,4551.153809,4564.230957,4414.743652,4594.871582,4405.384766,4520.641113,4556.794922,4605.641113,4435.0,4423.717773,4546.025879,4597.307617,4580.0,4564.358887,4432.820313,4448.589844,4620.128418,4566.410156,4547.436035,4441.538574,4615.897461,4430.0,4592.692383,4543.846191,4444.743652,4562.563965,4532.692383,2990.0,0.0,13.0,1280.0,20146.0,,,,0.0,4.0,4.0,4.0,4.0,4.0,4.0,4.0,4.0,4.0,4.0,4.0,4.0,4.0,4.0,4.0,4.0,4.0,4.0,4.0,4.0,4.0,4.0,4.0,4.0,4.0,4.0,4.0,4.0,4.0,4.0,4.0,4.0,100.0,,,,,,,,,,,,,,,,,,,,,,,,,,,,,,,,,,,,,,,,,,,,,,,,,,,,,,,,,,,,,,,,,,,,,,,,,,,,,,,,,,,,,,,,,,,,,,,,,,,,,,,,,,,,,,,,,,,,,,,,,,,,,,,,,,,,,,,,,,,,,,,,,,,,,,,,,,,,,,,,,,,,,,,,,,,,,,,,,,,,,,,,,,,,,,,,,,,,,,,,,,,,,,
1763975479.422362,16871.0,0.0,4439.487305,4433.077148,4557.436035,4574.102539,4437.307617,4560.128418,4575.256348,4426.794922,4612.05127,4418.974121,4531.025879,4566.025879,4612.820313,4442.94873,4432.563965,4555.897461,4602.820313,4589.358887,4573.717773,4439.743652,4455.256348,4626.794922,4576.153809,4555.256348,4450.641113,4628.974121,4444.487305,4602.436035,4558.461426,4459.487305,4581.282227,4550.0,2977.0,0.0,13.0,1280.0,20146.0,,,,0.0,4.0,4.0,4.0,4.0,4.0,4.0,4.0,4.0,4.0,4.0,4.0,4.0,4.0,4.0,4.0,4.0,4.0,4.0,4.0,4.0,4.0,4.0,4.0,4.0,4.0,4.0,4.0,4.0,4.0,4.0,4.0,4.0,100.0,,,,,,,,,,,,,,,,,,,,,,,,,,,,,,,,,,,,,,,,,,,,,,,,,,,,,,,,,,,,,,,,,,,,,,,,,,,,,,,,,,,,,,,,,,,,,,,,,,,,,,,,,,,,,,,,,,,,,,,,,,,,,,,,,,,,,,,,,,,,,,,,,,,,,,,,,,,,,,,,,,,,,,,,,,,,,,,,,,,,,,,,,,,,,,,,,,,,,,,,,,,,,,
1763975479.426268,16872.0,0.0,4440.384766,4433.974121,4564.487305,4581.153809,4440.641113,4563.205078,4577.307617,4429.615234,4621.538574,4434.871582,4531.922852,4567.436035,4612.692383,4441.666504,4432.820313,4557.820313,4602.563965,4588.717773,4577.820313,4433.333496,4453.333496,4625.384766,4578.461426,4553.461426,4451.922852,4631.538574,4448.205078,4603.717773,4562.563965,4462.94873,4587.94873,4555.128418,2660.0,0.0,13.0,1536.0,20153.0,,,,0.0,4.0,4.0,4.0,4.0,4.0,4.0,4.0,4.0,4.0,4.0,4.0,4.0,4.0,4.0,4.0,4.0,4.0,4.0,4.0,4.0,4.0,4.0,4.0,4.0,4.0,4.0,4.0,4.0,4.0,4.0,4.0,4.0,100.0,,,,,,,,,,,,,,,,,,,,,,,,,,,,,,,,,,,,,,,,,,,,,,,2.362965,8.647827,5.110273,6.033775,7.804239,2.061976,5.121229,5.177577,5.340787,7.624785,1.562917,3.800543,5.191095,7.592256,8.135763,1.354742,3.762984,6.155589,8.716139,8.513072,1.376611,2.89308,3.616075,4.91209,5.763365,1.966369,4.607821,2.175471,3.108629,4.56097,1.70235,8.739683,4.589954,6.08654,7.461531,1.576838,4.487528,5.254316,8.475444,8.046383,1.23898,3.522065,4.964984,7.641429,8.023063,0.959541,4.020185,5.725388,10.504241,11.626615,1.632633,6.80028,4.272945,5.903892,6.987504,2.44046,14.442959,4.766603,6.308826,7.382414,3.299555,25.359837,4.66689,6.924012,8.511779,0.886579,4.216354,3.066197,5.000537,6.302577,1.509091,2.44263,3.99516,5.579773,7.284105,3.820147,11.195656,4.586157,7.011866,11.482261,2.933824,23.232378,5.025288,6.578448,7.124113,1.378227,6.611427,6.345949,7.496737,10.844344,1.65798,3.520406,8.689316,6.959415,9.159415,1.838774,2.226372,7.139118,8.773902,9.200022,2.222312,2.643271,7.228552,8.49907,7.430848,3.166504,8.551583,9.046965,7.612883,8.950054,2.992712,13.194626,6.915326,7.133115,8.802642,3.311658,3.514612,7.526182,8.233013,7.679956,3.386016,3.407884,8.048752,9.452588,8.86797,2.700291,2.629167,5.808228,8.75392,7.890138,2.584259,3.334781,6.139733,7.29125,8.021727,2.322256,5.109533,5.786978,7.188417,8.290067,2.059133,6.549546,5.706275,6.077115,7.673912,1.618049,4.618481,5.902327,5.95809,7.837936,1.899593,3.208163,5.723568,7.006969,7.903109,1.938292,3.253527,5.174464,6.549607,7.960077
1763975479.430174,16873.0,0.0,4427.94873,4421.794922,4550.0,4570.897461,4428.974121,4554.102539,4564.615234,4417.307617,4613.717773,4440.769043,4517.820313,4554.743652,4598.974121,4428.333496,4420.641113,4546.794922,4590.0,4572.05127,4568.461426,4410.384766,4437.179688,4608.717773,4565.128418,4536.410156,4437.820313,4615.897461,4434.102539,4590.641113,4549.487305,4447.692383,4573.205078,4540.128418,2848.0,0.0,13.0,1536.0,20153.0,,,,0.0,4.0,4.0,4.0,4.0,4.0,4.0,4.0,4.0,4.0,4.0,4.0,4.0,4.0,4.0,4.0,4.0,4.0,4.0,4.0,4.0,4.0,4.0,4.0,4.0,4.0,4.0,4.0,4.0,4.0,4.0,4.0,4.0,100.0,,,,,,,,,,,,,,,,,,,,,,,,,,,,,,,,,,,36986.0,0.0,0.465238,0.307068,0.20929,0.803406,0.878525,-0.482481,0.039556,38.0,-18.666666,-24.5,,,,,,,,,,,,,,,,,,,,,,,,,,,,,,,,,,,,,,,,,,,,,,,,,,,,,,,,,,,,,,,,,,,,,,,,,,,,,,,,,,,,,,,,,,,,,,,,,,,,,,,,,,,,,,,,,,,,,,,,,,,,,,,,,,,,,,,,,,,,,,,,,,,,,,,,,,,,,,,,
1763975479.43408,16874.0,0.0,4402.436035,4397.307617,4517.436035,4543.461426,4403.717773,4533.461426,4538.461426,4392.05127,4587.436035,4428.333496,4491.282227,4527.436035,4571.538574,4405.897461,4396.666504,4524.743652,4564.102539,4542.179688,4542.692383,4377.94873,4407.820313,4577.179688,4535.512695,4505.384766,4407.692383,4583.846191,4403.846191,4563.333496,4521.538574,4416.538574,4539.230957,4508.974121,2666.0,0.0,13.0,1792.0,20161.0,,,,0.0,4.0,4.0,4.0,4.0,4.0,4.0,4.0,4.0,4.0,4.0,4.0,4.0,4.0,4.0,4.0,4.0,4.0,4.0,4.0,4.0,4.0,4.0,4.0,4.0,4.0,4.0,4.0,4.0,4.0,4.0,4.0,4.0,100.0,,,,,,,,,,,,,,,,,,,,,,,,,,,,,,,,,,,,,,,,,,,,,,,,,,,,,,,,,,,,,,,,,,,,,,,,,,,,,,,,,,,,,,,,,,,,,,,,,,,,,,,,,,,,,,,,,,,,,,,,,,,,,,,,,,,,,,,,,,,,,,,,,,,,,,,,,,,,,,,,,,,,,,,,,,,,,,,,,,,,,,,,,,,,,,,,,,,,,,,,,,,,,,
1763975479.437986,16875.0,0.0,4372.563965,4370.384766,4482.820313,4509.743652,4375.769043,4509.871582,4508.461426,4363.717773,4553.461426,4400.0,4463.333496,4495.128418,4539.358887,4382.307617,4368.589844,4500.128418,4532.436035,4510.512695,4508.717773,4350.256348,4375.384766,4541.025879,4499.743652,4470.128418,4372.05127,4548.717773,4369.743652,4531.410156,4490.769043,4382.563965,4501.538574,4476.922852,2999.0,0.0,13.0,1792.0,20161.0,,,,0.0,4.0,4.0,4.0,4.0,4.0,4.0,4.0,4.0,4.0,4.0,4.0,4.0,4.0,4.0,4.0,4.0,4.0,4.0,4.0,4.0,4.0,4.0,4.0,4.0,4.0,4.0,4.0,4.0,4.0,4.0,4.0,4.0,100.0,,,,,,,,,,,,,,,,,,,,,,,,,,,,,,,,,,,,,,,,,,,,,,,,,,,,,,,,,,,,,,,,,,,,,,,,,,,,,,,,,,,,,,,,,,,,,,,,,,,,,,,,,,,,,,,,,,,,,,,,,,,,,,,,,,,,,,,,,,,,,,,,,,,,,,,,,,,,,,,,,,,,,,,,,,,,,,,,,,,,,,,,,,,,,,,,,,,,,,,,,,,,,,
1763975479.441892,16876.0,0.0,4351.666504,4354.615234,4464.358887,4487.05127,4358.717773,4495.0,4488.461426,4345.769043,4528.333496,4368.589844,4446.153809,4472.05127,4516.025879,4366.794922,4347.692383,4482.436035,4507.94873,4490.0,4481.410156,4340.641113,4354.102539,4514.615234,4473.846191,4445.0,4346.410156,4527.307617,4346.794922,4508.333496,4471.282227,4361.794922,4479.102539,4460.384766,2944.0,0.0,13.0,2048.0,20169.0,,,,0.0,4.0,4.0,4.0,4.0,4.0,4.0,4.0,4.0,4.0,4.0,4.0,4.0,4.0,4.0,4.0,4.0,4.0,4.0,4.0,4.0,4.0,4.0,4.0,4.0,4.0,4.0,4.0,4.0,4.0,4.0,4.0,4.0,100.0,,,,,,,,,,,,,,,,,,,,,,,,,,,,,,,,,,,,,,,,,,,,,,,,,,,,,,,,,,,,,,,,,,,,,,,,,,,,,,,,,,,,,,,,,,,,,,,,,,,,,,,,,,,,,,,,,,,,,,,,,,,,,,,,,,,,,,,,,,,,,,,,,,,,,,,,,,,,,,,,,,,,,,,,,,,,,,,,,,,,,,,,,,,,,,,,,,,,,,,,,,,,,,
1763975479.445798,16877.0,0.0,4348.974121,4357.563965,4470.0,4486.410156,4360.384766,4495.512695,4487.307617,4346.410156,4523.846191,4348.461426,4446.410156,4468.077148,4511.282227,4364.358887,4343.205078,4477.692383,4500.641113,4487.436035,4472.94873,4352.179688,4352.820313,4507.692383,4468.717773,4439.230957,4341.282227,4528.846191,4344.487305,4503.461426,4470.384766,4362.820313,4481.410156,4465.384766,2711.0,0.0,13.0,2048.0,20169.0,,,,0.0,4.0,4.0,4.0,4.0,4.0,4.0,4.0,4.0,4.0,4.0,4.0,4.0,4.0,4.0,4.0,4.0,4.0,4.0,4.0,4.0,4.0,4.0,4.0,4.0,4.0,4.0,4.0,4.0,4.0,4.0,4.0,4.0,100.0,,,,,,,,,,,,,,,,,,,,,,,,,,,,,,,,,,,36987.0,0.0,0.465293,0.307068,0.209167,0.803406,0.880967,-0.486387,0.049322,38.166668,-22.0,-27.166666,,,,,,,,,,,,,,,,,,,,,,,,,,,,,,,,,,,,,,,,,,,,,,,,,,,,,,,,,,,,,,,,,,,,,,,,,,,,,,,,,,,,,,,,,,,,,,,,,,,,,,,,,,,,,,,,,,,,,,,,,,,,,,,,,,,,,,,,,,,,,,,,,,,,,,,,,,,,,,,,
1763975479.449704,16878.0,0.0,4362.94873,4375.384766,4491.666504,4505.256348,4376.794922,4508.717773,4502.692383,4361.922852,4539.358887,4347.563965,4460.769043,4481.922852,4524.871582,4373.589844,4354.871582,4485.641113,4510.384766,4499.487305,4483.589844,4375.128418,4368.589844,4519.102539,4482.436035,4451.282227,4355.384766,4547.436035,4360.128418,4514.871582,4483.717773,4380.641113,4501.538574,4483.717773,2724.0,0.0,13.0,2304.0,20177.0,,,,0.0,4.0,4.0,4.0,4.0,4.0,4.0,4.0,4.0,4.0,4.0,4.0,4.0,4.0,4.0,4.0,4.0,4.0,4.0,4.0,4.0,4.0,4.0,4.0,4.0,4.0,4.0,4.0,4.0,4.0,4.0,4.0,4.0,100.0,,,,,,,,,,,,,,,,,,,,,,,,,,,,,,,,,,,,,,,,,,,,,,,,,,,,,,,,,,,,,,,,,,,,,,,,,,,,,,,,,,,,,,,,,,,,,,,,,,,,,,,,,,,,,,,,,,,,,,,,,,,,,,,,,,,,,,,,,,,,,,,,,,,,,,,,,,,,,,,,,,,,,,,,,,,,,,,,,,,,,,,,,,,,,,,,,,,,,,,,,,,,,,
1763975479.45361,16879.0,0.0,4382.94873,4395.384766,4512.692383,4529.358887,4396.025879,4524.871582,4523.205078,4380.128418,4562.94873,4363.846191,4479.487305,4501.922852,4546.666504,4387.94873,4373.846191,4501.666504,4528.077148,4516.794922,4502.436035,4393.717773,4388.717773,4538.717773,4502.692383,4470.384766,4376.794922,4567.692383,4381.153809,4531.922852,4499.615234,4401.538574,4522.820313,4500.384766,2843.0,0.0,13.0,2304.0,20177.0,,,,0.0,4.0,4.0,4.0,4.0,4.0,4.0,4.0,4.0,4.0,4.0,4.0,4.0,4.0,4.0,4.0,4.0,4.0,4.0,4.0,4.0,4.0,4.0,4.0,4.0,4.0,4.0,4.0,4.0,4.0,4.0,4.0,4.0,100.0,,,,,,,,,,,,,,,,,,,,,,,,,,,,,,,,,,,,,,,,,,,,,,,,,,,,,,,,,,,,,,,,,,,,,,,,,,,,,,,,,,,,,,,,,,,,,,,,,,,,,,,,,,,,,,,,,,,,,,,,,,,,,,,,,,,,,,,,,,,,,,,,,,,,,,,,,,,,,,,,,,,,,,,,,,,,,,,,,,,,,,,,,,,,,,,,,,,,,,,,,,,,,,
1763975479.457516,16880.0,0.0,4397.05127,4405.897461,4520.769043,4543.974121,4406.922852,4533.974121,4536.794922,4389.615234,4580.512695,4388.333496,4492.820313,4516.538574,4564.358887,4400.384766,4387.820313,4519.871582,4543.077148,4531.282227,4516.922852,4397.563965,4400.641113,4555.128418,4516.794922,4485.0,4391.922852,4576.025879,4393.974121,4543.846191,4508.974121,4412.563965,4532.307617,4505.256348,2941.0,0.0,13.0,2560.0,20185.0,,,,0.0,4.0,4.0,4.0,4.0,4.0,4.0,4.0,4.0,4.0,4.0,4.0,4.0,4.0,4.0,4.0,4.0,4.0,4.0,4.0,4.0,4.0,4.0,4.0,4.0,4.0,4.0,4.0,4.0,4.0,4.0,4.0,4.0,100.0,,,,,,,,,,,,,,,,,,,,,,,,,,,,,,,,,,,,,,,,,,,,,,,,,,,,,,,,,,,,,,,,,,,,,,,,,,,,,,,,,,,,,,,,,,,,,,,,,,,,,,,,,,,,,,,,,,,,,,,,,,,,,,,,,,,,,,,,,,,,,,,,,,,,,,,,,,,,,,,,,,,,,,,,,,,,,,,,,,,,,,,,,,,,,,,,,,,,,,,,,,,,,,
1763975479.461423,16881.0,0.0,4401.025879,4404.615234,4516.153809,4544.230957,4406.666504,4532.692383,4539.102539,4388.205078,4585.512695,4409.743652,4498.205078,4521.153809,4571.538574,4407.563965,4390.128418,4535.512695,4550.128418,4539.487305,4522.179688,4388.333496,4400.769043,4563.333496,4520.256348,4490.512695,4394.743652,4570.769043,4393.846191,4546.666504,4510.384766,4410.641113,4528.974121,4500.0,3061.0,0.0,13.0,2560.0,20185.0,,,,0.0,4.0,4.0,4.0,4.0,4.0,4.0,4.0,4.0,4.0,4.0,4.0,4.0,4.0,4.0,4.0,4.0,4.0,4.0,4.0,4.0,4.0,4.0,4.0,4.0,4.0,4.0,4.0,4.0,4.0,4.0,4.0,4.0,100.0,,,,,,,,,,,,,,,,,,,,,,,,,,,,,,,,,,,36988.0,0.0,0.465433,0.306702,0.208923,0.803528,0.87999,-0.500549,0.042486,38.333332,-21.0,-24.166666,,,,,,,,,,,,,,,,,,,,,,,,,,,,,,,,,,,,,,,,,,,,,,,,,,,,,,,,,,,,,,,,,,,,,,,,,,,,,,,,,,,,,,,,,,,,,,,,,,,,,,,,,,,,,,,,,,,,,,,,,,,,,,,,,,,,,,,,,,,,,,,,,,,,,,,,,,,,,,,,
1763975479.465329,16882.0,0.0,4399.358887,4398.846191,4508.846191,4536.410156,4401.025879,4526.025879,4535.384766,4382.820313,4581.794922,4420.256348,4499.230957,4520.0,4571.282227,4410.256348,4383.589844,4545.384766,4551.666504,4543.589844,4522.179688,4377.05127,4395.769043,4566.666504,4518.333496,4490.897461,4390.128418,4561.538574,4387.307617,4545.256348,4509.487305,4403.846191,4522.307617,4494.230957,2823.0,0.0,13.0,2560.0,20193.0,,,,0.0,4.0,4.0,4.0,4.0,4.0,4.0,4.0,4.0,4.0,4.0,4.0,4.0,4.0,4.0,4.0,4.0,4.0,4.0,4.0,4.0,4.0,4.0,4.0,4.0,4.0,4.0,4.0,4.0,4.0,4.0,4.0,4.0,100.0,,,,,,,,,,,,,,,,,,,,,,,,,,,,,,,,,,,,,,,,,,,,,,,,,,,,,,,,,,,,,,,,,,,,,,,,,,,,,,,,,,,,,,,,,,,,,,,,,,,,,,,,,,,,,,,,,,,,,,,,,,,,,,,,,,,,,,,,,,,,,,,,,,,,,,,,,,,,,,,,,,,,,,,,,,,,,,,,,,,,,,,,,,,,,,,,,,,,,,,,,,,,,,
1763975479.469235,16883.0,0.0,4400.256348,4398.717773,4508.974121,4531.666504,4398.333496,4522.179688,4534.358887,4382.436035,4578.077148,4418.846191,4501.282227,4520.769043,4571.282227,4411.282227,4377.820313,4547.820313,4553.717773,4546.794922,4524.615234,4375.641113,4395.256348,4572.179688,4520.0,4493.974121,4387.692383,4560.641113,4385.641113,4547.94873,4512.94873,4402.563965,4522.692383,4496.538574,3026.0,0.0,13.0,2560.0,20193.0,,,,0.0,4.0,4.0,4.0,4.0,4.0,4.0,4.0,4.0,4.0,4.0,4.0,4.0,4.0,4.0,4.0,4.0,4.0,4.0,4.0,4.0,4.0,4.0,4.0,4.0,4.0,4.0,4.0,4.0,4.0,4.0,4.0,4.0,100.0,,,,,,,,,,,,,,,,,,,,,,,,,,,,,,,,,,,,,,,,,,,,,,,,,,,,,,,,,,,,,,,,,,,,,,,,,,,,,,,,,,,,,,,,,,,,,,,,,,,,,,,,,,,,,,,,,,,,,,,,,,,,,,,,,,,,,,,,,,,,,,,,,,,,,,,,,,,,,,,,,,,,,,,,,,,,,,,,,,,,,,,,,,,,,,,,,,,,,,,,,,,,,,
1763975479.473141,16884.0,1.0,4399.944824,4398.693359,4508.882813,4531.611816,4398.333496,4522.057617,4534.163574,4382.612793,4577.729004,4415.390625,4499.981445,4520.213867,4570.360352,4410.65332,4378.15625,4545.763184,4552.472656,4545.65918,4523.888672,4376.043945,4395.32959,4571.282227,4519.371094,4493.742188,4387.790039,4560.897461,4385.726563,4547.838867,4512.655762,4402.612793,4523.101563,4496.739746,0.0,0.0,13.0,0.0,0.0,,,,0.0,4.0,4.0,4.0,4.0,4.0,4.0,4.0,4.0,4.0,4.0,4.0,4.0,4.0,4.0,4.0,4.0,4.0,4.0,4.0,4.0,4.0,4.0,4.0,4.0,4.0,4.0,4.0,4.0,4.0,4.0,4.0,4.0,100.0,,,,,,,,,,,,,,,,,,,,,,,,,,,,,,,,,,,,,,,,,,,,,,,,,,,,,,,,,,,,,,,,,,,,,,,,,,,,,,,,,,,,,,,,,,,,,,,,,,,,,,,,,,,,,,,,,,,,,,,,,,,,,,,,,,,,,,,,,,,,,,,,,,,,,,,,,,,,,,,,,,,,,,,,,,,,,,,,,,,,,,,,,,,,,,,,,,,,,,,,,,,,,,
1763975479.477047,16885.0,1.0,4399.633789,4398.668945,4508.791016,4531.556641,4398.333496,4521.935059,4533.968262,4382.790039,4577.380859,4411.935059,4498.681152,4519.658203,4569.438477,4410.024414,4378.492188,4543.705566,4551.227051,4544.523926,4523.162598,4376.446777,4395.402832,4570.384766,4518.742188,4493.510254,4387.887695,4561.153809,4385.812012,4547.729004,4512.362793,4402.661621,4523.510254,4496.941406,0.0,0.0,13.0,0.0,0.0,,,,0.0,4.0,4.0,4.0,4.0,4.0,4.0,4.0,4.0,4.0,4.0,4.0,4.0,4.0,4.0,4.0,4.0,4.0,4.0,4.0,4.0,4.0,4.0,4.0,4.0,4.0,4.0,4.0,4.0,4.0,4.0,4.0,4.0,100.0,,,,,,,,,,,,,,,,,,,,,,,,,,,,,,,,,,,,,,,,,,,,,,,,,,,,,,,,,,,,,,,,,,,,,,,,,,,,,,,,,,,,,,,,,,,,,,,,,,,,,,,,,,,,,,,,,,,,,,,,,,,,,,,,,,,,,,,,,,,,,,,,,,,,,,,,,,,,,,,,,,,,,,,,,,,,,,,,,,,,,,,,,,,,,,,,,,,,,,,,,,,,,,
1763975479.480953,16886.0,1.0,4399.322266,4398.644531,4508.699707,4531.501953,4398.333496,4521.812988,4533.772949,4382.966797,4577.033203,4408.47998,4497.380859,4519.102539,4568.516602,4409.395508,4378.827637,4541.648438,4549.981445,4543.388184,4522.436035,4376.849609,4395.476074,4569.487305,4518.11377,4493.27832,4387.985352,4561.410156,4385.897461,4547.619141,4512.069824,4402.710449,4523.919434,4497.143066,0.0,0.0,13.0,0.0,0.0,,,,0.0,4.0,4.0,4.0,4.0,4.0,4.0,4.0,4.0,4.0,4.0,4.0,4.0,4.0,4.0,4.0,4.0,4.0,4.0,4.0,4.0,4.0,4.0,4.0,4.0,4.0,4.0,4.0,4.0,4.0,4.0,4.0,4.0,100.0,,,,,,,,,,,,,,,,,,,,,,,,,,,,,,,,,,,,,,,,,,,,,,,,,,,,,,,,,,,,,,,,,,,,,,,,,,,,,,,,,,,,,,,,,,,,,,,,,,,,,,,,,,,,,,,,,,,,,,,,,,,,,,,,,,,,,,,,,,,,,,,,,,,,,,,,,,,,,,,,,,,,,,,,,,,,,,,,,,,,,,,,,,,,,,,,,,,,,,,,,,,,,,
1763975479.484859,16887.0,1.0,4399.01123,4398.620117,4508.60791,4531.446777,4398.333496,4521.690918,4533.577637,4383.144043,4576.685059,4405.024414,4496.080566,4518.546875,4567.594727,4408.766602,4379.163574,4539.59082,4548.736328,4542.25293,4521.709473,4377.25293,4395.549316,4568.589844,4517.484863,4493.046387,4388.083008,4561.666504,4385.98291,4547.509277,4511.776367,4402.759277,4524.328613,4497.344238,0.0,0.0,13.0,0.0,0.0,,,,0.0,4.0,4.0,4.0,4.0,4.0,4.0,4.0,4.0,4.0,4.0,4.0,4.0,4.0,4.0,4.0,4.0,4.0,4.0,4.0,4.0,4.0,4.0,4.0,4.0,4.0,4.0,4.0,4.0,4.0,4.0,4.0,4.0,100.0,,,,,,,,,,,,,,,,,,,,,,,,,,,,,,,,,,,,,,,,,,,,,,,,,,,,,,,,,,,,,,,,,,,,,,,,,,,,,,,,,,,,,,,,,,,,,,,,,,,,,,,,,,,,,,,,,,,,,,,,,,,,,,,,,,,,,,,,,,,,,,,,,,,,,,,,,,,,,,,,,,,,,,,,,,,,,,,,,,,,,,,,,,,,,,,,,,,,,,,,,,,,,,
1763975479.488765,16888.0,1.0,4398.699707,4398.595703,4508.516602,4531.39209,4398.333496,4521.568848,4533.382324,4383.321289,4576.336914,4401.568848,4494.780273,4517.991211,4566.672852,4408.138184,4379.499512,4537.533691,4547.490723,4541.117188,4520.98291,4377.655762,4395.622559,4567.692383,4516.855957,4492.814453,4388.180664,4561.922852,4386.068359,4547.399414,4511.483398,4402.808105,4524.737305,4497.545898,0.0,0.0,13.0,0.0,0.0,,,,0.0,4.0,4.0,4.0,4.0,4.0,4.0,4.0,4.0,4.0,4.0,4.0,4.0,4.0,4.0,4.0,4.0,4.0,4.0,4.0,4.0,4.0,4.0,4.0,4.0,4.0,4.0,4.0,4.0,4.0,4.0,4.0,4.0,100.0,,,,,,,,,,,,,,,,,,,,,,,,,,,,,,,,,,,,,,,,,,,,,,,,,,,,,,,,,,,,,,,,,,,,,,,,,,,,,,,,,,,,,,,,,,,,,,,,,,,,,,,,,,,,,,,,,,,,,,,,,,,,,,,,,,,,,,,,,,,,,,,,,,,,,,,,,,,,,,,,,,,,,,,,,,,,,,,,,,,,,,,,,,,,,,,,,,,,,,,,,,,,,,
