Timestamp,EEG.Counter,EEG.Interpolated,EEG.Cz,EEG.Fz,EEG.Fp1,EEG.F7,EEG.F3,EEG.FC1,EEG.C3,EEG.FC5,EEG.FT9,EEG.T7,EEG.CP5,EEG.CP1,EEG.P3,EEG.P7,EEG.PO9,EEG.O1,EEG.Pz,EEG.Oz,EEG.O2,EEG.PO10,EEG.P8,EEG.P4,EEG.CP2,EEG.CP6,EEG.T8,EEG.FT10,EEG.FC6,EEG.C4,EEG.FC2,EEG.F4,EEG.F8,EEG.Fp2,EEG.RawCq,EEG.Battery,EEG.BatteryPercent,EEG.FwBufferSize,EEG.FwClockTime,MarkerIndex,MarkerType,MarkerValueInt,EEG.MarkerHardware,CQ.Cz,CQ.Fz,CQ.Fp1,CQ.F7,CQ.F3,CQ.FC1,CQ.C3,CQ.FC5,CQ.FT9,CQ.T7,CQ.CP5,CQ.CP1,CQ.P3,CQ.P7,CQ.PO9,CQ.O1,CQ.Pz,CQ.Oz,CQ.O2,CQ.PO10,CQ.P8,CQ.P4,CQ.CP2,CQ.CP6,CQ.T8,CQ.FT10,CQ.FC6,CQ.C4,CQ.FC2,CQ.F4,CQ.F8,CQ.Fp2,CQ.Overall,EQ.SampleRateQuality,EQ.OVERALL,EQ.Cz,EQ.Fz,EQ.Fp1,EQ.F7,EQ.F3,EQ.FC1,EQ.C3,EQ.FC5,EQ.FT9,EQ.T7,EQ.CP5,EQ.CP1,EQ.P3,EQ.P7,EQ.PO9,EQ.O1,EQ.Pz,EQ.Oz,EQ.O2,EQ.PO10,EQ.P8,EQ.P4,EQ.CP2,EQ.CP6,EQ.T8,EQ.FT10,EQ.FC6,EQ.C4,EQ.FC2,EQ.F4,EQ.F8,EQ.Fp2,MOT.CounterMems,MOT.InterpolatedMems,MOT.Q0,MOT.Q1,MOT.Q2,MOT.Q3,MOT.AccX,MOT.AccY,MOT.AccZ,MOT.MagX,MOT.MagY,MOT.MagZ,POW.Cz.Theta,POW.Cz.Alpha,POW.Cz.BetaL,POW.Cz.BetaH,POW.Cz.Gamma,POW.Fz.Theta,POW.Fz.Alpha,POW.Fz.BetaL,POW.Fz.BetaH,POW.Fz.Gamma,POW.Fp1.Theta,POW.Fp1.Alpha,POW.Fp1.BetaL,POW.Fp1.BetaH,POW.Fp1.Gamma,POW.F7.Theta,POW.F7.Alpha,POW.F7.BetaL,POW.F7.BetaH,POW.F7.Gamma,POW.F3.Theta,POW.F3.Alpha,POW.F3.BetaL,POW.F3.BetaH,POW.F3.Gamma,POW.FC1.Theta,POW.FC1.Alpha,POW.FC1.BetaL,POW.FC1.BetaH,POW.FC1.Gamma,POW.C3.Theta,POW.C3.Alpha,POW.C3.BetaL,POW.C3.BetaH,POW.C3.Gamma,POW.FC5.Theta,POW.FC5.Alpha,POW.FC5.BetaL,POW.FC5.BetaH,POW.FC5.Gamma,POW.FT9.Theta,POW.FT9.Alpha,POW.FT9.BetaL,POW.FT9.BetaH,POW.FT9.Gamma,POW.T7.Theta,POW.T7.Alpha,POW.T7.BetaL,POW.T7.BetaH,POW.T7.Gamma,POW.CP5.Theta,POW.CP5.Alpha,POW.CP5.BetaL,POW.CP5.BetaH,POW.CP5.Gamma,POW.CP1.Theta,POW.CP1.Alpha,POW.CP1.BetaL,POW.CP1.BetaH,POW.CP1.Gamma,POW.P3.Theta,POW.P3.Alpha,POW.P3.BetaL,POW.P3.BetaH,POW.P3.Gamma,POW.P7.Theta,POW.P7.Alpha,POW.P7.BetaL,POW.P7.BetaH,POW.P7.Gamma,POW.PO9.Theta,POW.PO9.Alpha,POW.PO9.BetaL,POW.PO9.BetaH,POW.PO9.Gamma,POW.O1.Theta,POW.O1.Alpha,POW.O1.BetaL,POW.O1.BetaH,POW.O1.Gamma,POW.Pz.Theta,POW.Pz.Alpha,POW.Pz.BetaL,POW.Pz.BetaH,POW.Pz.Gamma,POW.Oz.Theta,POW.Oz.Alpha,POW.Oz.BetaL,POW.Oz.BetaH,POW.Oz.Gamma,POW.O2.Theta,POW.O2.Alpha,POW.O2.BetaL,POW.O2.BetaH,POW.O2.Gamma,POW.PO10.Theta,POW.PO10.Alpha,POW.PO10.BetaL,POW.PO10.BetaH,POW.PO10.Gamma,POW.P8.Theta,POW.P8.Alpha,POW.P8.BetaL,POW.P8.BetaH,POW.P8.Gamma,POW.P4.Theta,POW.P4.Alpha,POW.P4.BetaL,POW.P4.BetaH,POW.P4.Gamma,POW.CP2.Theta,POW.CP2.Alpha,POW.CP2.BetaL,POW.CP2.BetaH,POW.CP2.Gamma,POW.CP6.Theta,POW.CP6.Alpha,POW.CP6.BetaL,POW.CP6.BetaH,POW.CP6.Gamma,POW.T8.Theta,POW.T8.Alpha,POW.T8.BetaL,POW.T8.BetaH,POW.T8.Gamma,POW.FT10.Theta,POW.FT10.Alpha,POW.FT10.BetaL,POW.FT10.BetaH,POW.FT10.Gamma,POW.FC6.Theta,POW.FC6.Alpha,POW.FC6.BetaL,POW.FC6.BetaH,POW.FC6.Gamma,POW.C4.Theta,POW.C4.Alpha,POW.C4.BetaL,POW.C4.BetaH,POW.C4.Gamma,POW.FC2.Theta,POW.FC2.Alpha,POW.FC2.BetaL,POW.FC2.BetaH,POW.FC2.Gamma,POW.F4.Theta,POW.F4.Alpha,POW.F4.BetaL,POW.F4.BetaH,POW.F4.Gamma,POW.F8.Theta,POW.F8.Alpha,POW.F8.BetaL,POW.F8.BetaH,POW.F8.Gamma,POW.Fp2.Theta,POW.Fp2.Alpha,POW.Fp2.BetaL,POW.Fp2.BetaH,POW.Fp2.Gamma
1763975502.597234,22804.0,0.0,4414.871582,4426.282227,4527.820313,4563.461426,4424.871582,4568.333496,4572.436035,4425.128418,4599.230957,4419.743652,4518.461426,4547.05127,4609.743652,4432.692383,4431.282227,4529.615234,4567.563965,4567.563965,4545.384766,4416.794922,4428.589844,4602.563965,4547.436035,4532.307617,4427.563965,4604.102539,4421.153809,4585.512695,4535.769043,4425.641113,4541.538574,4515.384766,3017.0,0.0,13.0,1280.0,43321.0,9.0,1.0,6.0,0.0,4.0,4.0,4.0,4.0,4.0,4.0,4.0,4.0,4.0,4.0,4.0,4.0,4.0,4.0,4.0,4.0,4.0,4.0,4.0,4.0,4.0,4.0,4.0,4.0,4.0,4.0,4.0,4.0,4.0,4.0,4.0,4.0,100.0,,,,,,,,,,,,,,,,,,,,,,,,,,,,,,,,,,,,,,,,,,,,,,,,,,,,,,,,,,,,,,,,,,,,,,,,,,,,,,,,,,,,,,,,,,,,,,,,,,,,,,,,,,,,,,,,,,,,,,,,,,,,,,,,,,,,,,,,,,,,,,,,,,,,,,,,,,,,,,,,,,,,,,,,,,,,,,,,,,,,,,,,,,,,,,,,,,,,,,,,,,,,,,
1763975502.60114,22805.0,0.0,4390.512695,4396.794922,4499.358887,4532.94873,4399.743652,4541.794922,4546.794922,4398.077148,4571.410156,4400.0,4492.820313,4521.922852,4585.641113,4410.0,4407.692383,4501.538574,4546.794922,4544.615234,4522.563965,4389.615234,4401.794922,4575.128418,4518.974121,4503.846191,4400.769043,4574.871582,4393.974121,4557.94873,4508.589844,4397.436035,4513.846191,4487.94873,2936.0,0.0,13.0,1280.0,43321.0,,,,0.0,4.0,4.0,4.0,4.0,4.0,4.0,4.0,4.0,4.0,4.0,4.0,4.0,4.0,4.0,4.0,4.0,4.0,4.0,4.0,4.0,4.0,4.0,4.0,4.0,4.0,4.0,4.0,4.0,4.0,4.0,4.0,4.0,100.0,,,,,,,,,,,,,,,,,,,,,,,,,,,,,,,,,,,38469.0,0.0,0.464209,0.305298,0.210876,0.80426,0.890245,-0.481016,0.056648,38.5,-20.0,-24.666666,,,,,,,,,,,,,,,,,,,,,,,,,,,,,,,,,,,,,,,,,,,,,,,,,,,,,,,,,,,,,,,,,,,,,,,,,,,,,,,,,,,,,,,,,,,,,,,,,,,,,,,,,,,,,,,,,,,,,,,,,,,,,,,,,,,,,,,,,,,,,,,,,,,,,,,,,,,,,,,,
1763975502.605046,22806.0,0.0,4366.410156,4368.333496,4468.974121,4498.461426,4376.025879,4515.641113,4518.333496,4367.692383,4543.846191,4381.282227,4466.282227,4495.512695,4555.769043,4385.0,4375.0,4469.487305,4524.102539,4516.153809,4494.358887,4361.666504,4376.794922,4547.820313,4491.666504,4476.794922,4372.563965,4542.94873,4366.410156,4529.743652,4481.922852,4373.205078,4489.230957,4462.820313,3011.0,0.0,13.0,1536.0,43329.0,,,,0.0,4.0,4.0,4.0,4.0,4.0,4.0,4.0,4.0,4.0,4.0,4.0,4.0,4.0,4.0,4.0,4.0,4.0,4.0,4.0,4.0,4.0,4.0,4.0,4.0,4.0,4.0,4.0,4.0,4.0,4.0,4.0,4.0,100.0,,,,,,,,,,,,,,,,,,,,,,,,,,,,,,,,,,,,,,,,,,,,,,,,,,,,,,,,,,,,,,,,,,,,,,,,,,,,,,,,,,,,,,,,,,,,,,,,,,,,,,,,,,,,,,,,,,,,,,,,,,,,,,,,,,,,,,,,,,,,,,,,,,,,,,,,,,,,,,,,,,,,,,,,,,,,,,,,,,,,,,,,,,,,,,,,,,,,,,,,,,,,,,
1763975502.608952,22807.0,0.0,4358.589844,4359.615234,4456.794922,4482.436035,4368.717773,4505.769043,4504.743652,4353.333496,4534.230957,4377.179688,4455.256348,4485.769043,4539.358887,4373.461426,4353.846191,4450.641113,4514.487305,4500.0,4478.333496,4352.179688,4370.128418,4537.94873,4483.846191,4469.871582,4361.794922,4530.384766,4358.333496,4521.153809,4473.333496,4370.128418,4485.128418,4457.307617,2954.0,0.0,13.0,1536.0,43329.0,,,,0.0,4.0,4.0,4.0,4.0,4.0,4.0,4.0,4.0,4.0,4.0,4.0,4.0,4.0,4.0,4.0,4.0,4.0,4.0,4.0,4.0,4.0,4.0,4.0,4.0,4.0,4.0,4.0,4.0,4.0,4.0,4.0,4.0,100.0,,,,,,,,,,,,,,,,,,,,,,,,,,,,,,,,,,,,,,,,,,,,,,,,,,,,,,,,,,,,,,,,,,,,,,,,,,,,,,,,,,,,,,,,,,,,,,,,,,,,,,,,,,,,,,,,,,,,,,,,,,,,,,,,,,,,,,,,,,,,,,,,,,,,,,,,,,,,,,,,,,,,,,,,,,,,,,,,,,,,,,,,,,,,,,,,,,,,,,,,,,,,,,
1763975502.612858,22808.0,0.0,4372.179688,4375.384766,4470.0,4494.230957,4381.282227,4517.05127,4512.820313,4363.461426,4547.820313,4391.922852,4465.0,4498.846191,4545.512695,4380.769043,4357.692383,4453.846191,4524.102539,4506.153809,4483.461426,4366.410156,4384.871582,4550.769043,4500.512695,4487.05127,4375.0,4545.512695,4375.384766,4537.692383,4488.205078,4389.871582,4504.102539,4474.743652,2922.0,0.0,13.0,1792.0,43337.0,,,,0.0,4.0,4.0,4.0,4.0,4.0,4.0,4.0,4.0,4.0,4.0,4.0,4.0,4.0,4.0,4.0,4.0,4.0,4.0,4.0,4.0,4.0,4.0,4.0,4.0,4.0,4.0,4.0,4.0,4.0,4.0,4.0,4.0,100.0,,,,,,,,,,,,,,,,,,,,,,,,,,,,,,,,,,,,,,,,,,,,,,,,,,,,,,,,,,,,,,,,,,,,,,,,,,,,,,,,,,,,,,,,,,,,,,,,,,,,,,,,,,,,,,,,,,,,,,,,,,,,,,,,,,,,,,,,,,,,,,,,,,,,,,,,,,,,,,,,,,,,,,,,,,,,,,,,,,,,,,,,,,,,,,,,,,,,,,,,,,,,,,
1763975502.616764,22809.0,0.0,4397.179688,4402.94873,4497.820313,4523.461426,4403.846191,4539.871582,4534.615234,4389.871582,4573.846191,4417.563965,4486.538574,4524.615234,4567.563965,4399.615234,4382.692383,4473.333496,4546.025879,4529.230957,4504.871582,4392.563965,4408.461426,4576.153809,4529.871582,4515.897461,4401.410156,4575.897461,4404.743652,4566.922852,4515.128418,4417.436035,4531.794922,4501.153809,2871.0,0.0,13.0,1792.0,43337.0,,,,0.0,4.0,4.0,4.0,4.0,4.0,4.0,4.0,4.0,4.0,4.0,4.0,4.0,4.0,4.0,4.0,4.0,4.0,4.0,4.0,4.0,4.0,4.0,4.0,4.0,4.0,4.0,4.0,4.0,4.0,4.0,4.0,4.0,100.0,,,,,,,,,,,,,,,,,,,,,,,,,,,,,,,,,,,38470.0,0.0,0.464357,0.305115,0.210815,0.80426,0.875107,-0.480527,0.050299,38.166668,-20.833334,-26.833334,,,,,,,,,,,,,,,,,,,,,,,,,,,,,,,,,,,,,,,,,,,,,,,,,,,,,,,,,,,,,,,,,,,,,,,,,,,,,,,,,,,,,,,,,,,,,,,,,,,,,,,,,,,,,,,,,,,,,,,,,,,,,,,,,,,,,,,,,,,,,,,,,,,,,,,,,,,,,,,,
1763975502.62067,22810.0,0.0,4416.538574,4422.436035,4520.512695,4548.974121,4420.897461,4558.589844,4553.717773,4413.974121,4594.358887,4438.974121,4504.487305,4545.769043,4589.102539,4416.153809,4411.538574,4494.743652,4565.384766,4552.692383,4527.692383,4411.538574,4422.94873,4596.153809,4552.307617,4535.769043,4421.538574,4598.461426,4425.128418,4588.077148,4534.871582,4432.436035,4547.692383,4516.538574,2816.0,0.0,13.0,2048.0,43345.0,,,,0.0,4.0,4.0,4.0,4.0,4.0,4.0,4.0,4.0,4.0,4.0,4.0,4.0,4.0,4.0,4.0,4.0,4.0,4.0,4.0,4.0,4.0,4.0,4.0,4.0,4.0,4.0,4.0,4.0,4.0,4.0,4.0,4.0,100.0,,,,,,,,,,,,,,,,,,,,,,,,,,,,,,,,,,,,,,,,,,,,,,,,,,,,,,,,,,,,,,,,,,,,,,,,,,,,,,,,,,,,,,,,,,,,,,,,,,,,,,,,,,,,,,,,,,,,,,,,,,,,,,,,,,,,,,,,,,,,,,,,,,,,,,,,,,,,,,,,,,,,,,,,,,,,,,,,,,,,,,,,,,,,,,,,,,,,,,,,,,,,,,
1763975502.624576,22811.0,0.0,4418.333496,4421.666504,4523.974121,4554.230957,4421.922852,4562.563965,4557.692383,4420.384766,4596.666504,4443.717773,4507.94873,4549.871582,4596.666504,4421.153809,4425.897461,4506.410156,4570.769043,4561.666504,4537.563965,4411.025879,4418.205078,4598.333496,4554.743652,4533.717773,4422.05127,4597.820313,4422.563965,4587.436035,4534.615234,4425.256348,4541.153809,4510.512695,3031.0,0.0,13.0,2048.0,43345.0,,,,0.0,4.0,4.0,4.0,4.0,4.0,4.0,4.0,4.0,4.0,4.0,4.0,4.0,4.0,4.0,4.0,4.0,4.0,4.0,4.0,4.0,4.0,4.0,4.0,4.0,4.0,4.0,4.0,4.0,4.0,4.0,4.0,4.0,100.0,,,,,,,,,,,,,,,,,,,,,,,,,,,,,,,,,,,,,,,,,,,,,,,,,,,,,,,,,,,,,,,,,,,,,,,,,,,,,,,,,,,,,,,,,,,,,,,,,,,,,,,,,,,,,,,,,,,,,,,,,,,,,,,,,,,,,,,,,,,,,,,,,,,,,,,,,,,,,,,,,,,,,,,,,,,,,,,,,,,,,,,,,,,,,,,,,,,,,,,,,,,,,,
1763975502.628482,22812.0,0.0,4403.974121,4403.974121,4508.589844,4538.077148,4408.717773,4552.05127,4546.153809,4407.179688,4580.769043,4429.615234,4496.794922,4537.436035,4587.94873,4414.358887,4418.846191,4507.307617,4561.282227,4552.94873,4529.871582,4393.589844,4398.717773,4582.436035,4538.717773,4512.563965,4404.487305,4576.282227,4400.384766,4567.307617,4516.282227,4402.179688,4518.205078,4489.102539,2987.0,0.0,13.0,2304.0,43353.0,,,,0.0,4.0,4.0,4.0,4.0,4.0,4.0,4.0,4.0,4.0,4.0,4.0,4.0,4.0,4.0,4.0,4.0,4.0,4.0,4.0,4.0,4.0,4.0,4.0,4.0,4.0,4.0,4.0,4.0,4.0,4.0,4.0,4.0,100.0,,,,,,,,,,,,,,,,,,,,,,,,,,,,,,,,,,,,,,,,,,,,,,,,,,,,,,,,,,,,,,,,,,,,,,,,,,,,,,,,,,,,,,,,,,,,,,,,,,,,,,,,,,,,,,,,,,,,,,,,,,,,,,,,,,,,,,,,,,,,,,,,,,,,,,,,,,,,,,,,,,,,,,,,,,,,,,,,,,,,,,,,,,,,,,,,,,,,,,,,,,,,,,
1763975502.632388,22813.0,0.0,4384.102539,4383.205078,4486.922852,4513.205078,4392.179688,4536.282227,4528.589844,4384.871582,4558.461426,4405.0,4479.615234,4518.974121,4571.153809,4402.820313,4397.179688,4504.230957,4545.384766,4535.0,4511.666504,4372.436035,4378.589844,4559.487305,4517.05127,4487.05127,4382.307617,4550.641113,4374.230957,4542.307617,4493.461426,4379.230957,4495.641113,4468.717773,2842.0,0.0,13.0,2304.0,43353.0,,,,0.0,4.0,4.0,4.0,4.0,4.0,4.0,4.0,4.0,4.0,4.0,4.0,4.0,4.0,4.0,4.0,4.0,4.0,4.0,4.0,4.0,4.0,4.0,4.0,4.0,4.0,4.0,4.0,4.0,4.0,4.0,4.0,4.0,100.0,,,,,,,,,,,,,,,,,,,,,,,,,,,,,,,,,,,38471.0,0.0,0.464414,0.304993,0.210632,0.804321,0.890245,-0.484434,0.049322,37.166668,-19.5,-25.333334,,,,,,,,,,,,,,,,,,,,,,,,,,,,,,,,,,,,,,,,,,,,,,,,,,,,,,,,,,,,,,,,,,,,,,,,,,,,,,,,,,,,,,,,,,,,,,,,,,,,,,,,,,,,,,,,,,,,,,,,,,,,,,,,,,,,,,,,,,,,,,,,,,,,,,,,,,,,,,,,
1763975502.636294,22814.0,0.0,4370.897461,4372.692383,4472.436035,4495.384766,4383.077148,4525.897461,4516.666504,4368.077148,4542.820313,4382.820313,4466.410156,4506.282227,4557.692383,4393.846191,4375.128418,4504.487305,4533.846191,4520.897461,4495.256348,4359.871582,4370.0,4542.94873,4503.205078,4472.05127,4369.358887,4538.333496,4360.128418,4527.563965,4480.0,4369.743652,4487.307617,4462.436035,3035.0,0.0,13.0,2560.0,43361.0,,,,0.0,4.0,4.0,4.0,4.0,4.0,4.0,4.0,4.0,4.0,4.0,4.0,4.0,4.0,4.0,4.0,4.0,4.0,4.0,4.0,4.0,4.0,4.0,4.0,4.0,4.0,4.0,4.0,4.0,4.0,4.0,4.0,4.0,100.0,,,,,,,,,,,,,,,,,,,,,,,,,,,,,,,,,,,,,,,,,,,,,,,,,,,,,,,,,,,,,,,,,,,,,,,,,,,,,,,,,,,,,,,,,,,,,,,,,,,,,,,,,,,,,,,,,,,,,,,,,,,,,,,,,,,,,,,,,,,,,,,,,,,,,,,,,,,,,,,,,,,,,,,,,,,,,,,,,,,,,,,,,,,,,,,,,,,,,,,,,,,,,,
1763975502.6402,22815.0,0.0,4370.769043,4377.05127,4472.05127,4493.333496,4386.153809,4526.025879,4516.794922,4365.384766,4541.794922,4372.436035,4463.205078,4504.871582,4554.871582,4391.538574,4365.256348,4510.384766,4533.077148,4519.102539,4490.256348,4361.538574,4376.410156,4541.025879,4503.589844,4473.333496,4371.666504,4545.512695,4364.102539,4529.871582,4482.05127,4376.666504,4495.769043,4472.307617,2951.0,0.0,13.0,2560.0,43361.0,,,,0.0,4.0,4.0,4.0,4.0,4.0,4.0,4.0,4.0,4.0,4.0,4.0,4.0,4.0,4.0,4.0,4.0,4.0,4.0,4.0,4.0,4.0,4.0,4.0,4.0,4.0,4.0,4.0,4.0,4.0,4.0,4.0,4.0,100.0,,,,,,,,,,,,,,,,,,,,,,,,,,,,,,,,,,,,,,,,,,,,,,,,,,,,,,,,,,,,,,,,,,,,,,,,,,,,,,,,,,,,,,,,,,,,,,,,,,,,,,,,,,,,,,,,,,,,,,,,,,,,,,,,,,,,,,,,,,,,,,,,,,,,,,,,,,,,,,,,,,,,,,,,,,,,,,,,,,,,,,,,,,,,,,,,,,,,,,,,,,,,,,
1763975502.644106,22816.0,0.0,4382.94873,4392.94873,4484.230957,4506.282227,4398.846191,4535.769043,4528.333496,4377.05127,4554.230957,4376.922852,4471.538574,4514.487305,4564.230957,4396.922852,4373.333496,4520.384766,4543.205078,4530.641113,4498.846191,4376.025879,4392.307617,4554.358887,4516.794922,4487.692383,4386.153809,4565.769043,4381.282227,4546.025879,4496.666504,4394.743652,4513.461426,4490.128418,2859.0,0.0,13.0,2560.0,43368.0,,,,0.0,4.0,4.0,4.0,4.0,4.0,4.0,4.0,4.0,4.0,4.0,4.0,4.0,4.0,4.0,4.0,4.0,4.0,4.0,4.0,4.0,4.0,4.0,4.0,4.0,4.0,4.0,4.0,4.0,4.0,4.0,4.0,4.0,100.0,,,,,,,,,,,,,,,,,,,,,,,,,,,,,,,,,,,,,,,,,,,,,,,,,,,,,,,,,,,,,,,,,,,,,,,,,,,,,,,,,,,,,,,,,,,,,,,,,,,,,,,,,,,,,,,,,,,,,,,,,,,,,,,,,,,,,,,,,,,,,,,,,,,,,,,,,,,,,,,,,,,,,,,,,,,,,,,,,,,,,,,,,,,,,,,,,,,,,,,,,,,,,,
1763975502.648012,22817.0,0.0,4402.692383,4412.94873,4503.461426,4527.563965,4415.641113,4550.128418,4546.794922,4397.692383,4573.717773,4392.563965,4489.102539,4531.153809,4582.307617,4409.358887,4396.410156,4533.461426,4559.615234,4550.897461,4515.897461,4398.077148,4410.0,4577.05127,4536.410156,4507.179688,4405.512695,4586.922852,4402.692383,4567.820313,4516.922852,4415.769043,4531.410156,4506.922852,2874.0,0.0,13.0,2560.0,43368.0,,,,0.0,4.0,4.0,4.0,4.0,4.0,4.0,4.0,4.0,4.0,4.0,4.0,4.0,4.0,4.0,4.0,4.0,4.0,4.0,4.0,4.0,4.0,4.0,4.0,4.0,4.0,4.0,4.0,4.0,4.0,4.0,4.0,4.0,100.0,,,,,,,,,,,,,,,,,,,,,,,,,,,,,,,,,,,38472.0,0.0,0.464645,0.30481,0.210388,0.804321,0.884874,-0.480527,0.057136,35.833332,-20.666666,-26.166666,,,,,,,,,,,,,,,,,,,,,,,,,,,,,,,,,,,,,,,,,,,,,,,,,,,,,,,,,,,,,,,,,,,,,,,,,,,,,,,,,,,,,,,,,,,,,,,,,,,,,,,,,,,,,,,,,,,,,,,,,,,,,,,,,,,,,,,,,,,,,,,,,,,,,,,,,,,,,,,,
1763975502.651918,22818.0,0.0,4423.205078,4430.641113,4523.461426,4549.102539,4431.025879,4564.230957,4566.538574,4419.743652,4592.692383,4413.461426,4510.897461,4548.846191,4602.436035,4426.153809,4424.743652,4548.846191,4576.153809,4572.179688,4534.102539,4420.256348,4424.102539,4600.256348,4555.769043,4524.358887,4422.436035,4599.743652,4420.384766,4587.05127,4536.153809,4433.461426,4544.487305,4517.820313,2293.0,0.0,13.0,2561.0,43376.0,,,,0.0,4.0,4.0,4.0,4.0,4.0,4.0,4.0,4.0,4.0,4.0,4.0,4.0,4.0,4.0,4.0,4.0,4.0,4.0,4.0,4.0,4.0,4.0,4.0,4.0,4.0,4.0,4.0,4.0,4.0,4.0,4.0,4.0,100.0,,,,,,,,,,,,,,,,,,,,,,,,,,,,,,,,,,,,,,,,,,,,,,,,,,,,,,,,,,,,,,,,,,,,,,,,,,,,,,,,,,,,,,,,,,,,,,,,,,,,,,,,,,,,,,,,,,,,,,,,,,,,,,,,,,,,,,,,,,,,,,,,,,,,,,,,,,,,,,,,,,,,,,,,,,,,,,,,,,,,,,,,,,,,,,,,,,,,,,,,,,,,,,
1763975502.655824,22819.0,0.0,4437.307617,4440.897461,4537.563965,4563.333496,4440.641113,4573.974121,4581.410156,4435.128418,4605.0,4431.794922,4528.974121,4561.282227,4616.794922,4441.025879,4446.025879,4563.461426,4586.538574,4586.282227,4547.307617,4433.974121,4432.179688,4615.256348,4567.94873,4533.717773,4431.538574,4601.410156,4429.358887,4597.94873,4547.563965,4443.461426,4550.897461,4522.179688,2988.0,0.0,13.0,2561.0,43376.0,,,,0.0,4.0,4.0,4.0,4.0,4.0,4.0,4.0,4.0,4.0,4.0,4.0,4.0,4.0,4.0,4.0,4.0,4.0,4.0,4.0,4.0,4.0,4.0,4.0,4.0,4.0,4.0,4.0,4.0,4.0,4.0,4.0,4.0,100.0,,,,,,,,,,,,,,,,,,,,,,,,,,,,,,,,,,,,,,,,,,,,,,,,,,,,,,,,,,,,,,,,,,,,,,,,,,,,,,,,,,,,,,,,,,,,,,,,,,,,,,,,,,,,,,,,,,,,,,,,,,,,,,,,,,,,,,,,,,,,,,,,,,,,,,,,,,,,,,,,,,,,,,,,,,,,,,,,,,,,,,,,,,,,,,,,,,,,,,,,,,,,,,
1763975502.65973,22820.0,0.0,4438.846191,4439.487305,4539.615234,4564.230957,4440.384766,4575.512695,4585.384766,4437.436035,4605.769043,4440.512695,4534.615234,4562.436035,4618.205078,4445.769043,4449.871582,4570.128418,4585.897461,4586.794922,4551.410156,4432.692383,4431.025879,4615.769043,4567.05127,4530.384766,4428.717773,4593.333496,4426.666504,4596.666504,4545.897461,4442.179688,4548.589844,4519.615234,2897.0,0.0,13.0,2562.0,43384.0,,,,0.0,4.0,4.0,4.0,4.0,4.0,4.0,4.0,4.0,4.0,4.0,4.0,4.0,4.0,4.0,4.0,4.0,4.0,4.0,4.0,4.0,4.0,4.0,4.0,4.0,4.0,4.0,4.0,4.0,4.0,4.0,4.0,4.0,100.0,,,,,,,,,,,,,,,,,,,,,,,,,,,,,,,,,,,,,,,,,,,,,,,,,,,,,,,,,,,,,,,,,,,,,,,,,,,,,,,,,,,,,,,,,,,,,,,,,,,,,,,,,,,,,,,,,,,,,,,,,,,,,,,,,,,,,,,,,,,,,,,,,,,,,,,,,,,,,,,,,,,,,,,,,,,,,,,,,,,,,,,,,,,,,,,,,,,,,,,,,,,,,,
1763975502.663636,22821.0,0.0,4425.897461,4425.256348,4527.436035,4550.128418,4429.102539,4567.05127,4575.128418,4424.358887,4593.846191,4434.743652,4523.077148,4550.641113,4604.487305,4435.769043,4434.102539,4562.563965,4573.205078,4571.922852,4545.0,4415.384766,4418.846191,4601.025879,4551.666504,4513.589844,4412.94873,4578.717773,4411.794922,4582.436035,4529.871582,4428.589844,4536.794922,4509.743652,2410.0,0.0,13.0,2562.0,43384.0,,,,0.0,4.0,4.0,4.0,4.0,4.0,4.0,4.0,4.0,4.0,4.0,4.0,4.0,4.0,4.0,4.0,4.0,4.0,4.0,4.0,4.0,4.0,4.0,4.0,4.0,4.0,4.0,4.0,4.0,4.0,4.0,4.0,4.0,100.0,,,,,,,,,,,,,,,,,,,,,,,,,,,,,,,,,,,38473.0,0.0,0.464687,0.304626,0.210327,0.804382,0.884874,-0.480527,0.057136,37.0,-18.833334,-26.0,,,,,,,,,,,,,,,,,,,,,,,,,,,,,,,,,,,,,,,,,,,,,,,,,,,,,,,,,,,,,,,,,,,,,,,,,,,,,,,,,,,,,,,,,,,,,,,,,,,,,,,,,,,,,,,,,,,,,,,,,,,,,,,,,,,,,,,,,,,,,,,,,,,,,,,,,,,,,,,,
1763975502.667542,22822.0,0.0,4403.846191,4404.102539,4506.410156,4527.820313,4411.666504,4551.922852,4554.487305,4402.179688,4575.256348,4416.410156,4499.743652,4530.512695,4582.307617,4415.641113,4406.794922,4542.563965,4553.461426,4547.563965,4531.538574,4390.384766,4399.615234,4578.846191,4528.333496,4489.743652,4390.0,4562.692383,4390.384766,4561.153809,4506.410156,4407.692383,4519.615234,4495.897461,3000.0,0.0,13.0,2563.0,43392.0,,,,0.0,4.0,4.0,4.0,4.0,4.0,4.0,4.0,4.0,4.0,4.0,4.0,4.0,4.0,4.0,4.0,4.0,4.0,4.0,4.0,4.0,4.0,4.0,4.0,4.0,4.0,4.0,4.0,4.0,4.0,4.0,4.0,4.0,100.0,,,,,,,,,,,,,,,,,,,,,,,,,,,,,,,,,,,,,,,,,,,,,,,,,,,,,,,,,,,,,,,,,,,,,,,,,,,,,,,,,,,,,,,,,,,,,,,,,,,,,,,,,,,,,,,,,,,,,,,,,,,,,,,,,,,,,,,,,,,,,,,,,,,,,,,,,,,,,,,,,,,,,,,,,,,,,,,,,,,,,,,,,,,,,,,,,,,,,,,,,,,,,,
1763975502.671448,22823.0,0.0,4384.487305,4387.179688,4488.333496,4509.871582,4397.563965,4537.820313,4534.743652,4383.589844,4560.641113,4395.256348,4477.94873,4512.436035,4563.717773,4396.922852,4382.94873,4521.282227,4536.538574,4525.769043,4519.102539,4371.794922,4384.230957,4561.666504,4509.615234,4471.794922,4371.794922,4552.820313,4373.205078,4544.102539,4488.589844,4390.641113,4506.282227,4485.384766,2991.0,0.0,13.0,2563.0,43392.0,,,,0.0,4.0,4.0,4.0,4.0,4.0,4.0,4.0,4.0,4.0,4.0,4.0,4.0,4.0,4.0,4.0,4.0,4.0,4.0,4.0,4.0,4.0,4.0,4.0,4.0,4.0,4.0,4.0,4.0,4.0,4.0,4.0,4.0,100.0,,,,,,,,,,,,,,,,,,,,,,,,,,,,,,,,,,,,,,,,,,,,,,,,,,,,,,,,,,,,,,,,,,,,,,,,,,,,,,,,,,,,,,,,,,,,,,,,,,,,,,,,,,,,,,,,,,,,,,,,,,,,,,,,,,,,,,,,,,,,,,,,,,,,,,,,,,,,,,,,,,,,,,,,,,,,,,,,,,,,,,,,,,,,,,,,,,,,,,,,,,,,,,
1763975502.675354,22824.0,0.0,4378.077148,4383.461426,4483.205078,4506.410156,4394.615234,4532.436035,4526.922852,4378.589844,4558.461426,4383.846191,4470.769043,4505.769043,4559.615234,4390.384766,4374.102539,4512.436035,4531.410156,4517.94873,4515.512695,4370.0,4382.820313,4558.974121,4505.641113,4470.512695,4369.102539,4555.128418,4370.128418,4540.512695,4486.666504,4387.563965,4505.128418,4485.128418,2680.0,0.0,13.0,2560.0,43400.0,,,,0.0,4.0,4.0,4.0,4.0,4.0,4.0,4.0,4.0,4.0,4.0,4.0,4.0,4.0,4.0,4.0,4.0,4.0,4.0,4.0,4.0,4.0,4.0,4.0,4.0,4.0,4.0,4.0,4.0,4.0,4.0,4.0,4.0,100.0,,,,,,,,,,,,,,,,,,,,,,,,,,,,,,,,,,,,,,,,,,,,,,,1.790524,2.933322,3.438937,4.426171,5.131535,2.256971,1.905276,3.249781,4.689204,5.203821,1.688993,1.33617,2.947773,5.281472,5.662229,1.484083,1.487033,3.02808,5.387383,5.674369,1.036345,0.893506,2.346005,3.52202,3.666677,0.897058,1.853496,2.25795,3.616745,3.269926,1.227929,2.449796,2.300687,4.675446,5.313012,0.818622,1.670246,2.745039,5.097068,5.356055,0.519174,1.210077,1.933692,5.392344,5.464179,0.668708,1.356267,2.229281,11.455119,7.687418,0.524648,2.962314,1.378102,4.648371,4.918216,1.079041,6.61841,2.50247,4.368625,4.66135,0.476431,12.906374,2.735556,5.214835,5.304293,0.137658,1.587637,1.454545,4.041193,4.877423,0.854386,1.587017,1.794537,5.393317,5.313933,1.624957,7.257946,3.503956,5.217811,7.772839,1.482579,14.690524,2.597308,3.994454,4.516435,0.483799,4.515775,2.79328,4.803409,5.985225,0.997067,3.752348,2.843903,4.499435,5.867643,1.228699,3.224409,3.02741,5.26966,6.309986,1.070094,3.52497,2.971376,4.179412,5.096179,1.507748,6.201854,3.138906,4.362626,5.958974,1.596431,6.324092,3.008643,5.037157,5.713583,0.969514,2.003917,2.817476,4.523476,5.239922,1.319144,2.217057,2.930981,5.583091,6.09529,1.233761,1.861008,2.23097,4.927783,6.626235,1.879356,1.746617,2.673063,5.313599,6.047969,1.524467,2.40305,2.632756,4.694173,5.711495,1.872492,1.7417,2.572811,4.344054,4.77106,2.02085,2.018471,2.64568,5.410965,5.620306,1.883467,1.4639,2.850879,5.421843,6.313373,1.844888,1.383026,2.930346,5.585709,6.224789
1763975502.67926,22825.0,0.0,4386.538574,4394.102539,4492.436035,4517.94873,4403.077148,4537.94873,4533.461426,4387.307617,4568.077148,4390.128418,4480.769043,4512.820313,4571.153809,4397.563965,4381.794922,4521.794922,4539.743652,4527.436035,4521.538574,4383.846191,4395.897461,4570.128418,4516.538574,4485.512695,4382.94873,4568.333496,4381.922852,4550.769043,4500.512695,4399.743652,4517.05127,4495.256348,2862.0,0.0,13.0,2560.0,43400.0,,,,0.0,4.0,4.0,4.0,4.0,4.0,4.0,4.0,4.0,4.0,4.0,4.0,4.0,4.0,4.0,4.0,4.0,4.0,4.0,4.0,4.0,4.0,4.0,4.0,4.0,4.0,4.0,4.0,4.0,4.0,4.0,4.0,4.0,100.0,,,,,,,,,,,,,,,,,,,,,,,,,,,,,,,,,,,38474.0,0.0,0.464679,0.304443,0.210144,0.804504,0.88292,-0.480527,0.060554,36.666668,-21.0,-27.0,,,,,,,,,,,,,,,,,,,,,,,,,,,,,,,,,,,,,,,,,,,,,,,,,,,,,,,,,,,,,,,,,,,,,,,,,,,,,,,,,,,,,,,,,,,,,,,,,,,,,,,,,,,,,,,,,,,,,,,,,,,,,,,,,,,,,,,,,,,,,,,,,,,,,,,,,,,,,,,,
1763975502.683166,22826.0,0.0,4402.436035,4410.897461,4508.077148,4535.384766,4416.153809,4549.358887,4547.307617,4400.641113,4581.153809,4410.512695,4499.358887,4527.307617,4589.871582,4411.410156,4397.692383,4542.820313,4555.0,4547.436035,4531.282227,4402.563965,4413.589844,4585.769043,4533.717773,4506.153809,4403.974121,4584.743652,4400.769043,4566.410156,4520.0,4418.846191,4534.358887,4508.717773,2690.0,0.0,13.0,2048.0,43407.0,,,,0.0,4.0,4.0,4.0,4.0,4.0,4.0,4.0,4.0,4.0,4.0,4.0,4.0,4.0,4.0,4.0,4.0,4.0,4.0,4.0,4.0,4.0,4.0,4.0,4.0,4.0,4.0,4.0,4.0,4.0,4.0,4.0,4.0,100.0,,,,,,,,,,,,,,,,,,,,,,,,,,,,,,,,,,,,,,,,,,,,,,,,,,,,,,,,,,,,,,,,,,,,,,,,,,,,,,,,,,,,,,,,,,,,,,,,,,,,,,,,,,,,,,,,,,,,,,,,,,,,,,,,,,,,,,,,,,,,,,,,,,,,,,,,,,,,,,,,,,,,,,,,,,,,,,,,,,,,,,,,,,,,,,,,,,,,,,,,,,,,,,
1763975502.687072,22827.0,0.0,4415.128418,4423.205078,4518.974121,4547.692383,4425.128418,4558.461426,4557.563965,4408.974121,4588.846191,4431.922852,4513.717773,4539.487305,4604.230957,4422.307617,4411.282227,4560.641113,4567.05127,4564.743652,4536.538574,4414.230957,4423.846191,4595.641113,4546.410156,4519.615234,4419.487305,4594.871582,4416.153809,4577.307617,4533.333496,4433.205078,4547.307617,4517.307617,3018.0,0.0,13.0,2048.0,43407.0,,,,0.0,4.0,4.0,4.0,4.0,4.0,4.0,4.0,4.0,4.0,4.0,4.0,4.0,4.0,4.0,4.0,4.0,4.0,4.0,4.0,4.0,4.0,4.0,4.0,4.0,4.0,4.0,4.0,4.0,4.0,4.0,4.0,4.0,100.0,,,,,,,,,,,,,,,,,,,,,,,,,,,,,,,,,,,,,,,,,,,,,,,,,,,,,,,,,,,,,,,,,,,,,,,,,,,,,,,,,,,,,,,,,,,,,,,,,,,,,,,,,,,,,,,,,,,,,,,,,,,,,,,,,,,,,,,,,,,,,,,,,,,,,,,,,,,,,,,,,,,,,,,,,,,,,,,,,,,,,,,,,,,,,,,,,,,,,,,,,,,,,,
1763975502.690978,22828.0,0.0,4417.94873,4424.615234,4518.974121,4548.846191,4425.256348,4559.230957,4558.333496,4408.333496,4588.333496,4440.512695,4515.897461,4542.179688,4606.025879,4424.487305,4415.641113,4560.897461,4569.358887,4567.820313,4532.820313,4413.461426,4421.282227,4595.0,4549.102539,4520.641113,4422.436035,4594.487305,4421.538574,4578.333496,4534.615234,4435.897461,4549.871582,4516.666504,2965.0,0.0,13.0,1024.0,43415.0,,,,0.0,4.0,4.0,4.0,4.0,4.0,4.0,4.0,4.0,4.0,4.0,4.0,4.0,4.0,4.0,4.0,4.0,4.0,4.0,4.0,4.0,4.0,4.0,4.0,4.0,4.0,4.0,4.0,4.0,4.0,4.0,4.0,4.0,100.0,,,,,,,,,,,,,,,,,,,,,,,,,,,,,,,,,,,,,,,,,,,,,,,,,,,,,,,,,,,,,,,,,,,,,,,,,,,,,,,,,,,,,,,,,,,,,,,,,,,,,,,,,,,,,,,,,,,,,,,,,,,,,,,,,,,,,,,,,,,,,,,,,,,,,,,,,,,,,,,,,,,,,,,,,,,,,,,,,,,,,,,,,,,,,,,,,,,,,,,,,,,,,,
1763975502.694884,22829.0,0.0,4411.282227,4416.153809,4509.487305,4540.769043,4417.820313,4551.410156,4550.384766,4401.025879,4582.820313,4430.897461,4506.410156,4535.128418,4595.256348,4417.820313,4409.743652,4540.512695,4561.666504,4553.717773,4520.897461,4403.589844,4409.487305,4586.410156,4542.436035,4512.692383,4414.230957,4585.641113,4417.307617,4571.153809,4526.153809,4428.205078,4542.94873,4508.461426,2733.0,0.0,13.0,1024.0,43415.0,,,,0.0,4.0,4.0,4.0,4.0,4.0,4.0,4.0,4.0,4.0,4.0,4.0,4.0,4.0,4.0,4.0,4.0,4.0,4.0,4.0,4.0,4.0,4.0,4.0,4.0,4.0,4.0,4.0,4.0,4.0,4.0,4.0,4.0,100.0,,,,,,,,,,,,,,,,,,,,,,,,,,,,,,,,,,,38475.0,0.0,0.464814,0.304321,0.210022,0.804504,0.886827,-0.472226,0.043462,36.333332,-20.666666,-26.166666,,,,,,,,,,,,,,,,,,,,,,,,,,,,,,,,,,,,,,,,,,,,,,,,,,,,,,,,,,,,,,,,,,,,,,,,,,,,,,,,,,,,,,,,,,,,,,,,,,,,,,,,,,,,,,,,,,,,,,,,,,,,,,,,,,,,,,,,,,,,,,,,,,,,,,,,,,,,,,,,
1763975502.69879,22830.0,0.0,4400.641113,4404.615234,4497.692383,4530.128418,4408.077148,4539.230957,4539.615234,4392.05127,4577.563965,4410.128418,4492.436035,4523.589844,4579.230957,4407.307617,4397.692383,4510.512695,4549.871582,4529.871582,4505.769043,4392.436035,4397.563965,4576.410156,4532.179688,4503.846191,4402.307617,4575.128418,4408.205078,4562.05127,4515.512695,4416.922852,4532.179688,4498.846191,2742.0,0.0,13.0,256.0,43423.0,,,,0.0,4.0,4.0,4.0,4.0,4.0,4.0,4.0,4.0,4.0,4.0,4.0,4.0,4.0,4.0,4.0,4.0,4.0,4.0,4.0,4.0,4.0,4.0,4.0,4.0,4.0,4.0,4.0,4.0,4.0,4.0,4.0,4.0,100.0,,,,,,,,,,,,,,,,,,,,,,,,,,,,,,,,,,,,,,,,,,,,,,,,,,,,,,,,,,,,,,,,,,,,,,,,,,,,,,,,,,,,,,,,,,,,,,,,,,,,,,,,,,,,,,,,,,,,,,,,,,,,,,,,,,,,,,,,,,,,,,,,,,,,,,,,,,,,,,,,,,,,,,,,,,,,,,,,,,,,,,,,,,,,,,,,,,,,,,,,,,,,,,
1763975502.702696,22831.0,0.0,4392.563965,4396.666504,4490.897461,4523.333496,4401.794922,4528.974121,4532.05127,4386.025879,4575.128418,4392.692383,4481.922852,4514.487305,4567.436035,4398.333496,4387.436035,4489.358887,4541.922852,4509.487305,4493.846191,4385.897461,4393.205078,4570.897461,4524.871582,4500.384766,4393.974121,4568.974121,4399.743652,4556.794922,4509.230957,4408.717773,4523.974121,4493.717773,2860.0,0.0,13.0,256.0,43423.0,,,,0.0,4.0,4.0,4.0,4.0,4.0,4.0,4.0,4.0,4.0,4.0,4.0,4.0,4.0,4.0,4.0,4.0,4.0,4.0,4.0,4.0,4.0,4.0,4.0,4.0,4.0,4.0,4.0,4.0,4.0,4.0,4.0,4.0,100.0,,,,,,,,,,,,,,,,,,,,,,,,,,,,,,,,,,,,,,,,,,,,,,,,,,,,,,,,,,,,,,,,,,,,,,,,,,,,,,,,,,,,,,,,,,,,,,,,,,,,,,,,,,,,,,,,,,,,,,,,,,,,,,,,,,,,,,,,,,,,,,,,,,,,,,,,,,,,,,,,,,,,,,,,,,,,,,,,,,,,,,,,,,,,,,,,,,,,,,,,,,,,,,
1763975502.706602,22832.0,0.0,4390.512695,4394.871582,4490.769043,4522.820313,4400.897461,4524.615234,4530.769043,4384.871582,4575.256348,4388.846191,4479.230957,4512.436035,4565.256348,4394.743652,4384.871582,4489.102539,4541.922852,4502.307617,4489.230957,4385.256348,4396.794922,4571.282227,4523.717773,4502.820313,4391.666504,4569.102539,4395.128418,4556.922852,4508.974121,4406.025879,4521.666504,4494.102539,2963.0,0.0,13.0,512.0,43431.0,,,,0.0,4.0,4.0,4.0,4.0,4.0,4.0,4.0,4.0,4.0,4.0,4.0,4.0,4.0,4.0,4.0,4.0,4.0,4.0,4.0,4.0,4.0,4.0,4.0,4.0,4.0,4.0,4.0,4.0,4.0,4.0,4.0,4.0,100.0,,,,,,,,,,,,,,,,,,,,,,,,,,,,,,,,,,,,,,,,,,,,,,,,,,,,,,,,,,,,,,,,,,,,,,,,,,,,,,,,,,,,,,,,,,,,,,,,,,,,,,,,,,,,,,,,,,,,,,,,,,,,,,,,,,,,,,,,,,,,,,,,,,,,,,,,,,,,,,,,,,,,,,,,,,,,,,,,,,,,,,,,,,,,,,,,,,,,,,,,,,,,,,
1763975502.710508,22833.0,0.0,4392.820313,4396.410156,4493.974121,4525.897461,4403.205078,4526.153809,4533.589844,4387.179688,4575.0,4396.666504,4482.94873,4516.282227,4570.641113,4397.436035,4390.256348,4505.897461,4547.820313,4507.692383,4491.538574,4387.05127,4402.692383,4574.230957,4527.179688,4506.538574,4392.820313,4572.563965,4393.846191,4559.230957,4511.282227,4406.538574,4523.974121,4496.282227,3052.0,0.0,13.0,512.0,43431.0,,,,0.0,4.0,4.0,4.0,4.0,4.0,4.0,4.0,4.0,4.0,4.0,4.0,4.0,4.0,4.0,4.0,4.0,4.0,4.0,4.0,4.0,4.0,4.0,4.0,4.0,4.0,4.0,4.0,4.0,4.0,4.0,4.0,4.0,100.0,,,,,,,,,,,,,,,,,,,,,,,,,,,,,,,,,,,38476.0,0.0,0.464883,0.304138,0.2099,0.804565,0.888292,-0.482481,0.059089,37.5,-19.5,-26.166666,,,,,,,,,,,,,,,,,,,,,,,,,,,,,,,,,,,,,,,,,,,,,,,,,,,,,,,,,,,,,,,,,,,,,,,,,,,,,,,,,,,,,,,,,,,,,,,,,,,,,,,,,,,,,,,,,,,,,,,,,,,,,,,,,,,,,,,,,,,,,,,,,,,,,,,,,,,,,,,,
1763975502.714414,22834.0,0.0,4394.871582,4395.897461,4494.487305,4526.794922,4403.717773,4529.358887,4535.384766,4389.358887,4571.153809,4403.717773,4487.05127,4520.128418,4575.769043,4402.307617,4396.538574,4523.461426,4553.461426,4516.153809,4496.153809,4386.410156,4402.820313,4574.487305,4529.615234,4505.512695,4392.563965,4573.846191,4392.692383,4559.230957,4510.641113,4405.769043,4525.256348,4494.871582,2833.0,0.0,13.0,768.0,43439.0,,,,0.0,4.0,4.0,4.0,4.0,4.0,4.0,4.0,4.0,4.0,4.0,4.0,4.0,4.0,4.0,4.0,4.0,4.0,4.0,4.0,4.0,4.0,4.0,4.0,4.0,4.0,4.0,4.0,4.0,4.0,4.0,4.0,4.0,100.0,,,,,,,,,,,,,,,,,,,,,,,,,,,,,,,,,,,,,,,,,,,,,,,,,,,,,,,,,,,,,,,,,,,,,,,,,,,,,,,,,,,,,,,,,,,,,,,,,,,,,,,,,,,,,,,,,,,,,,,,,,,,,,,,,,,,,,,,,,,,,,,,,,,,,,,,,,,,,,,,,,,,,,,,,,,,,,,,,,,,,,,,,,,,,,,,,,,,,,,,,,,,,,
1763975502.71832,22835.0,0.0,4392.179688,4389.615234,4487.94873,4520.641113,4398.717773,4528.974121,4531.410156,4386.922852,4561.282227,4398.077148,4485.128418,4517.692383,4572.820313,4403.333496,4394.358887,4525.512695,4552.94873,4516.922852,4496.922852,4379.871582,4393.077148,4568.205078,4525.641113,4497.179688,4387.563965,4568.717773,4388.461426,4553.461426,4503.461426,4400.897461,4520.641113,4487.05127,3026.0,0.0,13.0,768.0,43439.0,,,,0.0,4.0,4.0,4.0,4.0,4.0,4.0,4.0,4.0,4.0,4.0,4.0,4.0,4.0,4.0,4.0,4.0,4.0,4.0,4.0,4.0,4.0,4.0,4.0,4.0,4.0,4.0,4.0,4.0,4.0,4.0,4.0,4.0,100.0,,,,,,,,,,,,,,,,,,,,,,,,,,,,,,,,,,,,,,,,,,,,,,,,,,,,,,,,,,,,,,,,,,,,,,,,,,,,,,,,,,,,,,,,,,,,,,,,,,,,,,,,,,,,,,,,,,,,,,,,,,,,,,,,,,,,,,,,,,,,,,,,,,,,,,,,,,,,,,,,,,,,,,,,,,,,,,,,,,,,,,,,,,,,,,,,,,,,,,,,,,,,,,
1763975502.722226,22836.0,0.0,4384.230957,4378.205078,4475.769043,4507.692383,4388.461426,4522.563965,4521.153809,4378.589844,4547.436035,4379.487305,4475.0,4507.94873,4561.025879,4396.538574,4379.358887,4509.358887,4545.256348,4507.820313,4493.205078,4368.077148,4377.179688,4557.179688,4515.0,4484.743652,4378.974121,4557.692383,4380.769043,4543.077148,4492.179688,4392.563965,4510.0,4475.128418,3016.0,0.0,13.0,1024.0,43446.0,,,,0.0,4.0,4.0,4.0,4.0,4.0,4.0,4.0,4.0,4.0,4.0,4.0,4.0,4.0,4.0,4.0,4.0,4.0,4.0,4.0,4.0,4.0,4.0,4.0,4.0,4.0,4.0,4.0,4.0,4.0,4.0,4.0,4.0,100.0,,,,,,,,,,,,,,,,,,,,,,,,,,,,,,,,,,,,,,,,,,,,,,,,,,,,,,,,,,,,,,,,,,,,,,,,,,,,,,,,,,,,,,,,,,,,,,,,,,,,,,,,,,,,,,,,,,,,,,,,,,,,,,,,,,,,,,,,,,,,,,,,,,,,,,,,,,,,,,,,,,,,,,,,,,,,,,,,,,,,,,,,,,,,,,,,,,,,,,,,,,,,,,
1763975502.726132,22837.0,0.0,4376.410156,4368.461426,4466.025879,4495.769043,4379.102539,4514.743652,4511.410156,4368.974121,4537.179688,4362.307617,4463.077148,4497.436035,4548.717773,4385.641113,4358.974121,4489.871582,4536.410156,4498.461426,4492.307617,4357.05127,4365.769043,4549.230957,4504.743652,4476.794922,4373.333496,4548.205078,4374.230957,4535.384766,4484.615234,4386.922852,4500.384766,4467.307617,2931.0,0.0,13.0,1024.0,43446.0,,,,0.0,4.0,4.0,4.0,4.0,4.0,4.0,4.0,4.0,4.0,4.0,4.0,4.0,4.0,4.0,4.0,4.0,4.0,4.0,4.0,4.0,4.0,4.0,4.0,4.0,4.0,4.0,4.0,4.0,4.0,4.0,4.0,4.0,100.0,,,,,,,,,,,,,,,,,,,,,,,,,,,,,,,,,,,38477.0,0.0,0.464818,0.304077,0.2099,0.804626,0.87999,-0.475644,0.055183,37.5,-20.166666,-25.833334,,,,,,,,,,,,,,,,,,,,,,,,,,,,,,,,,,,,,,,,,,,,,,,,,,,,,,,,,,,,,,,,,,,,,,,,,,,,,,,,,,,,,,,,,,,,,,,,,,,,,,,,,,,,,,,,,,,,,,,,,,,,,,,,,,,,,,,,,,,,,,,,,,,,,,,,,,,,,,,,
1763975502.730038,22838.0,0.0,4377.94873,4369.743652,4468.846191,4496.282227,4379.615234,4514.743652,4512.563965,4367.820313,4540.256348,4364.230957,4460.641113,4497.179688,4548.333496,4381.153809,4348.461426,4488.077148,4535.897461,4503.846191,4503.589844,4357.05127,4369.871582,4553.974121,4505.897461,4482.179688,4379.102539,4550.384766,4376.922852,4539.871582,4489.615234,4392.307617,4502.563965,4472.563965,3001.0,0.0,13.0,1280.0,43454.0,,,,0.0,4.0,4.0,4.0,4.0,4.0,4.0,4.0,4.0,4.0,4.0,4.0,4.0,4.0,4.0,4.0,4.0,4.0,4.0,4.0,4.0,4.0,4.0,4.0,4.0,4.0,4.0,4.0,4.0,4.0,4.0,4.0,4.0,100.0,,,,,,,,,,,,,,,,,,,,,,,,,,,,,,,,,,,,,,,,,,,,,,,,,,,,,,,,,,,,,,,,,,,,,,,,,,,,,,,,,,,,,,,,,,,,,,,,,,,,,,,,,,,,,,,,,,,,,,,,,,,,,,,,,,,,,,,,,,,,,,,,,,,,,,,,,,,,,,,,,,,,,,,,,,,,,,,,,,,,,,,,,,,,,,,,,,,,,,,,,,,,,,
1763975502.733944,22839.0,0.0,4393.589844,4386.153809,4489.358887,4516.025879,4394.743652,4528.077148,4530.384766,4381.666504,4561.153809,4391.794922,4474.871582,4513.077148,4566.282227,4391.922852,4360.512695,4513.589844,4549.358887,4530.641113,4528.205078,4374.743652,4391.410156,4574.230957,4523.333496,4502.820313,4399.102539,4568.846191,4393.205078,4560.0,4509.358887,4412.307617,4521.282227,4493.461426,2945.0,0.0,13.0,1280.0,43454.0,,,,0.0,4.0,4.0,4.0,4.0,4.0,4.0,4.0,4.0,4.0,4.0,4.0,4.0,4.0,4.0,4.0,4.0,4.0,4.0,4.0,4.0,4.0,4.0,4.0,4.0,4.0,4.0,4.0,4.0,4.0,4.0,4.0,4.0,100.0,,,,,,,,,,,,,,,,,,,,,,,,,,,,,,,,,,,,,,,,,,,,,,,,,,,,,,,,,,,,,,,,,,,,,,,,,,,,,,,,,,,,,,,,,,,,,,,,,,,,,,,,,,,,,,,,,,,,,,,,,,,,,,,,,,,,,,,,,,,,,,,,,,,,,,,,,,,,,,,,,,,,,,,,,,,,,,,,,,,,,,,,,,,,,,,,,,,,,,,,,,,,,,
1763975502.73785,22840.0,0.0,4417.307617,4411.282227,4521.153809,4548.077148,4419.230957,4550.512695,4558.205078,4406.922852,4592.307617,4433.333496,4500.512695,4539.230957,4594.615234,4415.769043,4391.922852,4554.358887,4570.897461,4568.461426,4553.974121,4404.615234,4420.0,4600.128418,4549.487305,4528.846191,4425.256348,4595.769043,4417.436035,4587.563965,4535.512695,4439.102539,4548.974121,4521.410156,2898.0,0.0,13.0,1536.0,43462.0,,,,0.0,4.0,4.0,4.0,4.0,4.0,4.0,4.0,4.0,4.0,4.0,4.0,4.0,4.0,4.0,4.0,4.0,4.0,4.0,4.0,4.0,4.0,4.0,4.0,4.0,4.0,4.0,4.0,4.0,4.0,4.0,4.0,4.0,100.0,,,,,,,,,,,,,,,,,,,,,,,,,,,,,,,,,,,,,,,,,,,,,,,,,,,,,,,,,,,,,,,,,,,,,,,,,,,,,,,,,,,,,,,,,,,,,,,,,,,,,,,,,,,,,,,,,,,,,,,,,,,,,,,,,,,,,,,,,,,,,,,,,,,,,,,,,,,,,,,,,,,,,,,,,,,,,,,,,,,,,,,,,,,,,,,,,,,,,,,,,,,,,,
1763975502.741756,22841.0,0.0,4433.846191,4431.025879,4548.461426,4575.0,4439.743652,4568.333496,4580.0,4429.615234,4617.436035,4465.641113,4521.666504,4559.615234,4615.641113,4438.974121,4424.358887,4584.358887,4586.538574,4595.384766,4563.333496,4430.384766,4438.461426,4615.128418,4568.077148,4544.743652,4442.05127,4614.871582,4435.769043,4606.025879,4552.820313,4456.538574,4569.358887,4540.897461,2863.0,0.0,13.0,1536.0,43462.0,,,,0.0,4.0,4.0,4.0,4.0,4.0,4.0,4.0,4.0,4.0,4.0,4.0,4.0,4.0,4.0,4.0,4.0,4.0,4.0,4.0,4.0,4.0,4.0,4.0,4.0,4.0,4.0,4.0,4.0,4.0,4.0,4.0,4.0,100.0,,,,,,,,,,,,,,,,,,,,,,,,,,,,,,,,,,,38478.0,0.0,0.464897,0.303955,0.2099,0.804626,0.876572,-0.485411,0.049322,37.166668,-19.5,-25.833334,,,,,,,,,,,,,,,,,,,,,,,,,,,,,,,,,,,,,,,,,,,,,,,,,,,,,,,,,,,,,,,,,,,,,,,,,,,,,,,,,,,,,,,,,,,,,,,,,,,,,,,,,,,,,,,,,,,,,,,,,,,,,,,,,,,,,,,,,,,,,,,,,,,,,,,,,,,,,,,,
1763975502.745662,22842.0,0.0,4431.922852,4434.358887,4557.307617,4581.666504,4444.487305,4570.256348,4582.94873,4436.282227,4623.205078,4471.153809,4525.128418,4560.384766,4615.897461,4446.153809,4438.077148,4584.230957,4584.358887,4594.871582,4549.230957,4436.153809,4436.794922,4608.846191,4566.538574,4540.512695,4438.589844,4614.743652,4436.666504,4603.846191,4551.282227,4453.333496,4570.128418,4541.538574,2808.0,0.0,13.0,1792.0,43470.0,,,,0.0,4.0,4.0,4.0,4.0,4.0,4.0,4.0,4.0,4.0,4.0,4.0,4.0,4.0,4.0,4.0,4.0,4.0,4.0,4.0,4.0,4.0,4.0,4.0,4.0,4.0,4.0,4.0,4.0,4.0,4.0,4.0,4.0,100.0,,,,,,,,,,,,,,,,,,,,,,,,,,,,,,,,,,,,,,,,,,,,,,,,,,,,,,,,,,,,,,,,,,,,,,,,,,,,,,,,,,,,,,,,,,,,,,,,,,,,,,,,,,,,,,,,,,,,,,,,,,,,,,,,,,,,,,,,,,,,,,,,,,,,,,,,,,,,,,,,,,,,,,,,,,,,,,,,,,,,,,,,,,,,,,,,,,,,,,,,,,,,,,
1763975502.749568,22843.0,0.0,4413.205078,4422.692383,4545.769043,4566.794922,4432.820313,4556.153809,4567.94873,4425.0,4608.461426,4449.230957,4509.615234,4541.153809,4596.794922,4432.94873,4427.94873,4554.615234,4565.512695,4568.333496,4521.666504,4419.358887,4418.461426,4585.769043,4546.410156,4519.615234,4418.717773,4597.307617,4421.025879,4583.077148,4533.077148,4433.333496,4552.94873,4526.025879,3025.0,0.0,13.0,1792.0,43470.0,,,,0.0,4.0,4.0,4.0,4.0,4.0,4.0,4.0,4.0,4.0,4.0,4.0,4.0,4.0,4.0,4.0,4.0,4.0,4.0,4.0,4.0,4.0,4.0,4.0,4.0,4.0,4.0,4.0,4.0,4.0,4.0,4.0,4.0,100.0,,,,,,,,,,,,,,,,,,,,,,,,,,,,,,,,,,,,,,,,,,,,,,,,,,,,,,,,,,,,,,,,,,,,,,,,,,,,,,,,,,,,,,,,,,,,,,,,,,,,,,,,,,,,,,,,,,,,,,,,,,,,,,,,,,,,,,,,,,,,,,,,,,,,,,,,,,,,,,,,,,,,,,,,,,,,,,,,,,,,,,,,,,,,,,,,,,,,,,,,,,,,,,
1763975502.753474,22844.0,0.0,4391.025879,4406.410156,4523.974121,4542.179688,4414.487305,4537.179688,4547.307617,4405.897461,4584.230957,4414.230957,4486.282227,4515.512695,4571.922852,4408.717773,4405.0,4514.102539,4541.922852,4533.077148,4498.846191,4392.563965,4397.179688,4561.410156,4520.641113,4495.641113,4396.922852,4575.384766,4400.256348,4557.692383,4510.641113,4411.153809,4530.897461,4507.436035,2975.0,0.0,13.0,2048.0,43478.0,,,,0.0,4.0,4.0,4.0,4.0,4.0,4.0,4.0,4.0,4.0,4.0,4.0,4.0,4.0,4.0,4.0,4.0,4.0,4.0,4.0,4.0,4.0,4.0,4.0,4.0,4.0,4.0,4.0,4.0,4.0,4.0,4.0,4.0,100.0,,,,,,,,,,,,,,,,,,,,,,,,,,,,,,,,,,,,,,,,,,,,,,,,,,,,,,,,,,,,,,,,,,,,,,,,,,,,,,,,,,,,,,,,,,,,,,,,,,,,,,,,,,,,,,,,,,,,,,,,,,,,,,,,,,,,,,,,,,,,,,,,,,,,,,,,,,,,,,,,,,,,,,,,,,,,,,,,,,,,,,,,,,,,,,,,,,,,,,,,,,,,,,
1763975502.75738,22845.0,0.0,4378.846191,4396.153809,4506.025879,4522.436035,4401.538574,4526.025879,4534.358887,4391.410156,4565.384766,4384.230957,4468.974121,4498.974121,4555.769043,4388.589844,4385.769043,4484.102539,4526.538574,4508.589844,4492.820313,4372.563965,4385.897461,4549.358887,4503.717773,4481.538574,4386.538574,4562.820313,4387.307617,4541.794922,4496.922852,4400.256348,4518.333496,4497.820313,2833.0,0.0,13.0,2048.0,43478.0,,,,0.0,4.0,4.0,4.0,4.0,4.0,4.0,4.0,4.0,4.0,4.0,4.0,4.0,4.0,4.0,4.0,4.0,4.0,4.0,4.0,4.0,4.0,4.0,4.0,4.0,4.0,4.0,4.0,4.0,4.0,4.0,4.0,4.0,100.0,,,,,,,,,,,,,,,,,,,,,,,,,,,,,,,,,,,38479.0,0.0,0.464832,0.303894,0.2099,0.804688,0.880967,-0.490294,0.065926,35.833332,-20.666666,-25.0,,,,,,,,,,,,,,,,,,,,,,,,,,,,,,,,,,,,,,,,,,,,,,,,,,,,,,,,,,,,,,,,,,,,,,,,,,,,,,,,,,,,,,,,,,,,,,,,,,,,,,,,,,,,,,,,,,,,,,,,,,,,,,,,,,,,,,,,,,,,,,,,,,,,,,,,,,,,,,,,
1763975502.761286,22846.0,0.0,4380.897461,4395.128418,4499.615234,4515.256348,4399.615234,4527.820313,4533.717773,4387.307617,4560.512695,4371.666504,4464.743652,4497.820313,4553.846191,4382.307617,4378.846191,4476.666504,4524.487305,4503.846191,4501.922852,4369.230957,4388.333496,4553.589844,4502.179688,4482.05127,4390.641113,4565.128418,4388.333496,4541.282227,4496.538574,4403.589844,4520.641113,4500.384766,3015.0,0.0,13.0,2304.0,43486.0,,,,0.0,4.0,4.0,4.0,4.0,4.0,4.0,4.0,4.0,4.0,4.0,4.0,4.0,4.0,4.0,4.0,4.0,4.0,4.0,4.0,4.0,4.0,4.0,4.0,4.0,4.0,4.0,4.0,4.0,4.0,4.0,4.0,4.0,100.0,,,,,,,,,,,,,,,,,,,,,,,,,,,,,,,,,,,,,,,,,,,,,,,,,,,,,,,,,,,,,,,,,,,,,,,,,,,,,,,,,,,,,,,,,,,,,,,,,,,,,,,,,,,,,,,,,,,,,,,,,,,,,,,,,,,,,,,,,,,,,,,,,,,,,,,,,,,,,,,,,,,,,,,,,,,,,,,,,,,,,,,,,,,,,,,,,,,,,,,,,,,,,,
1763975502.765192,22847.0,0.0,4391.538574,4399.615234,4503.461426,4519.102539,4406.153809,4537.692383,4541.153809,4390.512695,4568.846191,4378.717773,4471.666504,4507.436035,4562.179688,4388.717773,4381.410156,4490.128418,4532.307617,4515.769043,4516.410156,4380.384766,4399.358887,4567.692383,4512.94873,4492.820313,4402.820313,4578.461426,4400.512695,4552.179688,4505.769043,4415.128418,4533.461426,4509.615234,2934.0,0.0,13.0,2304.0,43486.0,,,,0.0,4.0,4.0,4.0,4.0,4.0,4.0,4.0,4.0,4.0,4.0,4.0,4.0,4.0,4.0,4.0,4.0,4.0,4.0,4.0,4.0,4.0,4.0,4.0,4.0,4.0,4.0,4.0,4.0,4.0,4.0,4.0,4.0,100.0,,,,,,,,,,,,,,,,,,,,,,,,,,,,,,,,,,,,,,,,,,,,,,,,,,,,,,,,,,,,,,,,,,,,,,,,,,,,,,,,,,,,,,,,,,,,,,,,,,,,,,,,,,,,,,,,,,,,,,,,,,,,,,,,,,,,,,,,,,,,,,,,,,,,,,,,,,,,,,,,,,,,,,,,,,,,,,,,,,,,,,,,,,,,,,,,,,,,,,,,,,,,,,
1763975502.769098,22848.0,0.0,4402.307617,4405.256348,4511.794922,4527.820313,4414.358887,4546.794922,4549.358887,4395.384766,4582.436035,4397.94873,4482.436035,4518.589844,4573.205078,4399.743652,4385.641113,4513.333496,4542.692383,4534.230957,4527.05127,4396.794922,4410.769043,4582.563965,4527.820313,4506.153809,4414.102539,4593.846191,4415.641113,4566.282227,4517.307617,4426.282227,4547.692383,4518.333496,2846.0,0.0,13.0,2560.0,43493.0,,,,0.0,4.0,4.0,4.0,4.0,4.0,4.0,4.0,4.0,4.0,4.0,4.0,4.0,4.0,4.0,4.0,4.0,4.0,4.0,4.0,4.0,4.0,4.0,4.0,4.0,4.0,4.0,4.0,4.0,4.0,4.0,4.0,4.0,100.0,,,,,,,,,,,,,,,,,,,,,,,,,,,,,,,,,,,,,,,,,,,,,,,,,,,,,,,,,,,,,,,,,,,,,,,,,,,,,,,,,,,,,,,,,,,,,,,,,,,,,,,,,,,,,,,,,,,,,,,,,,,,,,,,,,,,,,,,,,,,,,,,,,,,,,,,,,,,,,,,,,,,,,,,,,,,,,,,,,,,,,,,,,,,,,,,,,,,,,,,,,,,,,
1763975502.773004,22849.0,0.0,4409.102539,4410.897461,4520.384766,4536.922852,4420.641113,4550.256348,4554.230957,4399.871582,4593.077148,4417.05127,4491.153809,4526.538574,4582.94873,4408.589844,4387.307617,4534.487305,4551.666504,4550.256348,4531.922852,4409.743652,4418.589844,4593.589844,4540.512695,4516.666504,4420.512695,4604.743652,4427.05127,4577.94873,4526.794922,4433.333496,4557.307617,4523.589844,2868.0,0.0,13.0,2560.0,43493.0,,,,0.0,4.0,4.0,4.0,4.0,4.0,4.0,4.0,4.0,4.0,4.0,4.0,4.0,4.0,4.0,4.0,4.0,4.0,4.0,4.0,4.0,4.0,4.0,4.0,4.0,4.0,4.0,4.0,4.0,4.0,4.0,4.0,4.0,100.0,,,,,,,,,,,,,,,,,,,,,,,,,,,,,,,,,,,38480.0,0.0,0.464832,0.303894,0.2099,0.804688,0.880967,-0.490294,0.065926,37.5,-20.166666,-26.666666,,,,,,,,,,,,,,,,,,,,,,,,,,,,,,,,,,,,,,,,,,,,,,,,,,,,,,,,,,,,,,,,,,,,,,,,,,,,,,,,,,,,,,,,,,,,,,,,,,,,,,,,,,,,,,,,,,,,,,,,,,,,,,,,,,,,,,,,,,,,,,,,,,,,,,,,,,,,,,,,
1763975502.77691,22850.0,0.0,4414.615234,4419.102539,4528.974121,4545.897461,4426.282227,4550.512695,4557.94873,4406.410156,4597.820313,4426.666504,4497.05127,4532.563965,4592.05127,4414.230957,4390.384766,4547.436035,4560.0,4560.641113,4535.769043,4416.794922,4423.589844,4602.05127,4550.641113,4524.102539,4425.128418,4609.743652,4433.205078,4587.307617,4535.0,4437.692383,4561.794922,4527.94873,2280.0,0.0,13.0,2560.0,43501.0,,,,0.0,4.0,4.0,4.0,4.0,4.0,4.0,4.0,4.0,4.0,4.0,4.0,4.0,4.0,4.0,4.0,4.0,4.0,4.0,4.0,4.0,4.0,4.0,4.0,4.0,4.0,4.0,4.0,4.0,4.0,4.0,4.0,4.0,100.0,,,,,,,,,,,,,,,,,,,,,,,,,,,,,,,,,,,,,,,,,,,,,,,,,,,,,,,,,,,,,,,,,,,,,,,,,,,,,,,,,,,,,,,,,,,,,,,,,,,,,,,,,,,,,,,,,,,,,,,,,,,,,,,,,,,,,,,,,,,,,,,,,,,,,,,,,,,,,,,,,,,,,,,,,,,,,,,,,,,,,,,,,,,,,,,,,,,,,,,,,,,,,,
1763975502.780816,22851.0,0.0,4422.179688,4430.128418,4537.563965,4554.871582,4432.94873,4552.563965,4563.333496,4416.794922,4598.846191,4425.512695,4502.692383,4540.128418,4601.794922,4419.871582,4400.128418,4552.820313,4569.615234,4566.025879,4541.794922,4419.230957,4428.205078,4610.512695,4559.743652,4530.641113,4431.538574,4610.897461,4436.025879,4595.897461,4543.461426,4442.179688,4563.589844,4533.717773,2976.0,0.0,13.0,2560.0,43501.0,,,,0.0,4.0,4.0,4.0,4.0,4.0,4.0,4.0,4.0,4.0,4.0,4.0,4.0,4.0,4.0,4.0,4.0,4.0,4.0,4.0,4.0,4.0,4.0,4.0,4.0,4.0,4.0,4.0,4.0,4.0,4.0,4.0,4.0,100.0,,,,,,,,,,,,,,,,,,,,,,,,,,,,,,,,,,,,,,,,,,,,,,,,,,,,,,,,,,,,,,,,,,,,,,,,,,,,,,,,,,,,,,,,,,,,,,,,,,,,,,,,,,,,,,,,,,,,,,,,,,,,,,,,,,,,,,,,,,,,,,,,,,,,,,,,,,,,,,,,,,,,,,,,,,,,,,,,,,,,,,,,,,,,,,,,,,,,,,,,,,,,,,
1763975502.784722,22852.0,0.0,4429.871582,4437.94873,4542.307617,4560.384766,4438.077148,4556.538574,4568.077148,4425.641113,4597.692383,4419.487305,4507.05127,4547.307617,4608.717773,4425.769043,4414.230957,4551.666504,4578.077148,4565.0,4546.282227,4417.307617,4430.897461,4616.153809,4565.0,4534.102539,4436.922852,4607.820313,4434.743652,4600.769043,4548.717773,4444.358887,4562.05127,4537.94873,2887.0,0.0,13.0,2560.0,43509.0,,,,0.0,4.0,4.0,4.0,4.0,4.0,4.0,4.0,4.0,4.0,4.0,4.0,4.0,4.0,4.0,4.0,4.0,4.0,4.0,4.0,4.0,4.0,4.0,4.0,4.0,4.0,4.0,4.0,4.0,4.0,4.0,4.0,4.0,100.0,,,,,,,,,,,,,,,,,,,,,,,,,,,,,,,,,,,,,,,,,,,,,,,,,,,,,,,,,,,,,,,,,,,,,,,,,,,,,,,,,,,,,,,,,,,,,,,,,,,,,,,,,,,,,,,,,,,,,,,,,,,,,,,,,,,,,,,,,,,,,,,,,,,,,,,,,,,,,,,,,,,,,,,,,,,,,,,,,,,,,,,,,,,,,,,,,,,,,,,,,,,,,,
1763975502.788628,22853.0,0.0,4429.230957,4433.461426,4536.025879,4555.256348,4434.102539,4556.153809,4564.230957,4422.692383,4591.794922,4413.717773,4504.358887,4546.794922,4605.0,4426.153809,4420.897461,4542.307617,4577.307617,4553.974121,4539.487305,4407.692383,4426.025879,4610.769043,4559.743652,4528.461426,4432.692383,4596.922852,4425.0,4595.0,4543.589844,4437.563965,4552.820313,4532.179688,2398.0,0.0,13.0,2560.0,43509.0,,,,0.0,4.0,4.0,4.0,4.0,4.0,4.0,4.0,4.0,4.0,4.0,4.0,4.0,4.0,4.0,4.0,4.0,4.0,4.0,4.0,4.0,4.0,4.0,4.0,4.0,4.0,4.0,4.0,4.0,4.0,4.0,4.0,4.0,100.0,,,,,,,,,,,,,,,,,,,,,,,,,,,,,,,,,,,38481.0,0.0,0.464766,0.303833,0.2099,0.804749,0.89171,-0.484922,0.048834,37.0,-19.666666,-25.166666,,,,,,,,,,,,,,,,,,,,,,,,,,,,,,,,,,,,,,,,,,,,,,,,,,,,,,,,,,,,,,,,,,,,,,,,,,,,,,,,,,,,,,,,,,,,,,,,,,,,,,,,,,,,,,,,,,,,,,,,,,,,,,,,,,,,,,,,,,,,,,,,,,,,,,,,,,,,,,,,
1763975502.792534,22854.0,0.0,4413.974121,4412.692383,4515.128418,4535.384766,4416.538574,4544.615234,4545.769043,4401.794922,4577.436035,4407.94873,4489.358887,4532.820313,4586.538574,4415.256348,4409.230957,4523.589844,4562.05127,4532.05127,4517.179688,4388.077148,4409.743652,4589.871582,4540.0,4509.230957,4412.820313,4576.153809,4403.461426,4574.615234,4524.487305,4418.077148,4533.205078,4512.05127,2986.0,0.0,13.0,2560.0,43517.0,,,,0.0,4.0,4.0,4.0,4.0,4.0,4.0,4.0,4.0,4.0,4.0,4.0,4.0,4.0,4.0,4.0,4.0,4.0,4.0,4.0,4.0,4.0,4.0,4.0,4.0,4.0,4.0,4.0,4.0,4.0,4.0,4.0,4.0,100.0,,,,,,,,,,,,,,,,,,,,,,,,,,,,,,,,,,,,,,,,,,,,,,,,,,,,,,,,,,,,,,,,,,,,,,,,,,,,,,,,,,,,,,,,,,,,,,,,,,,,,,,,,,,,,,,,,,,,,,,,,,,,,,,,,,,,,,,,,,,,,,,,,,,,,,,,,,,,,,,,,,,,,,,,,,,,,,,,,,,,,,,,,,,,,,,,,,,,,,,,,,,,,,
1763975502.79644,22855.0,0.0,4388.333496,4383.461426,4486.025879,4507.436035,4391.282227,4524.358887,4518.077148,4370.256348,4557.179688,4397.94873,4466.025879,4510.512695,4560.512695,4395.256348,4381.794922,4501.794922,4537.05127,4507.05127,4487.94873,4363.717773,4386.410156,4560.384766,4513.205078,4482.05127,4382.94873,4551.538574,4375.897461,4546.410156,4497.692383,4392.179688,4508.077148,4483.974121,2977.0,0.0,13.0,2560.0,43517.0,,,,0.0,4.0,4.0,4.0,4.0,4.0,4.0,4.0,4.0,4.0,4.0,4.0,4.0,4.0,4.0,4.0,4.0,4.0,4.0,4.0,4.0,4.0,4.0,4.0,4.0,4.0,4.0,4.0,4.0,4.0,4.0,4.0,4.0,100.0,,,,,,,,,,,,,,,,,,,,,,,,,,,,,,,,,,,,,,,,,,,,,,,,,,,,,,,,,,,,,,,,,,,,,,,,,,,,,,,,,,,,,,,,,,,,,,,,,,,,,,,,,,,,,,,,,,,,,,,,,,,,,,,,,,,,,,,,,,,,,,,,,,,,,,,,,,,,,,,,,,,,,,,,,,,,,,,,,,,,,,,,,,,,,,,,,,,,,,,,,,,,,,
1763975502.800346,22856.0,0.0,4367.563965,4362.563965,4464.358887,4486.538574,4372.820313,4507.94873,4497.05127,4347.05127,4541.410156,4383.846191,4447.563965,4493.717773,4542.692383,4378.589844,4355.641113,4490.769043,4517.820313,4493.846191,4470.384766,4347.563965,4368.077148,4539.102539,4495.128418,4461.410156,4359.230957,4535.384766,4356.410156,4526.538574,4478.461426,4374.615234,4490.128418,4463.846191,2662.0,0.0,13.0,1536.0,43525.0,,,,0.0,4.0,4.0,4.0,4.0,4.0,4.0,4.0,4.0,4.0,4.0,4.0,4.0,4.0,4.0,4.0,4.0,4.0,4.0,4.0,4.0,4.0,4.0,4.0,4.0,4.0,4.0,4.0,4.0,4.0,4.0,4.0,4.0,100.0,1.0,25.0,1.0,1.0,1.0,1.0,1.0,1.0,1.0,1.0,1.0,1.0,1.0,1.0,1.0,1.0,1.0,1.0,1.0,1.0,1.0,1.0,1.0,1.0,1.0,1.0,1.0,1.0,1.0,1.0,1.0,1.0,1.0,1.0,,,,,,,,,,,,,1.875602,2.962664,3.510278,4.607524,5.987442,2.305386,1.672127,3.110969,4.712614,6.020763,1.566931,1.276999,3.148446,5.525584,6.615156,1.359168,1.307523,3.227918,5.560946,6.699923,1.040419,0.814259,2.539194,3.505064,4.251983,0.721122,1.62307,2.27463,3.741621,3.842301,1.204234,2.539523,2.416482,4.779387,6.176268,0.807154,1.538484,3.084749,5.159943,6.326708,0.596179,1.226953,2.296634,5.404381,6.305505,0.673772,1.132212,2.622927,10.570994,8.172318,0.53931,2.785642,1.37172,4.703016,5.675174,1.202672,6.358455,2.647001,4.394225,5.399737,0.465982,11.393952,2.800347,5.360537,6.108393,0.175372,1.567014,1.490797,3.941448,5.395417,0.878813,1.611291,1.943795,5.27553,6.24039,1.881733,6.11251,4.012331,5.715184,7.974849,1.578004,13.89432,2.715424,4.241809,5.227077,0.342762,3.44322,2.409129,5.005134,6.754219,0.915619,2.88375,2.501727,4.513544,6.668743,1.197811,3.492561,2.969452,5.539984,7.447222,0.780348,3.057425,2.578007,4.400831,5.931529,1.476305,4.806098,2.542942,4.528979,6.845756,1.706298,6.189664,2.956463,5.141451,6.607651,0.90612,1.63851,2.560502,4.715882,6.171212,1.119828,2.03787,2.868832,5.423761,7.195553,0.912965,1.920034,2.279434,5.00333,7.690195,1.784786,1.681286,2.663941,5.492541,6.984241,1.513415,2.095966,2.285208,4.756159,6.570719,1.965252,1.621968,2.550522,4.477767,5.563759,1.935318,1.957929,2.458426,5.617319,6.456624,1.705964,1.57967,2.865381,5.554305,7.238561,1.711518,1.422458,3.108781,5.653741,7.295482
1763975502.804252,22857.0,0.0,4366.922852,4364.230957,4463.846191,4486.666504,4373.717773,4508.205078,4497.820313,4348.461426,4541.538574,4372.820313,4447.820313,4494.871582,4546.282227,4378.589844,4349.743652,4501.025879,4518.205078,4503.077148,4477.436035,4351.538574,4366.282227,4540.256348,4498.717773,4461.410156,4356.922852,4538.461426,4357.820313,4528.461426,4479.871582,4377.692383,4490.897461,4465.0,2845.0,0.0,13.0,1536.0,43525.0,,,,0.0,4.0,4.0,4.0,4.0,4.0,4.0,4.0,4.0,4.0,4.0,4.0,4.0,4.0,4.0,4.0,4.0,4.0,4.0,4.0,4.0,4.0,4.0,4.0,4.0,4.0,4.0,4.0,4.0,4.0,4.0,4.0,4.0,100.0,,,,,,,,,,,,,,,,,,,,,,,,,,,,,,,,,,,38482.0,0.0,0.464832,0.303894,0.2099,0.804688,0.89171,-0.484922,0.048834,36.166668,-20.5,-24.333334,,,,,,,,,,,,,,,,,,,,,,,,,,,,,,,,,,,,,,,,,,,,,,,,,,,,,,,,,,,,,,,,,,,,,,,,,,,,,,,,,,,,,,,,,,,,,,,,,,,,,,,,,,,,,,,,,,,,,,,,,,,,,,,,,,,,,,,,,,,,,,,,,,,,,,,,,,,,,,,,
1763975502.808158,22858.0,0.0,4388.205078,4388.846191,4486.410156,4508.974121,4395.0,4527.436035,4521.538574,4375.512695,4559.871582,4374.871582,4468.333496,4514.743652,4570.641113,4397.05127,4369.871582,4528.974121,4539.615234,4531.153809,4505.512695,4376.538574,4382.692383,4563.077148,4522.436035,4483.333496,4378.589844,4560.897461,4380.769043,4551.794922,4502.179688,4400.512695,4511.410156,4487.307617,2671.0,0.0,13.0,1792.0,43532.0,,,,0.0,4.0,4.0,4.0,4.0,4.0,4.0,4.0,4.0,4.0,4.0,4.0,4.0,4.0,4.0,4.0,4.0,4.0,4.0,4.0,4.0,4.0,4.0,4.0,4.0,4.0,4.0,4.0,4.0,4.0,4.0,4.0,4.0,100.0,,,,,,,,,,,,,,,,,,,,,,,,,,,,,,,,,,,,,,,,,,,,,,,,,,,,,,,,,,,,,,,,,,,,,,,,,,,,,,,,,,,,,,,,,,,,,,,,,,,,,,,,,,,,,,,,,,,,,,,,,,,,,,,,,,,,,,,,,,,,,,,,,,,,,,,,,,,,,,,,,,,,,,,,,,,,,,,,,,,,,,,,,,,,,,,,,,,,,,,,,,,,,,
1763975502.812064,22859.0,0.0,4418.846191,4422.05127,4519.743652,4541.538574,4424.615234,4554.743652,4554.102539,4412.436035,4587.436035,4393.717773,4497.692383,4541.025879,4601.153809,4422.307617,4403.974121,4556.794922,4568.333496,4561.666504,4537.436035,4409.743652,4407.820313,4592.692383,4551.666504,4514.615234,4411.922852,4591.282227,4412.820313,4582.436035,4531.922852,4429.871582,4540.384766,4517.563965,3003.0,0.0,13.0,1792.0,43532.0,,,,0.0,4.0,4.0,4.0,4.0,4.0,4.0,4.0,4.0,4.0,4.0,4.0,4.0,4.0,4.0,4.0,4.0,4.0,4.0,4.0,4.0,4.0,4.0,4.0,4.0,4.0,4.0,4.0,4.0,4.0,4.0,4.0,4.0,100.0,,,,,,,,,,,,,,,,,,,,,,,,,,,,,,,,,,,,,,,,,,,,,,,,,,,,,,,,,,,,,,,,,,,,,,,,,,,,,,,,,,,,,,,,,,,,,,,,,,,,,,,,,,,,,,,,,,,,,,,,,,,,,,,,,,,,,,,,,,,,,,,,,,,,,,,,,,,,,,,,,,,,,,,,,,,,,,,,,,,,,,,,,,,,,,,,,,,,,,,,,,,,,,
1763975502.81597,22860.0,0.0,4440.769043,4445.512695,4547.05127,4567.563965,4446.922852,4574.487305,4577.179688,4438.589844,4610.897461,4422.692383,4519.487305,4558.846191,4620.0,4438.461426,4432.436035,4566.025879,4587.05127,4577.692383,4557.436035,4433.974121,4428.205078,4612.05127,4569.871582,4537.820313,4438.717773,4614.487305,4436.922852,4604.230957,4552.563965,4449.615234,4562.94873,4539.358887,2947.0,0.0,13.0,2048.0,43540.0,,,,0.0,4.0,4.0,4.0,4.0,4.0,4.0,4.0,4.0,4.0,4.0,4.0,4.0,4.0,4.0,4.0,4.0,4.0,4.0,4.0,4.0,4.0,4.0,4.0,4.0,4.0,4.0,4.0,4.0,4.0,4.0,4.0,4.0,100.0,,,,,,,,,,,,,,,,,,,,,,,,,,,,,,,,,,,,,,,,,,,,,,,,,,,,,,,,,,,,,,,,,,,,,,,,,,,,,,,,,,,,,,,,,,,,,,,,,,,,,,,,,,,,,,,,,,,,,,,,,,,,,,,,,,,,,,,,,,,,,,,,,,,,,,,,,,,,,,,,,,,,,,,,,,,,,,,,,,,,,,,,,,,,,,,,,,,,,,,,,,,,,,
1763975502.819876,22861.0,0.0,4444.230957,4449.487305,4557.307617,4576.282227,4453.077148,4577.563965,4580.897461,4442.94873,4621.282227,4446.666504,4524.358887,4560.641113,4619.615234,4437.563965,4441.538574,4551.794922,4587.179688,4574.358887,4561.922852,4438.717773,4435.769043,4613.846191,4570.256348,4542.820313,4446.922852,4621.794922,4443.717773,4609.102539,4555.512695,4452.05127,4570.128418,4544.487305,2723.0,0.0,13.0,2048.0,43540.0,,,,0.0,4.0,4.0,4.0,4.0,4.0,4.0,4.0,4.0,4.0,4.0,4.0,4.0,4.0,4.0,4.0,4.0,4.0,4.0,4.0,4.0,4.0,4.0,4.0,4.0,4.0,4.0,4.0,4.0,4.0,4.0,4.0,4.0,100.0,,,,,,,,,,,,,,,,,,,,,,,,,,,,,,,,,,,38483.0,0.0,0.464802,0.304016,0.210022,0.804626,0.874618,-0.483457,0.050299,38.0,-19.0,-25.333334,,,,,,,,,,,,,,,,,,,,,,,,,,,,,,,,,,,,,,,,,,,,,,,,,,,,,,,,,,,,,,,,,,,,,,,,,,,,,,,,,,,,,,,,,,,,,,,,,,,,,,,,,,,,,,,,,,,,,,,,,,,,,,,,,,,,,,,,,,,,,,,,,,,,,,,,,,,,,,,,
1763975502.823782,22862.0,0.0,4431.666504,4436.538574,4550.384766,4568.461426,4444.102539,4565.0,4568.589844,4429.102539,4616.922852,4451.794922,4513.974121,4549.358887,4604.615234,4422.94873,4430.512695,4526.282227,4573.461426,4560.256348,4557.05127,4426.025879,4430.769043,4602.820313,4557.692383,4532.307617,4436.922852,4614.358887,4435.0,4600.512695,4544.102539,4441.282227,4563.589844,4536.538574,2726.0,0.0,13.0,2304.0,43548.0,,,,0.0,4.0,4.0,4.0,4.0,4.0,4.0,4.0,4.0,4.0,4.0,4.0,4.0,4.0,4.0,4.0,4.0,4.0,4.0,4.0,4.0,4.0,4.0,4.0,4.0,4.0,4.0,4.0,4.0,4.0,4.0,4.0,4.0,100.0,,,,,,,,,,,,,,,,,,,,,,,,,,,,,,,,,,,,,,,,,,,,,,,,,,,,,,,,,,,,,,,,,,,,,,,,,,,,,,,,,,,,,,,,,,,,,,,,,,,,,,,,,,,,,,,,,,,,,,,,,,,,,,,,,,,,,,,,,,,,,,,,,,,,,,,,,,,,,,,,,,,,,,,,,,,,,,,,,,,,,,,,,,,,,,,,,,,,,,,,,,,,,,
1763975502.827688,22863.0,0.0,4413.333496,4416.794922,4534.102539,4551.538574,4428.333496,4546.410156,4551.153809,4409.230957,4603.205078,4435.897461,4497.05127,4533.974121,4586.410156,4405.512695,4408.717773,4507.563965,4556.922852,4548.717773,4549.487305,4406.794922,4419.102539,4588.717773,4542.436035,4516.410156,4418.717773,4600.0,4420.256348,4587.179688,4528.205078,4427.563965,4551.410156,4524.615234,2844.0,0.0,13.0,2304.0,43548.0,,,,0.0,4.0,4.0,4.0,4.0,4.0,4.0,4.0,4.0,4.0,4.0,4.0,4.0,4.0,4.0,4.0,4.0,4.0,4.0,4.0,4.0,4.0,4.0,4.0,4.0,4.0,4.0,4.0,4.0,4.0,4.0,4.0,4.0,100.0,,,,,,,,,,,,,,,,,,,,,,,,,,,,,,,,,,,,,,,,,,,,,,,,,,,,,,,,,,,,,,,,,,,,,,,,,,,,,,,,,,,,,,,,,,,,,,,,,,,,,,,,,,,,,,,,,,,,,,,,,,,,,,,,,,,,,,,,,,,,,,,,,,,,,,,,,,,,,,,,,,,,,,,,,,,,,,,,,,,,,,,,,,,,,,,,,,,,,,,,,,,,,,
1763975502.831594,22864.0,0.0,4399.230957,4401.282227,4518.333496,4535.128418,4414.487305,4532.179688,4539.102539,4394.743652,4588.077148,4411.410156,4483.205078,4522.692383,4574.230957,4395.0,4388.846191,4507.179688,4546.922852,4546.794922,4541.410156,4391.922852,4407.436035,4579.102539,4532.563965,4505.128418,4403.589844,4587.307617,4408.846191,4576.410156,4517.05127,4419.358887,4541.666504,4516.666504,2943.0,0.0,13.0,2560.0,43556.0,,,,0.0,4.0,4.0,4.0,4.0,4.0,4.0,4.0,4.0,4.0,4.0,4.0,4.0,4.0,4.0,4.0,4.0,4.0,4.0,4.0,4.0,4.0,4.0,4.0,4.0,4.0,4.0,4.0,4.0,4.0,4.0,4.0,4.0,100.0,,,,,,,,,,,,,,,,,,,,,,,,,,,,,,,,,,,,,,,,,,,,,,,,,,,,,,,,,,,,,,,,,,,,,,,,,,,,,,,,,,,,,,,,,,,,,,,,,,,,,,,,,,,,,,,,,,,,,,,,,,,,,,,,,,,,,,,,,,,,,,,,,,,,,,,,,,,,,,,,,,,,,,,,,,,,,,,,,,,,,,,,,,,,,,,,,,,,,,,,,,,,,,
1763975502.8355,22865.0,0.0,4394.230957,4396.025879,4510.256348,4526.410156,4408.077148,4527.820313,4536.538574,4390.641113,4578.461426,4396.282227,4477.820313,4519.230957,4570.641113,4394.743652,4379.871582,4522.436035,4545.128418,4550.897461,4531.282227,4386.794922,4400.0,4575.512695,4530.641113,4502.05127,4397.692383,4581.922852,4404.871582,4571.666504,4514.615234,4419.102539,4538.077148,4515.641113,3040.0,0.0,13.0,2560.0,43556.0,,,,0.0,4.0,4.0,4.0,4.0,4.0,4.0,4.0,4.0,4.0,4.0,4.0,4.0,4.0,4.0,4.0,4.0,4.0,4.0,4.0,4.0,4.0,4.0,4.0,4.0,4.0,4.0,4.0,4.0,4.0,4.0,4.0,4.0,100.0,,,,,,,,,,,,,,,,,,,,,,,,,,,,,,,,,,,38484.0,0.0,0.464882,0.303894,0.210022,0.804626,0.880479,-0.473202,0.054694,38.0,-19.0,-25.333334,,,,,,,,,,,,,,,,,,,,,,,,,,,,,,,,,,,,,,,,,,,,,,,,,,,,,,,,,,,,,,,,,,,,,,,,,,,,,,,,,,,,,,,,,,,,,,,,,,,,,,,,,,,,,,,,,,,,,,,,,,,,,,,,,,,,,,,,,,,,,,,,,,,,,,,,,,,,,,,,
1763975502.839406,22866.0,0.0,4397.692383,4401.538574,4511.666504,4527.94873,4409.743652,4532.820313,4542.307617,4394.871582,4577.179688,4399.487305,4480.641113,4522.05127,4572.436035,4400.897461,4383.461426,4537.94873,4547.692383,4551.410156,4519.102539,4390.0,4397.307617,4575.641113,4534.487305,4505.128418,4401.282227,4583.589844,4407.05127,4572.179688,4519.230957,4423.333496,4539.743652,4519.487305,2817.0,0.0,13.0,2560.0,43564.0,,,,0.0,4.0,4.0,4.0,4.0,4.0,4.0,4.0,4.0,4.0,4.0,4.0,4.0,4.0,4.0,4.0,4.0,4.0,4.0,4.0,4.0,4.0,4.0,4.0,4.0,4.0,4.0,4.0,4.0,4.0,4.0,4.0,4.0,100.0,,,,,,,,,,,,,,,,,,,,,,,,,,,,,,,,,,,,,,,,,,,,,,,,,,,,,,,,,,,,,,,,,,,,,,,,,,,,,,,,,,,,,,,,,,,,,,,,,,,,,,,,,,,,,,,,,,,,,,,,,,,,,,,,,,,,,,,,,,,,,,,,,,,,,,,,,,,,,,,,,,,,,,,,,,,,,,,,,,,,,,,,,,,,,,,,,,,,,,,,,,,,,,
1763975502.843312,22867.0,0.0,4405.0,4413.333496,4519.230957,4536.922852,4416.538574,4541.794922,4551.538574,4402.563965,4582.692383,4415.128418,4487.307617,4527.179688,4574.487305,4406.153809,4393.461426,4536.794922,4549.102539,4540.897461,4507.94873,4395.897461,4397.436035,4576.025879,4539.102539,4509.102539,4409.487305,4588.333496,4410.641113,4575.512695,4526.025879,4427.692383,4542.436035,4523.974121,3019.0,0.0,13.0,2560.0,43564.0,,,,0.0,4.0,4.0,4.0,4.0,4.0,4.0,4.0,4.0,4.0,4.0,4.0,4.0,4.0,4.0,4.0,4.0,4.0,4.0,4.0,4.0,4.0,4.0,4.0,4.0,4.0,4.0,4.0,4.0,4.0,4.0,4.0,4.0,100.0,,,,,,,,,,,,,,,,,,,,,,,,,,,,,,,,,,,,,,,,,,,,,,,,,,,,,,,,,,,,,,,,,,,,,,,,,,,,,,,,,,,,,,,,,,,,,,,,,,,,,,,,,,,,,,,,,,,,,,,,,,,,,,,,,,,,,,,,,,,,,,,,,,,,,,,,,,,,,,,,,,,,,,,,,,,,,,,,,,,,,,,,,,,,,,,,,,,,,,,,,,,,,,
1763975502.847218,22868.0,0.0,4411.025879,4424.358887,4527.05127,4546.666504,4423.974121,4548.974121,4559.102539,4409.102539,4590.0,4428.589844,4492.563965,4530.769043,4573.589844,4406.153809,4400.769043,4514.615234,4547.05127,4522.307617,4501.538574,4398.974121,4398.974121,4575.769043,4540.769043,4510.0,4416.282227,4591.153809,4412.05127,4578.974121,4530.897461,4429.230957,4542.94873,4525.897461,3010.0,0.0,13.0,2561.0,43571.0,,,,0.0,4.0,4.0,4.0,4.0,4.0,4.0,4.0,4.0,4.0,4.0,4.0,4.0,4.0,4.0,4.0,4.0,4.0,4.0,4.0,4.0,4.0,4.0,4.0,4.0,4.0,4.0,4.0,4.0,4.0,4.0,4.0,4.0,100.0,,,,,,,,,,,,,,,,,,,,,,,,,,,,,,,,,,,,,,,,,,,,,,,,,,,,,,,,,,,,,,,,,,,,,,,,,,,,,,,,,,,,,,,,,,,,,,,,,,,,,,,,,,,,,,,,,,,,,,,,,,,,,,,,,,,,,,,,,,,,,,,,,,,,,,,,,,,,,,,,,,,,,,,,,,,,,,,,,,,,,,,,,,,,,,,,,,,,,,,,,,,,,,
1763975502.851124,22869.0,0.0,4413.846191,4430.128418,4531.666504,4552.179688,4429.230957,4552.179688,4563.205078,4413.077148,4595.897461,4431.410156,4495.0,4532.307617,4572.307617,4403.205078,4400.641113,4486.538574,4544.615234,4508.461426,4503.461426,4398.333496,4402.563965,4576.794922,4540.384766,4508.589844,4419.102539,4590.897461,4411.666504,4581.794922,4533.461426,4428.589844,4541.282227,4525.769043,2926.0,0.0,13.0,2561.0,43571.0,,,,0.0,4.0,4.0,4.0,4.0,4.0,4.0,4.0,4.0,4.0,4.0,4.0,4.0,4.0,4.0,4.0,4.0,4.0,4.0,4.0,4.0,4.0,4.0,4.0,4.0,4.0,4.0,4.0,4.0,4.0,4.0,4.0,4.0,100.0,,,,,,,,,,,,,,,,,,,,,,,,,,,,,,,,,,,38485.0,0.0,0.46495,0.303833,0.209961,0.804626,0.887315,-0.478086,0.049811,36.666668,-21.0,-25.0,,,,,,,,,,,,,,,,,,,,,,,,,,,,,,,,,,,,,,,,,,,,,,,,,,,,,,,,,,,,,,,,,,,,,,,,,,,,,,,,,,,,,,,,,,,,,,,,,,,,,,,,,,,,,,,,,,,,,,,,,,,,,,,,,,,,,,,,,,,,,,,,,,,,,,,,,,,,,,,,
1763975502.85503,22870.0,0.0,4415.769043,4431.538574,4534.230957,4553.461426,4432.563965,4553.846191,4565.769043,4415.769043,4600.512695,4426.794922,4498.333496,4534.487305,4576.153809,4403.846191,4396.410156,4477.05127,4547.436035,4513.077148,4514.615234,4398.077148,4410.0,4583.589844,4542.820313,4509.615234,4420.512695,4591.025879,4414.230957,4586.282227,4536.794922,4430.128418,4541.922852,4527.563965,2997.0,0.0,13.0,2562.0,43579.0,,,,0.0,4.0,4.0,4.0,4.0,4.0,4.0,4.0,4.0,4.0,4.0,4.0,4.0,4.0,4.0,4.0,4.0,4.0,4.0,4.0,4.0,4.0,4.0,4.0,4.0,4.0,4.0,4.0,4.0,4.0,4.0,4.0,4.0,100.0,,,,,,,,,,,,,,,,,,,,,,,,,,,,,,,,,,,,,,,,,,,,,,,,,,,,,,,,,,,,,,,,,,,,,,,,,,,,,,,,,,,,,,,,,,,,,,,,,,,,,,,,,,,,,,,,,,,,,,,,,,,,,,,,,,,,,,,,,,,,,,,,,,,,,,,,,,,,,,,,,,,,,,,,,,,,,,,,,,,,,,,,,,,,,,,,,,,,,,,,,,,,,,
1763975502.858936,22871.0,0.0,4419.743652,4431.794922,4538.333496,4554.230957,4435.769043,4556.922852,4569.871582,4419.871582,4605.128418,4423.974121,4505.897461,4540.0,4588.205078,4411.922852,4395.641113,4499.102539,4558.077148,4537.05127,4531.666504,4403.205078,4420.897461,4596.538574,4550.769043,4517.05127,4424.358887,4595.256348,4422.563965,4593.461426,4542.179688,4436.538574,4548.333496,4533.974121,2943.0,0.0,13.0,2562.0,43579.0,,,,0.0,4.0,4.0,4.0,4.0,4.0,4.0,4.0,4.0,4.0,4.0,4.0,4.0,4.0,4.0,4.0,4.0,4.0,4.0,4.0,4.0,4.0,4.0,4.0,4.0,4.0,4.0,4.0,4.0,4.0,4.0,4.0,4.0,100.0,,,,,,,,,,,,,,,,,,,,,,,,,,,,,,,,,,,,,,,,,,,,,,,,,,,,,,,,,,,,,,,,,,,,,,,,,,,,,,,,,,,,,,,,,,,,,,,,,,,,,,,,,,,,,,,,,,,,,,,,,,,,,,,,,,,,,,,,,,,,,,,,,,,,,,,,,,,,,,,,,,,,,,,,,,,,,,,,,,,,,,,,,,,,,,,,,,,,,,,,,,,,,,
1763975502.862842,22872.0,0.0,4424.615234,4431.666504,4543.205078,4556.025879,4437.94873,4560.512695,4574.615234,4423.846191,4607.820313,4426.282227,4515.256348,4546.794922,4603.077148,4423.333496,4402.307617,4539.230957,4571.922852,4565.769043,4545.384766,4412.94873,4430.128418,4610.0,4560.384766,4527.436035,4430.512695,4602.436035,4432.563965,4600.512695,4546.666504,4444.230957,4557.820313,4541.794922,2887.0,0.0,13.0,2563.0,43587.0,,,,0.0,4.0,4.0,4.0,4.0,4.0,4.0,4.0,4.0,4.0,4.0,4.0,4.0,4.0,4.0,4.0,4.0,4.0,4.0,4.0,4.0,4.0,4.0,4.0,4.0,4.0,4.0,4.0,4.0,4.0,4.0,4.0,4.0,100.0,,,,,,,,,,,,,,,,,,,,,,,,,,,,,,,,,,,,,,,,,,,,,,,,,,,,,,,,,,,,,,,,,,,,,,,,,,,,,,,,,,,,,,,,,,,,,,,,,,,,,,,,,,,,,,,,,,,,,,,,,,,,,,,,,,,,,,,,,,,,,,,,,,,,,,,,,,,,,,,,,,,,,,,,,,,,,,,,,,,,,,,,,,,,,,,,,,,,,,,,,,,,,,
1763975502.866748,22873.0,0.0,4425.512695,4428.461426,4543.974121,4555.897461,4436.025879,4560.512695,4575.0,4423.077148,4604.358887,4428.333496,4519.615234,4549.358887,4610.256348,4429.358887,4412.307617,4567.436035,4579.102539,4578.461426,4546.282227,4420.128418,4430.256348,4614.743652,4563.589844,4532.179688,4433.333496,4606.025879,4435.769043,4600.897461,4544.615234,4446.025879,4562.05127,4543.846191,2856.0,0.0,13.0,2563.0,43587.0,,,,0.0,4.0,4.0,4.0,4.0,4.0,4.0,4.0,4.0,4.0,4.0,4.0,4.0,4.0,4.0,4.0,4.0,4.0,4.0,4.0,4.0,4.0,4.0,4.0,4.0,4.0,4.0,4.0,4.0,4.0,4.0,4.0,4.0,100.0,,,,,,,,,,,,,,,,,,,,,,,,,,,,,,,,,,,38486.0,0.0,0.464882,0.303894,0.210022,0.804626,0.872665,-0.481504,0.056159,37.0,-20.5,-25.5,,,,,,,,,,,,,,,,,,,,,,,,,,,,,,,,,,,,,,,,,,,,,,,,,,,,,,,,,,,,,,,,,,,,,,,,,,,,,,,,,,,,,,,,,,,,,,,,,,,,,,,,,,,,,,,,,,,,,,,,,,,,,,,,,,,,,,,,,,,,,,,,,,,,,,,,,,,,,,,,
1763975502.870654,22874.0,0.0,4418.717773,4419.358887,4535.384766,4550.641113,4427.563965,4553.077148,4567.307617,4414.102539,4592.05127,4423.846191,4514.358887,4543.333496,4603.205078,4425.641113,4417.05127,4563.461426,4574.102539,4565.769043,4532.692383,4417.436035,4418.077148,4606.538574,4555.769043,4525.256348,4427.692383,4600.641113,4426.282227,4591.153809,4533.974121,4436.922852,4554.615234,4535.0,2795.0,0.0,13.0,2564.0,43595.0,,,,0.0,4.0,4.0,4.0,4.0,4.0,4.0,4.0,4.0,4.0,4.0,4.0,4.0,4.0,4.0,4.0,4.0,4.0,4.0,4.0,4.0,4.0,4.0,4.0,4.0,4.0,4.0,4.0,4.0,4.0,4.0,4.0,4.0,100.0,,,,,,,,,,,,,,,,,,,,,,,,,,,,,,,,,,,,,,,,,,,,,,,,,,,,,,,,,,,,,,,,,,,,,,,,,,,,,,,,,,,,,,,,,,,,,,,,,,,,,,,,,,,,,,,,,,,,,,,,,,,,,,,,,,,,,,,,,,,,,,,,,,,,,,,,,,,,,,,,,,,,,,,,,,,,,,,,,,,,,,,,,,,,,,,,,,,,,,,,,,,,,,
1763975502.87456,22875.0,0.0,4406.025879,4405.128418,4518.846191,4540.0,4414.487305,4539.871582,4553.717773,4399.230957,4575.256348,4412.820313,4501.153809,4530.769043,4585.769043,4415.384766,4411.538574,4532.820313,4560.256348,4536.922852,4512.307617,4404.102539,4398.461426,4589.743652,4540.512695,4509.102539,4414.102539,4586.282227,4406.922852,4573.974121,4518.205078,4419.230957,4537.05127,4517.307617,3019.0,0.0,13.0,2564.0,43595.0,,,,0.0,4.0,4.0,4.0,4.0,4.0,4.0,4.0,4.0,4.0,4.0,4.0,4.0,4.0,4.0,4.0,4.0,4.0,4.0,4.0,4.0,4.0,4.0,4.0,4.0,4.0,4.0,4.0,4.0,4.0,4.0,4.0,4.0,100.0,,,,,,,,,,,,,,,,,,,,,,,,,,,,,,,,,,,,,,,,,,,,,,,,,,,,,,,,,,,,,,,,,,,,,,,,,,,,,,,,,,,,,,,,,,,,,,,,,,,,,,,,,,,,,,,,,,,,,,,,,,,,,,,,,,,,,,,,,,,,,,,,,,,,,,,,,,,,,,,,,,,,,,,,,,,,,,,,,,,,,,,,,,,,,,,,,,,,,,,,,,,,,,
1763975502.878466,22876.0,0.0,4393.077148,4389.871582,4500.641113,4527.563965,4401.025879,4525.641113,4540.256348,4385.128418,4561.410156,4401.282227,4487.05127,4517.94873,4568.974121,4405.897461,4397.563965,4499.743652,4546.025879,4511.410156,4495.0,4387.307617,4381.922852,4572.94873,4525.769043,4492.563965,4397.692383,4569.230957,4386.538574,4557.179688,4504.102539,4400.384766,4517.179688,4498.205078,2970.0,0.0,13.0,2565.0,43603.0,,,,0.0,4.0,4.0,4.0,4.0,4.0,4.0,4.0,4.0,4.0,4.0,4.0,4.0,4.0,4.0,4.0,4.0,4.0,4.0,4.0,4.0,4.0,4.0,4.0,4.0,4.0,4.0,4.0,4.0,4.0,4.0,4.0,4.0,100.0,,,,,,,,,,,,,,,,,,,,,,,,,,,,,,,,,,,,,,,,,,,,,,,,,,,,,,,,,,,,,,,,,,,,,,,,,,,,,,,,,,,,,,,,,,,,,,,,,,,,,,,,,,,,,,,,,,,,,,,,,,,,,,,,,,,,,,,,,,,,,,,,,,,,,,,,,,,,,,,,,,,,,,,,,,,,,,,,,,,,,,,,,,,,,,,,,,,,,,,,,,,,,,
1763975502.882372,22877.0,0.0,4385.128418,4378.846191,4488.333496,4518.205078,4392.05127,4516.282227,4532.820313,4377.820313,4556.666504,4394.743652,4478.846191,4510.512695,4562.563965,4401.538574,4382.692383,4486.794922,4538.846191,4503.717773,4487.436035,4376.794922,4376.153809,4563.589844,4518.461426,4483.589844,4385.512695,4557.05127,4373.974121,4547.563965,4496.922852,4388.461426,4504.102539,4485.384766,2834.0,0.0,13.0,2565.0,43603.0,,,,0.0,4.0,4.0,4.0,4.0,4.0,4.0,4.0,4.0,4.0,4.0,4.0,4.0,4.0,4.0,4.0,4.0,4.0,4.0,4.0,4.0,4.0,4.0,4.0,4.0,4.0,4.0,4.0,4.0,4.0,4.0,4.0,4.0,100.0,,,,,,,,,,,,,,,,,,,,,,,,,,,,,,,,,,,38487.0,0.0,0.464922,0.303833,0.210022,0.804626,0.89171,-0.486876,0.054206,37.666668,-20.0,-26.833334,,,,,,,,,,,,,,,,,,,,,,,,,,,,,,,,,,,,,,,,,,,,,,,,,,,,,,,,,,,,,,,,,,,,,,,,,,,,,,,,,,,,,,,,,,,,,,,,,,,,,,,,,,,,,,,,,,,,,,,,,,,,,,,,,,,,,,,,,,,,,,,,,,,,,,,,,,,,,,,,
1763975502.886278,22878.0,0.0,4384.230957,4375.769043,4486.282227,4515.641113,4389.743652,4514.743652,4533.974121,4379.487305,4562.307617,4393.846191,4479.358887,4511.282227,4568.717773,4402.563965,4375.769043,4499.230957,4541.153809,4515.384766,4491.794922,4377.94873,4382.307617,4564.230957,4520.897461,4485.128418,4382.179688,4555.0,4373.333496,4547.94873,4497.94873,4387.820313,4502.692383,4482.94873,3023.0,0.0,13.0,2560.0,43611.0,,,,0.0,4.0,4.0,4.0,4.0,4.0,4.0,4.0,4.0,4.0,4.0,4.0,4.0,4.0,4.0,4.0,4.0,4.0,4.0,4.0,4.0,4.0,4.0,4.0,4.0,4.0,4.0,4.0,4.0,4.0,4.0,4.0,4.0,100.0,,,,,,,,,,,,,,,,,,,,,,,,,,,,,,,,,,,,,,,,,,,,,,,,,,,,,,,,,,,,,,,,,,,,,,,,,,,,,,,,,,,,,,,,,,,,,,,,,,,,,,,,,,,,,,,,,,,,,,,,,,,,,,,,,,,,,,,,,,,,,,,,,,,,,,,,,,,,,,,,,,,,,,,,,,,,,,,,,,,,,,,,,,,,,,,,,,,,,,,,,,,,,,
1763975502.890184,22879.0,0.0,4389.358887,4381.282227,4493.461426,4520.512695,4393.461426,4520.512695,4541.666504,4387.692383,4574.615234,4396.410156,4487.307617,4518.461426,4582.820313,4406.538574,4380.641113,4525.384766,4550.256348,4536.794922,4506.666504,4389.102539,4395.256348,4572.94873,4530.0,4493.974121,4388.077148,4563.333496,4382.692383,4556.410156,4504.871582,4397.05127,4510.897461,4490.512695,2940.0,0.0,13.0,2560.0,43611.0,,,,0.0,4.0,4.0,4.0,4.0,4.0,4.0,4.0,4.0,4.0,4.0,4.0,4.0,4.0,4.0,4.0,4.0,4.0,4.0,4.0,4.0,4.0,4.0,4.0,4.0,4.0,4.0,4.0,4.0,4.0,4.0,4.0,4.0,100.0,,,,,,,,,,,,,,,,,,,,,,,,,,,,,,,,,,,,,,,,,,,,,,,,,,,,,,,,,,,,,,,,,,,,,,,,,,,,,,,,,,,,,,,,,,,,,,,,,,,,,,,,,,,,,,,,,,,,,,,,,,,,,,,,,,,,,,,,,,,,,,,,,,,,,,,,,,,,,,,,,,,,,,,,,,,,,,,,,,,,,,,,,,,,,,,,,,,,,,,,,,,,,,
1763975502.89409,22880.0,0.0,4397.05127,4392.05127,4504.743652,4529.487305,4400.384766,4529.358887,4551.153809,4397.179688,4587.94873,4400.0,4498.333496,4527.94873,4596.922852,4410.769043,4393.333496,4548.846191,4560.897461,4555.769043,4527.179688,4402.692383,4407.563965,4584.615234,4540.128418,4504.487305,4398.846191,4577.05127,4395.512695,4567.307617,4513.589844,4410.128418,4522.436035,4503.205078,2845.0,0.0,13.0,1792.0,43618.0,,,,0.0,4.0,4.0,4.0,4.0,4.0,4.0,4.0,4.0,4.0,4.0,4.0,4.0,4.0,4.0,4.0,4.0,4.0,4.0,4.0,4.0,4.0,4.0,4.0,4.0,4.0,4.0,4.0,4.0,4.0,4.0,4.0,4.0,100.0,,,,,,,,,,,,,,,,,,,,,,,,,,,,,,,,,,,,,,,,,,,,,,,,,,,,,,,,,,,,,,,,,,,,,,,,,,,,,,,,,,,,,,,,,,,,,,,,,,,,,,,,,,,,,,,,,,,,,,,,,,,,,,,,,,,,,,,,,,,,,,,,,,,,,,,,,,,,,,,,,,,,,,,,,,,,,,,,,,,,,,,,,,,,,,,,,,,,,,,,,,,,,,
1763975502.897996,22881.0,0.0,4403.974121,4402.820313,4514.871582,4538.461426,4407.563965,4536.666504,4557.94873,4403.846191,4598.205078,4405.256348,4507.692383,4535.641113,4605.512695,4414.102539,4406.153809,4560.128418,4568.461426,4565.769043,4545.0,4411.922852,4414.743652,4593.974121,4546.538574,4512.05127,4409.358887,4589.615234,4405.641113,4574.871582,4520.512695,4420.512695,4532.05127,4515.0,2863.0,0.0,13.0,1792.0,43618.0,,,,0.0,4.0,4.0,4.0,4.0,4.0,4.0,4.0,4.0,4.0,4.0,4.0,4.0,4.0,4.0,4.0,4.0,4.0,4.0,4.0,4.0,4.0,4.0,4.0,4.0,4.0,4.0,4.0,4.0,4.0,4.0,4.0,4.0,100.0,,,,,,,,,,,,,,,,,,,,,,,,,,,,,,,,,,,38488.0,0.0,0.464962,0.303772,0.210022,0.804626,0.882432,-0.487853,0.060066,36.5,-21.166666,-25.166666,,,,,,,,,,,,,,,,,,,,,,,,,,,,,,,,,,,,,,,,,,,,,,,,,,,,,,,,,,,,,,,,,,,,,,,,,,,,,,,,,,,,,,,,,,,,,,,,,,,,,,,,,,,,,,,,,,,,,,,,,,,,,,,,,,,,,,,,,,,,,,,,,,,,,,,,,,,,,,,,
1763975502.901903,22882.0,0.0,4408.717773,4410.512695,4521.666504,4545.641113,4414.102539,4540.897461,4561.410156,4407.820313,4604.615234,4415.641113,4514.102539,4540.897461,4608.205078,4416.922852,4414.230957,4561.410156,4571.922852,4568.846191,4554.102539,4415.256348,4417.307617,4598.589844,4549.358887,4516.153809,4417.436035,4597.563965,4411.025879,4576.794922,4524.487305,4425.897461,4538.461426,4523.077148,2281.0,0.0,13.0,2048.0,43626.0,,,,0.0,4.0,4.0,4.0,4.0,4.0,4.0,4.0,4.0,4.0,4.0,4.0,4.0,4.0,4.0,4.0,4.0,4.0,4.0,4.0,4.0,4.0,4.0,4.0,4.0,4.0,4.0,4.0,4.0,4.0,4.0,4.0,4.0,100.0,,,,,,,,,,,,,,,,,,,,,,,,,,,,,,,,,,,,,,,,,,,,,,,,,,,,,,,,,,,,,,,,,,,,,,,,,,,,,,,,,,,,,,,,,,,,,,,,,,,,,,,,,,,,,,,,,,,,,,,,,,,,,,,,,,,,,,,,,,,,,,,,,,,,,,,,,,,,,,,,,,,,,,,,,,,,,,,,,,,,,,,,,,,,,,,,,,,,,,,,,,,,,,
1763975502.905809,22883.0,0.0,4411.922852,4414.615234,4526.025879,4551.410156,4420.128418,4542.692383,4563.846191,4411.025879,4609.358887,4433.461426,4518.461426,4544.230957,4608.205078,4420.769043,4418.461426,4560.0,4573.077148,4570.128418,4552.820313,4414.871582,4417.436035,4598.717773,4551.025879,4518.205078,4423.077148,4600.641113,4412.692383,4575.128418,4526.410156,4427.94873,4543.461426,4527.692383,2979.0,0.0,13.0,2048.0,43626.0,,,,0.0,4.0,4.0,4.0,4.0,4.0,4.0,4.0,4.0,4.0,4.0,4.0,4.0,4.0,4.0,4.0,4.0,4.0,4.0,4.0,4.0,4.0,4.0,4.0,4.0,4.0,4.0,4.0,4.0,4.0,4.0,4.0,4.0,100.0,,,,,,,,,,,,,,,,,,,,,,,,,,,,,,,,,,,,,,,,,,,,,,,,,,,,,,,,,,,,,,,,,,,,,,,,,,,,,,,,,,,,,,,,,,,,,,,,,,,,,,,,,,,,,,,,,,,,,,,,,,,,,,,,,,,,,,,,,,,,,,,,,,,,,,,,,,,,,,,,,,,,,,,,,,,,,,,,,,,,,,,,,,,,,,,,,,,,,,,,,,,,,,
1763975502.909715,22884.0,0.0,4412.94873,4415.256348,4527.563965,4554.358887,4423.461426,4542.05127,4565.897461,4412.692383,4611.538574,4452.94873,4520.128418,4545.0,4606.282227,4423.974121,4420.384766,4558.717773,4572.179688,4570.256348,4543.077148,4411.666504,4414.743652,4595.0,4550.897461,4516.410156,4424.487305,4597.820313,4411.410156,4571.282227,4525.256348,4427.307617,4546.025879,4527.94873,2891.0,0.0,13.0,1792.0,43634.0,,,,0.0,4.0,4.0,4.0,4.0,4.0,4.0,4.0,4.0,4.0,4.0,4.0,4.0,4.0,4.0,4.0,4.0,4.0,4.0,4.0,4.0,4.0,4.0,4.0,4.0,4.0,4.0,4.0,4.0,4.0,4.0,4.0,4.0,100.0,,,,,,,,,,,,,,,,,,,,,,,,,,,,,,,,,,,,,,,,,,,,,,,,,,,,,,,,,,,,,,,,,,,,,,,,,,,,,,,,,,,,,,,,,,,,,,,,,,,,,,,,,,,,,,,,,,,,,,,,,,,,,,,,,,,,,,,,,,,,,,,,,,,,,,,,,,,,,,,,,,,,,,,,,,,,,,,,,,,,,,,,,,,,,,,,,,,,,,,,,,,,,,
1763975502.913621,22885.0,0.0,4408.846191,4410.897461,4523.077148,4550.128418,4420.256348,4537.179688,4563.974121,4408.589844,4606.538574,4459.871582,4515.769043,4539.871582,4599.230957,4421.282227,4417.94873,4553.333496,4565.769043,4564.487305,4527.179688,4403.077148,4406.153809,4585.384766,4544.615234,4507.307617,4417.436035,4587.307617,4405.128418,4564.102539,4518.077148,4421.410156,4541.666504,4520.512695,2404.0,0.0,13.0,1792.0,43634.0,,,,0.0,4.0,4.0,4.0,4.0,4.0,4.0,4.0,4.0,4.0,4.0,4.0,4.0,4.0,4.0,4.0,4.0,4.0,4.0,4.0,4.0,4.0,4.0,4.0,4.0,4.0,4.0,4.0,4.0,4.0,4.0,4.0,4.0,100.0,,,,,,,,,,,,,,,,,,,,,,,,,,,,,,,,,,,38489.0,0.0,0.464962,0.303772,0.210022,0.804626,0.878037,-0.493224,0.055671,37.166668,-19.833334,-25.333334,,,,,,,,,,,,,,,,,,,,,,,,,,,,,,,,,,,,,,,,,,,,,,,,,,,,,,,,,,,,,,,,,,,,,,,,,,,,,,,,,,,,,,,,,,,,,,,,,,,,,,,,,,,,,,,,,,,,,,,,,,,,,,,,,,,,,,,,,,,,,,,,,,,,,,,,,,,,,,,,
1763975502.917527,22886.0,0.0,4398.077148,4400.897461,4510.769043,4536.153809,4409.230957,4527.820313,4554.615234,4396.538574,4591.410156,4443.589844,4503.589844,4527.307617,4584.743652,4409.487305,4408.077148,4538.589844,4551.538574,4549.230957,4508.589844,4388.717773,4391.153809,4569.102539,4530.384766,4490.641113,4401.282227,4570.641113,4393.205078,4552.94873,4504.487305,4409.615234,4528.589844,4504.615234,2990.0,0.0,13.0,1280.0,43642.0,,,,0.0,4.0,4.0,4.0,4.0,4.0,4.0,4.0,4.0,4.0,4.0,4.0,4.0,4.0,4.0,4.0,4.0,4.0,4.0,4.0,4.0,4.0,4.0,4.0,4.0,4.0,4.0,4.0,4.0,4.0,4.0,4.0,4.0,100.0,,,,,,,,,,,,,,,,,,,,,,,,,,,,,,,,,,,,,,,,,,,,,,,,,,,,,,,,,,,,,,,,,,,,,,,,,,,,,,,,,,,,,,,,,,,,,,,,,,,,,,,,,,,,,,,,,,,,,,,,,,,,,,,,,,,,,,,,,,,,,,,,,,,,,,,,,,,,,,,,,,,,,,,,,,,,,,,,,,,,,,,,,,,,,,,,,,,,,,,,,,,,,,
1763975502.921433,22887.0,0.0,4385.128418,4390.512695,4496.025879,4518.589844,4396.282227,4518.461426,4541.153809,4382.436035,4571.666504,4409.871582,4488.717773,4512.820313,4567.436035,4393.333496,4393.461426,4516.282227,4534.358887,4529.871582,4494.230957,4374.487305,4377.179688,4552.307617,4514.358887,4474.615234,4384.230957,4556.025879,4381.153809,4542.692383,4491.410156,4397.820313,4513.333496,4488.205078,2980.0,0.0,13.0,1280.0,43642.0,,,,0.0,4.0,4.0,4.0,4.0,4.0,4.0,4.0,4.0,4.0,4.0,4.0,4.0,4.0,4.0,4.0,4.0,4.0,4.0,4.0,4.0,4.0,4.0,4.0,4.0,4.0,4.0,4.0,4.0,4.0,4.0,4.0,4.0,100.0,,,,,,,,,,,,,,,,,,,,,,,,,,,,,,,,,,,,,,,,,,,,,,,,,,,,,,,,,,,,,,,,,,,,,,,,,,,,,,,,,,,,,,,,,,,,,,,,,,,,,,,,,,,,,,,,,,,,,,,,,,,,,,,,,,,,,,,,,,,,,,,,,,,,,,,,,,,,,,,,,,,,,,,,,,,,,,,,,,,,,,,,,,,,,,,,,,,,,,,,,,,,,,
1763975502.925339,22888.0,0.0,4379.871582,4388.333496,4489.102539,4508.846191,4391.025879,4516.794922,4532.692383,4376.410156,4559.615234,4379.487305,4480.769043,4505.641113,4557.563965,4383.077148,4382.94873,4496.794922,4524.102539,4517.820313,4491.922852,4371.282227,4375.641113,4545.897461,4508.077148,4471.153809,4378.717773,4553.846191,4378.205078,4541.410156,4489.358887,4395.769043,4507.05127,4483.205078,2669.0,0.0,13.0,1536.0,43650.0,,,,0.0,4.0,4.0,4.0,4.0,4.0,4.0,4.0,4.0,4.0,4.0,4.0,4.0,4.0,4.0,4.0,4.0,4.0,4.0,4.0,4.0,4.0,4.0,4.0,4.0,4.0,4.0,4.0,4.0,4.0,4.0,4.0,4.0,100.0,,,,,,,,,,,,,,,,,,,,,,,,,,,,,,,,,,,,,,,,,,,,,,,1.809184,3.302047,3.571502,4.773498,6.740898,2.21195,1.838075,3.102777,4.785757,6.81522,1.448179,1.592894,3.382646,5.791988,7.556852,1.229633,1.617797,3.489565,5.77084,7.718226,0.991043,0.933337,2.723967,3.515975,4.822875,0.604583,1.448773,2.313012,3.756188,4.380839,1.106545,2.995389,2.569849,4.949913,6.959446,0.782249,1.73108,3.506547,5.253239,7.250177,0.759299,1.665378,2.852244,5.54768,7.085487,0.644753,1.181461,3.605147,9.6925,8.887922,0.528295,2.764269,1.54244,4.778109,6.393421,1.213669,6.305773,2.937815,4.448392,6.125935,0.490159,10.12797,3.139565,5.50263,6.942772,0.252077,1.712428,1.684955,3.928708,5.89816,0.864151,1.930895,2.209759,5.243866,7.018375,2.128094,5.31964,4.675434,6.209176,8.238876,1.550441,13.381692,3.042263,4.478734,5.923956,0.302359,2.967635,2.308652,5.255935,7.50666,0.865862,2.493693,2.46205,4.564801,7.461705,1.233553,4.31892,3.141949,5.932672,8.309375,0.618909,3.157095,2.560488,4.659421,6.681144,1.385411,4.377228,2.582163,4.75921,7.663487,1.647931,6.614279,3.169997,5.246492,7.441757,0.863409,1.984043,2.693314,4.9255,7.100615,1.006751,2.442477,2.919549,5.316884,8.198486,0.764898,2.419507,2.472006,5.22579,8.578221,1.611936,2.010929,2.770994,5.695135,7.848039,1.417001,2.21364,2.193727,4.878818,7.361197,1.889963,1.77983,2.661905,4.650322,6.331603,1.844128,2.189214,2.382869,5.869732,7.243108,1.60949,2.07803,2.955338,5.777011,8.118403,1.592808,1.746855,3.313717,5.76842,8.310385
1763975502.929245,22889.0,0.0,4387.563965,4398.205078,4495.769043,4513.974121,4398.077148,4525.512695,4536.410156,4383.974121,4563.846191,4370.512695,4484.871582,4510.897461,4561.153809,4385.256348,4383.461426,4490.512695,4527.179688,4520.384766,4503.461426,4383.846191,4390.384766,4555.384766,4517.820313,4484.743652,4390.128418,4566.922852,4387.820313,4552.307617,4502.05127,4407.179688,4516.025879,4495.384766,2852.0,0.0,13.0,1536.0,43650.0,,,,0.0,4.0,4.0,4.0,4.0,4.0,4.0,4.0,4.0,4.0,4.0,4.0,4.0,4.0,4.0,4.0,4.0,4.0,4.0,4.0,4.0,4.0,4.0,4.0,4.0,4.0,4.0,4.0,4.0,4.0,4.0,4.0,4.0,100.0,,,,,,,,,,,,,,,,,,,,,,,,,,,,,,,,,,,38490.0,0.0,0.46499,0.303772,0.209961,0.804626,0.878037,-0.493224,0.055671,38.5,-20.5,-26.0,,,,,,,,,,,,,,,,,,,,,,,,,,,,,,,,,,,,,,,,,,,,,,,,,,,,,,,,,,,,,,,,,,,,,,,,,,,,,,,,,,,,,,,,,,,,,,,,,,,,,,,,,,,,,,,,,,,,,,,,,,,,,,,,,,,,,,,,,,,,,,,,,,,,,,,,,,,,,,,,
1763975502.933151,22890.0,0.0,4403.205078,4414.230957,4511.666504,4528.974121,4411.922852,4539.358887,4549.743652,4399.615234,4579.743652,4383.461426,4496.538574,4523.589844,4574.230957,4396.153809,4391.666504,4499.487305,4539.871582,4534.230957,4520.769043,4404.743652,4413.333496,4574.743652,4536.922852,4507.436035,4410.769043,4586.282227,4403.846191,4568.846191,4521.153809,4425.128418,4534.358887,4516.666504,2686.0,0.0,13.0,1792.0,43657.0,,,,0.0,4.0,4.0,4.0,4.0,4.0,4.0,4.0,4.0,4.0,4.0,4.0,4.0,4.0,4.0,4.0,4.0,4.0,4.0,4.0,4.0,4.0,4.0,4.0,4.0,4.0,4.0,4.0,4.0,4.0,4.0,4.0,4.0,100.0,,,,,,,,,,,,,,,,,,,,,,,,,,,,,,,,,,,,,,,,,,,,,,,,,,,,,,,,,,,,,,,,,,,,,,,,,,,,,,,,,,,,,,,,,,,,,,,,,,,,,,,,,,,,,,,,,,,,,,,,,,,,,,,,,,,,,,,,,,,,,,,,,,,,,,,,,,,,,,,,,,,,,,,,,,,,,,,,,,,,,,,,,,,,,,,,,,,,,,,,,,,,,,
1763975502.937057,22891.0,0.0,4415.384766,4425.512695,4525.0,4541.666504,4422.179688,4549.102539,4563.333496,4412.179688,4594.743652,4403.846191,4506.538574,4534.230957,4586.025879,4406.282227,4398.333496,4517.05127,4552.307617,4549.230957,4532.692383,4420.256348,4430.512695,4591.794922,4552.436035,4525.0,4426.282227,4599.230957,4415.641113,4580.769043,4533.717773,4437.94873,4549.743652,4532.307617,3011.0,0.0,13.0,1792.0,43657.0,,,,0.0,4.0,4.0,4.0,4.0,4.0,4.0,4.0,4.0,4.0,4.0,4.0,4.0,4.0,4.0,4.0,4.0,4.0,4.0,4.0,4.0,4.0,4.0,4.0,4.0,4.0,4.0,4.0,4.0,4.0,4.0,4.0,4.0,100.0,,,,,,,,,,,,,,,,,,,,,,,,,,,,,,,,,,,,,,,,,,,,,,,,,,,,,,,,,,,,,,,,,,,,,,,,,,,,,,,,,,,,,,,,,,,,,,,,,,,,,,,,,,,,,,,,,,,,,,,,,,,,,,,,,,,,,,,,,,,,,,,,,,,,,,,,,,,,,,,,,,,,,,,,,,,,,,,,,,,,,,,,,,,,,,,,,,,,,,,,,,,,,,
1763975502.940963,22892.0,0.0,4417.179688,4425.641113,4527.436035,4544.230957,4422.820313,4550.256348,4569.230957,4414.871582,4598.461426,4416.410156,4509.487305,4536.922852,4589.743652,4410.128418,4398.461426,4534.615234,4557.820313,4558.461426,4534.358887,4421.794922,4434.615234,4599.102539,4556.538574,4528.974121,4428.974121,4600.384766,4417.563965,4582.436035,4534.230957,4439.230957,4553.461426,4532.820313,2959.0,0.0,13.0,2048.0,43665.0,,,,0.0,4.0,4.0,4.0,4.0,4.0,4.0,4.0,4.0,4.0,4.0,4.0,4.0,4.0,4.0,4.0,4.0,4.0,4.0,4.0,4.0,4.0,4.0,4.0,4.0,4.0,4.0,4.0,4.0,4.0,4.0,4.0,4.0,100.0,,,,,,,,,,,,,,,,,,,,,,,,,,,,,,,,,,,,,,,,,,,,,,,,,,,,,,,,,,,,,,,,,,,,,,,,,,,,,,,,,,,,,,,,,,,,,,,,,,,,,,,,,,,,,,,,,,,,,,,,,,,,,,,,,,,,,,,,,,,,,,,,,,,,,,,,,,,,,,,,,,,,,,,,,,,,,,,,,,,,,,,,,,,,,,,,,,,,,,,,,,,,,,
1763975502.944869,22893.0,0.0,4410.641113,4417.563965,4520.0,4538.461426,4416.666504,4544.871582,4566.538574,4409.358887,4591.025879,4416.538574,4507.307617,4533.205078,4586.410156,4409.358887,4395.256348,4546.794922,4557.179688,4561.153809,4529.871582,4411.922852,4427.820313,4597.820313,4551.666504,4522.307617,4422.307617,4593.717773,4412.179688,4577.05127,4527.436035,4431.794922,4546.666504,4521.025879,2734.0,0.0,13.0,2048.0,43665.0,,,,0.0,4.0,4.0,4.0,4.0,4.0,4.0,4.0,4.0,4.0,4.0,4.0,4.0,4.0,4.0,4.0,4.0,4.0,4.0,4.0,4.0,4.0,4.0,4.0,4.0,4.0,4.0,4.0,4.0,4.0,4.0,4.0,4.0,100.0,,,,,,,,,,,,,,,,,,,,,,,,,,,,,,,,,,,38491.0,0.0,0.464922,0.303833,0.210022,0.804626,0.888292,-0.486387,0.060554,38.333332,-20.666666,-26.166666,,,,,,,,,,,,,,,,,,,,,,,,,,,,,,,,,,,,,,,,,,,,,,,,,,,,,,,,,,,,,,,,,,,,,,,,,,,,,,,,,,,,,,,,,,,,,,,,,,,,,,,,,,,,,,,,,,,,,,,,,,,,,,,,,,,,,,,,,,,,,,,,,,,,,,,,,,,,,,,,
1763975502.948775,22894.0,0.0,4403.205078,4408.205078,4510.0,4531.282227,4410.512695,4537.820313,4559.871582,4401.666504,4579.871582,4409.358887,4504.358887,4528.589844,4581.922852,4408.077148,4395.256348,4551.922852,4555.384766,4559.487305,4526.025879,4399.487305,4418.077148,4594.871582,4545.897461,4514.358887,4414.615234,4586.282227,4405.769043,4570.769043,4521.538574,4423.077148,4536.922852,4507.05127,2737.0,0.0,13.0,2304.0,43673.0,,,,0.0,4.0,4.0,4.0,4.0,4.0,4.0,4.0,4.0,4.0,4.0,4.0,4.0,4.0,4.0,4.0,4.0,4.0,4.0,4.0,4.0,4.0,4.0,4.0,4.0,4.0,4.0,4.0,4.0,4.0,4.0,4.0,4.0,100.0,,,,,,,,,,,,,,,,,,,,,,,,,,,,,,,,,,,,,,,,,,,,,,,,,,,,,,,,,,,,,,,,,,,,,,,,,,,,,,,,,,,,,,,,,,,,,,,,,,,,,,,,,,,,,,,,,,,,,,,,,,,,,,,,,,,,,,,,,,,,,,,,,,,,,,,,,,,,,,,,,,,,,,,,,,,,,,,,,,,,,,,,,,,,,,,,,,,,,,,,,,,,,,
1763975502.952681,22895.0,0.0,4400.0,4401.666504,4503.717773,4527.307617,4408.589844,4531.922852,4554.230957,4396.025879,4572.436035,4403.974121,4502.94873,4526.282227,4580.0,4407.94873,4400.0,4549.102539,4555.769043,4554.871582,4524.358887,4391.922852,4410.897461,4594.487305,4544.102539,4511.538574,4410.641113,4581.794922,4402.436035,4567.692383,4520.897461,4418.205078,4530.641113,4499.743652,2856.0,0.0,13.0,2304.0,43673.0,,,,0.0,4.0,4.0,4.0,4.0,4.0,4.0,4.0,4.0,4.0,4.0,4.0,4.0,4.0,4.0,4.0,4.0,4.0,4.0,4.0,4.0,4.0,4.0,4.0,4.0,4.0,4.0,4.0,4.0,4.0,4.0,4.0,4.0,100.0,,,,,,,,,,,,,,,,,,,,,,,,,,,,,,,,,,,,,,,,,,,,,,,,,,,,,,,,,,,,,,,,,,,,,,,,,,,,,,,,,,,,,,,,,,,,,,,,,,,,,,,,,,,,,,,,,,,,,,,,,,,,,,,,,,,,,,,,,,,,,,,,,,,,,,,,,,,,,,,,,,,,,,,,,,,,,,,,,,,,,,,,,,,,,,,,,,,,,,,,,,,,,,
1763975502.956587,22896.0,0.0,4401.282227,4398.717773,4502.05127,4526.153809,4409.743652,4527.692383,4551.410156,4392.179688,4570.897461,4405.769043,4502.307617,4525.641113,4580.128418,4407.179688,4404.871582,4538.974121,4557.692383,4547.563965,4521.153809,4391.282227,4407.179688,4595.769043,4545.128418,4512.94873,4408.461426,4579.230957,4402.05127,4567.563965,4523.461426,4417.820313,4529.743652,4500.769043,2952.0,0.0,13.0,2560.0,43681.0,,,,0.0,4.0,4.0,4.0,4.0,4.0,4.0,4.0,4.0,4.0,4.0,4.0,4.0,4.0,4.0,4.0,4.0,4.0,4.0,4.0,4.0,4.0,4.0,4.0,4.0,4.0,4.0,4.0,4.0,4.0,4.0,4.0,4.0,100.0,,,,,,,,,,,,,,,,,,,,,,,,,,,,,,,,,,,,,,,,,,,,,,,,,,,,,,,,,,,,,,,,,,,,,,,,,,,,,,,,,,,,,,,,,,,,,,,,,,,,,,,,,,,,,,,,,,,,,,,,,,,,,,,,,,,,,,,,,,,,,,,,,,,,,,,,,,,,,,,,,,,,,,,,,,,,,,,,,,,,,,,,,,,,,,,,,,,,,,,,,,,,,,
1763975502.960493,22897.0,0.0,4404.230957,4398.077148,4502.692383,4525.384766,4410.128418,4525.0,4550.641113,4388.333496,4572.94873,4414.358887,4501.282227,4525.256348,4579.615234,4404.871582,4404.102539,4526.025879,4559.358887,4539.871582,4513.846191,4394.743652,4404.871582,4595.897461,4545.641113,4514.102539,4405.512695,4577.05127,4402.94873,4567.563965,4525.641113,4420.0,4532.307617,4506.410156,3062.0,0.0,13.0,2560.0,43681.0,,,,0.0,4.0,4.0,4.0,4.0,4.0,4.0,4.0,4.0,4.0,4.0,4.0,4.0,4.0,4.0,4.0,4.0,4.0,4.0,4.0,4.0,4.0,4.0,4.0,4.0,4.0,4.0,4.0,4.0,4.0,4.0,4.0,4.0,100.0,,,,,,,,,,,,,,,,,,,,,,,,,,,,,,,,,,,38492.0,0.0,0.464882,0.303894,0.210022,0.804626,0.87413,-0.483946,0.056648,38.333332,-20.666666,-26.166666,,,,,,,,,,,,,,,,,,,,,,,,,,,,,,,,,,,,,,,,,,,,,,,,,,,,,,,,,,,,,,,,,,,,,,,,,,,,,,,,,,,,,,,,,,,,,,,,,,,,,,,,,,,,,,,,,,,,,,,,,,,,,,,,,,,,,,,,,,,,,,,,,,,,,,,,,,,,,,,,
1763975502.964399,22898.0,0.0,4407.563965,4399.743652,4504.743652,4524.615234,4408.333496,4525.128418,4551.282227,4385.128418,4576.410156,4424.358887,4501.025879,4525.641113,4578.205078,4403.077148,4398.461426,4518.333496,4560.256348,4535.641113,4505.512695,4398.974121,4403.205078,4593.846191,4545.128418,4513.077148,4402.94873,4576.025879,4404.871582,4567.436035,4526.410156,4423.717773,4536.410156,4512.179688,2830.0,0.0,13.0,2560.0,43689.0,,,,0.0,4.0,4.0,4.0,4.0,4.0,4.0,4.0,4.0,4.0,4.0,4.0,4.0,4.0,4.0,4.0,4.0,4.0,4.0,4.0,4.0,4.0,4.0,4.0,4.0,4.0,4.0,4.0,4.0,4.0,4.0,4.0,4.0,100.0,,,,,,,,,,,,,,,,,,,,,,,,,,,,,,,,,,,,,,,,,,,,,,,,,,,,,,,,,,,,,,,,,,,,,,,,,,,,,,,,,,,,,,,,,,,,,,,,,,,,,,,,,,,,,,,,,,,,,,,,,,,,,,,,,,,,,,,,,,,,,,,,,,,,,,,,,,,,,,,,,,,,,,,,,,,,,,,,,,,,,,,,,,,,,,,,,,,,,,,,,,,,,,
1763975502.968305,22899.0,0.0,4412.05127,4404.743652,4509.615234,4526.153809,4406.922852,4529.615234,4553.974121,4386.282227,4581.153809,4430.0,4504.230957,4528.974121,4578.589844,4404.743652,4394.230957,4520.512695,4561.922852,4538.461426,4503.589844,4402.692383,4403.974121,4592.05127,4546.153809,4512.436035,4405.0,4579.871582,4409.358887,4569.743652,4527.436035,4429.358887,4542.436035,4517.436035,3027.0,0.0,13.0,2560.0,43689.0,,,,0.0,4.0,4.0,4.0,4.0,4.0,4.0,4.0,4.0,4.0,4.0,4.0,4.0,4.0,4.0,4.0,4.0,4.0,4.0,4.0,4.0,4.0,4.0,4.0,4.0,4.0,4.0,4.0,4.0,4.0,4.0,4.0,4.0,100.0,,,,,,,,,,,,,,,,,,,,,,,,,,,,,,,,,,,,,,,,,,,,,,,,,,,,,,,,,,,,,,,,,,,,,,,,,,,,,,,,,,,,,,,,,,,,,,,,,,,,,,,,,,,,,,,,,,,,,,,,,,,,,,,,,,,,,,,,,,,,,,,,,,,,,,,,,,,,,,,,,,,,,,,,,,,,,,,,,,,,,,,,,,,,,,,,,,,,,,,,,,,,,,
1763975502.972211,22900.0,0.0,4419.102539,4413.589844,4518.846191,4533.077148,4409.743652,4538.333496,4559.871582,4394.487305,4588.077148,4428.974121,4511.666504,4536.410156,4583.974121,4411.025879,4398.333496,4531.282227,4566.666504,4548.077148,4512.436035,4407.179688,4410.0,4594.230957,4551.922852,4516.025879,4414.102539,4590.641113,4417.692383,4577.05127,4531.922852,4437.179688,4551.538574,4523.589844,3013.0,0.0,13.0,2561.0,43696.0,,,,0.0,4.0,4.0,4.0,4.0,4.0,4.0,4.0,4.0,4.0,4.0,4.0,4.0,4.0,4.0,4.0,4.0,4.0,4.0,4.0,4.0,4.0,4.0,4.0,4.0,4.0,4.0,4.0,4.0,4.0,4.0,4.0,4.0,100.0,,,,,,,,,,,,,,,,,,,,,,,,,,,,,,,,,,,,,,,,,,,,,,,,,,,,,,,,,,,,,,,,,,,,,,,,,,,,,,,,,,,,,,,,,,,,,,,,,,,,,,,,,,,,,,,,,,,,,,,,,,,,,,,,,,,,,,,,,,,,,,,,,,,,,,,,,,,,,,,,,,,,,,,,,,,,,,,,,,,,,,,,,,,,,,,,,,,,,,,,,,,,,,
1763975502.976117,22901.0,0.0,4428.461426,4425.0,4531.282227,4545.0,4418.461426,4549.230957,4569.358887,4408.846191,4597.563965,4423.589844,4521.666504,4546.794922,4594.871582,4420.384766,4411.666504,4543.846191,4574.615234,4561.666504,4530.0,4413.461426,4421.153809,4601.666504,4562.563965,4524.615234,4428.205078,4605.897461,4428.333496,4588.589844,4540.512695,4446.153809,4563.077148,4531.666504,2927.0,0.0,13.0,2561.0,43696.0,,,,0.0,4.0,4.0,4.0,4.0,4.0,4.0,4.0,4.0,4.0,4.0,4.0,4.0,4.0,4.0,4.0,4.0,4.0,4.0,4.0,4.0,4.0,4.0,4.0,4.0,4.0,4.0,4.0,4.0,4.0,4.0,4.0,4.0,100.0,,,,,,,,,,,,,,,,,,,,,,,,,,,,,,,,,,,38493.0,0.0,0.464924,0.303711,0.209961,0.804688,0.877549,-0.481016,0.053229,36.5,-18.5,-24.666666,,,,,,,,,,,,,,,,,,,,,,,,,,,,,,,,,,,,,,,,,,,,,,,,,,,,,,,,,,,,,,,,,,,,,,,,,,,,,,,,,,,,,,,,,,,,,,,,,,,,,,,,,,,,,,,,,,,,,,,,,,,,,,,,,,,,,,,,,,,,,,,,,,,,,,,,,,,,,,,,
1763975502.980023,22902.0,0.0,4436.666504,4434.871582,4541.922852,4557.05127,4429.615234,4557.820313,4579.743652,4423.077148,4606.538574,4417.436035,4530.0,4555.769043,4606.922852,4428.974121,4427.179688,4552.307617,4583.461426,4573.461426,4547.692383,4419.487305,4432.179688,4611.282227,4573.205078,4534.102539,4440.769043,4618.461426,4436.410156,4599.358887,4550.384766,4452.692383,4573.077148,4539.743652,2997.0,0.0,13.0,2562.0,43704.0,,,,0.0,4.0,4.0,4.0,4.0,4.0,4.0,4.0,4.0,4.0,4.0,4.0,4.0,4.0,4.0,4.0,4.0,4.0,4.0,4.0,4.0,4.0,4.0,4.0,4.0,4.0,4.0,4.0,4.0,4.0,4.0,4.0,4.0,100.0,,,,,,,,,,,,,,,,,,,,,,,,,,,,,,,,,,,,,,,,,,,,,,,,,,,,,,,,,,,,,,,,,,,,,,,,,,,,,,,,,,,,,,,,,,,,,,,,,,,,,,,,,,,,,,,,,,,,,,,,,,,,,,,,,,,,,,,,,,,,,,,,,,,,,,,,,,,,,,,,,,,,,,,,,,,,,,,,,,,,,,,,,,,,,,,,,,,,,,,,,,,,,,
1763975502.983929,22903.0,0.0,4438.077148,4437.05127,4543.461426,4560.641113,4435.769043,4558.461426,4584.743652,4428.205078,4608.846191,4411.153809,4531.153809,4557.692383,4612.563965,4431.282227,4434.358887,4553.974121,4587.179688,4577.05127,4554.230957,4419.743652,4434.743652,4615.0,4575.384766,4536.410156,4443.205078,4619.230957,4435.256348,4601.282227,4553.846191,4451.282227,4574.230957,4542.179688,2943.0,0.0,13.0,2562.0,43704.0,,,,0.0,4.0,4.0,4.0,4.0,4.0,4.0,4.0,4.0,4.0,4.0,4.0,4.0,4.0,4.0,4.0,4.0,4.0,4.0,4.0,4.0,4.0,4.0,4.0,4.0,4.0,4.0,4.0,4.0,4.0,4.0,4.0,4.0,100.0,,,,,,,,,,,,,,,,,,,,,,,,,,,,,,,,,,,,,,,,,,,,,,,,,,,,,,,,,,,,,,,,,,,,,,,,,,,,,,,,,,,,,,,,,,,,,,,,,,,,,,,,,,,,,,,,,,,,,,,,,,,,,,,,,,,,,,,,,,,,,,,,,,,,,,,,,,,,,,,,,,,,,,,,,,,,,,,,,,,,,,,,,,,,,,,,,,,,,,,,,,,,,,
1763975502.987835,22904.0,0.0,4427.563965,4426.538574,4531.153809,4548.589844,4430.512695,4547.563965,4577.436035,4417.820313,4599.230957,4402.563965,4521.282227,4547.94873,4605.256348,4423.461426,4425.769043,4548.846191,4579.615234,4567.820313,4542.692383,4408.205078,4422.436035,4605.128418,4562.820313,4524.871582,4430.641113,4603.846191,4420.897461,4588.846191,4544.358887,4437.94873,4560.897461,4532.94873,2902.0,0.0,13.0,2563.0,43712.0,,,,0.0,4.0,4.0,4.0,4.0,4.0,4.0,4.0,4.0,4.0,4.0,4.0,4.0,4.0,4.0,4.0,4.0,4.0,4.0,4.0,4.0,4.0,4.0,4.0,4.0,4.0,4.0,4.0,4.0,4.0,4.0,4.0,4.0,100.0,,,,,,,,,,,,,,,,,,,,,,,,,,,,,,,,,,,,,,,,,,,,,,,,,,,,,,,,,,,,,,,,,,,,,,,,,,,,,,,,,,,,,,,,,,,,,,,,,,,,,,,,,,,,,,,,,,,,,,,,,,,,,,,,,,,,,,,,,,,,,,,,,,,,,,,,,,,,,,,,,,,,,,,,,,,,,,,,,,,,,,,,,,,,,,,,,,,,,,,,,,,,,,
1763975502.991741,22905.0,0.0,4406.153809,4405.0,4507.05127,4522.94873,4413.717773,4527.94873,4557.563965,4394.102539,4578.717773,4391.922852,4501.922852,4527.820313,4585.512695,4406.794922,4403.846191,4538.589844,4560.641113,4548.077148,4517.307617,4385.641113,4397.820313,4582.307617,4537.563965,4500.769043,4406.025879,4577.05127,4396.666504,4564.615234,4522.692383,4415.512695,4536.025879,4512.692383,2859.0,0.0,13.0,2563.0,43712.0,,,,0.0,4.0,4.0,4.0,4.0,4.0,4.0,4.0,4.0,4.0,4.0,4.0,4.0,4.0,4.0,4.0,4.0,4.0,4.0,4.0,4.0,4.0,4.0,4.0,4.0,4.0,4.0,4.0,4.0,4.0,4.0,4.0,4.0,100.0,,,,,,,,,,,,,,,,,,,,,,,,,,,,,,,,,,,38494.0,0.0,0.464962,0.303772,0.210022,0.804626,0.892199,-0.484922,0.047369,39.166668,-19.5,-26.666666,,,,,,,,,,,,,,,,,,,,,,,,,,,,,,,,,,,,,,,,,,,,,,,,,,,,,,,,,,,,,,,,,,,,,,,,,,,,,,,,,,,,,,,,,,,,,,,,,,,,,,,,,,,,,,,,,,,,,,,,,,,,,,,,,,,,,,,,,,,,,,,,,,,,,,,,,,,,,,,,
1763975502.995647,22906.0,0.0,4384.358887,4383.077148,4482.307617,4497.179688,4394.615234,4509.487305,4534.230957,4368.974121,4557.563965,4384.871582,4482.179688,4506.794922,4564.230957,4389.743652,4381.153809,4526.922852,4538.974121,4528.077148,4494.358887,4362.692383,4374.102539,4557.94873,4512.307617,4476.922852,4381.922852,4552.563965,4374.358887,4540.384766,4500.0,4395.256348,4512.307617,4491.922852,2792.0,0.0,13.0,2561.0,43720.0,,,,0.0,4.0,4.0,4.0,4.0,4.0,4.0,4.0,4.0,4.0,4.0,4.0,4.0,4.0,4.0,4.0,4.0,4.0,4.0,4.0,4.0,4.0,4.0,4.0,4.0,4.0,4.0,4.0,4.0,4.0,4.0,4.0,4.0,100.0,,,,,,,,,,,,,,,,,,,,,,,,,,,,,,,,,,,,,,,,,,,,,,,,,,,,,,,,,,,,,,,,,,,,,,,,,,,,,,,,,,,,,,,,,,,,,,,,,,,,,,,,,,,,,,,,,,,,,,,,,,,,,,,,,,,,,,,,,,,,,,,,,,,,,,,,,,,,,,,,,,,,,,,,,,,,,,,,,,,,,,,,,,,,,,,,,,,,,,,,,,,,,,
1763975502.999553,22907.0,0.0,4376.666504,4375.0,4472.05127,4488.205078,4387.179688,4504.358887,4522.692383,4358.717773,4549.615234,4388.589844,4475.128418,4497.94873,4555.384766,4384.102539,4373.333496,4518.461426,4528.717773,4521.153809,4490.769043,4354.487305,4367.692383,4548.717773,4502.94873,4469.615234,4373.717773,4546.025879,4368.589844,4531.794922,4491.538574,4390.641113,4504.871582,4485.769043,3020.0,0.0,13.0,2561.0,43720.0,,,,0.0,4.0,4.0,4.0,4.0,4.0,4.0,4.0,4.0,4.0,4.0,4.0,4.0,4.0,4.0,4.0,4.0,4.0,4.0,4.0,4.0,4.0,4.0,4.0,4.0,4.0,4.0,4.0,4.0,4.0,4.0,4.0,4.0,100.0,,,,,,,,,,,,,,,,,,,,,,,,,,,,,,,,,,,,,,,,,,,,,,,,,,,,,,,,,,,,,,,,,,,,,,,,,,,,,,,,,,,,,,,,,,,,,,,,,,,,,,,,,,,,,,,,,,,,,,,,,,,,,,,,,,,,,,,,,,,,,,,,,,,,,,,,,,,,,,,,,,,,,,,,,,,,,,,,,,,,,,,,,,,,,,,,,,,,,,,,,,,,,,
1763975503.003459,22908.0,0.0,4390.641113,4388.205078,4484.102539,4504.487305,4398.589844,4517.94873,4532.563965,4371.794922,4562.436035,4403.589844,4487.307617,4508.589844,4566.153809,4395.0,4387.05127,4517.436035,4537.94873,4533.333496,4510.769043,4369.487305,4385.641113,4562.179688,4516.666504,4486.794922,4389.487305,4563.846191,4386.025879,4546.025879,4505.0,4407.179688,4520.384766,4502.05127,2971.0,0.0,13.0,2562.0,43728.0,,,,0.0,4.0,4.0,4.0,4.0,4.0,4.0,4.0,4.0,4.0,4.0,4.0,4.0,4.0,4.0,4.0,4.0,4.0,4.0,4.0,4.0,4.0,4.0,4.0,4.0,4.0,4.0,4.0,4.0,4.0,4.0,4.0,4.0,100.0,,,,,,,,,,,,,,,,,,,,,,,,,,,,,,,,,,,,,,,,,,,,,,,,,,,,,,,,,,,,,,,,,,,,,,,,,,,,,,,,,,,,,,,,,,,,,,,,,,,,,,,,,,,,,,,,,,,,,,,,,,,,,,,,,,,,,,,,,,,,,,,,,,,,,,,,,,,,,,,,,,,,,,,,,,,,,,,,,,,,,,,,,,,,,,,,,,,,,,,,,,,,,,
1763975503.007365,22909.0,0.0,4419.487305,4416.153809,4513.077148,4537.94873,4423.461426,4543.717773,4560.0,4402.05127,4590.512695,4422.692383,4512.820313,4533.333496,4590.512695,4416.538574,4414.743652,4525.512695,4561.794922,4558.846191,4540.384766,4402.307617,4419.487305,4590.256348,4545.512695,4520.512695,4422.820313,4598.077148,4418.717773,4576.410156,4533.589844,4437.05127,4551.538574,4533.589844,2831.0,0.0,13.0,2562.0,43728.0,,,,0.0,4.0,4.0,4.0,4.0,4.0,4.0,4.0,4.0,4.0,4.0,4.0,4.0,4.0,4.0,4.0,4.0,4.0,4.0,4.0,4.0,4.0,4.0,4.0,4.0,4.0,4.0,4.0,4.0,4.0,4.0,4.0,4.0,100.0,,,,,,,,,,,,,,,,,,,,,,,,,,,,,,,,,,,38495.0,0.0,0.464777,0.303894,0.210022,0.804688,0.886827,-0.494201,0.053229,35.5,-21.5,-26.166666,,,,,,,,,,,,,,,,,,,,,,,,,,,,,,,,,,,,,,,,,,,,,,,,,,,,,,,,,,,,,,,,,,,,,,,,,,,,,,,,,,,,,,,,,,,,,,,,,,,,,,,,,,,,,,,,,,,,,,,,,,,,,,,,,,,,,,,,,,,,,,,,,,,,,,,,,,,,,,,,
1763975503.011271,22910.0,0.0,4446.538574,4443.205078,4542.692383,4570.0,4446.922852,4568.077148,4589.487305,4432.307617,4618.205078,4437.307617,4537.563965,4557.563965,4614.230957,4436.153809,4440.384766,4539.615234,4586.282227,4583.077148,4559.743652,4436.410156,4450.256348,4615.384766,4573.333496,4551.922852,4456.410156,4630.769043,4448.846191,4606.410156,4561.410156,4463.846191,4580.512695,4563.077148,3012.0,0.0,13.0,2562.0,43736.0,,,,0.0,4.0,4.0,4.0,4.0,4.0,4.0,4.0,4.0,4.0,4.0,4.0,4.0,4.0,4.0,4.0,4.0,4.0,4.0,4.0,4.0,4.0,4.0,4.0,4.0,4.0,4.0,4.0,4.0,4.0,4.0,4.0,4.0,100.0,,,,,,,,,,,,,,,,,,,,,,,,,,,,,,,,,,,,,,,,,,,,,,,,,,,,,,,,,,,,,,,,,,,,,,,,,,,,,,,,,,,,,,,,,,,,,,,,,,,,,,,,,,,,,,,,,,,,,,,,,,,,,,,,,,,,,,,,,,,,,,,,,,,,,,,,,,,,,,,,,,,,,,,,,,,,,,,,,,,,,,,,,,,,,,,,,,,,,,,,,,,,,,
1763975503.015177,22911.0,0.0,4456.410156,4453.846191,4556.666504,4582.820313,4455.256348,4578.461426,4604.230957,4445.384766,4630.897461,4443.974121,4547.692383,4567.05127,4623.333496,4443.077148,4450.256348,4552.179688,4596.794922,4592.179688,4557.820313,4453.846191,4461.410156,4623.461426,4585.0,4564.230957,4471.794922,4644.615234,4459.615234,4620.0,4573.205078,4472.436035,4590.897461,4573.717773,2927.0,0.0,13.0,2562.0,43736.0,,,,0.0,4.0,4.0,4.0,4.0,4.0,4.0,4.0,4.0,4.0,4.0,4.0,4.0,4.0,4.0,4.0,4.0,4.0,4.0,4.0,4.0,4.0,4.0,4.0,4.0,4.0,4.0,4.0,4.0,4.0,4.0,4.0,4.0,100.0,,,,,,,,,,,,,,,,,,,,,,,,,,,,,,,,,,,,,,,,,,,,,,,,,,,,,,,,,,,,,,,,,,,,,,,,,,,,,,,,,,,,,,,,,,,,,,,,,,,,,,,,,,,,,,,,,,,,,,,,,,,,,,,,,,,,,,,,,,,,,,,,,,,,,,,,,,,,,,,,,,,,,,,,,,,,,,,,,,,,,,,,,,,,,,,,,,,,,,,,,,,,,,
1763975503.019083,22912.0,0.0,4444.102539,4441.922852,4547.307617,4569.487305,4443.846191,4570.641113,4595.128418,4433.333496,4621.538574,4442.179688,4537.05127,4555.512695,4611.538574,4432.692383,4439.230957,4552.692383,4586.666504,4579.487305,4538.333496,4445.384766,4447.307617,4611.025879,4574.743652,4551.153809,4459.743652,4631.666504,4444.487305,4610.256348,4562.05127,4457.179688,4575.512695,4559.487305,2836.0,0.0,13.0,2048.0,43743.0,,,,0.0,4.0,4.0,4.0,4.0,4.0,4.0,4.0,4.0,4.0,4.0,4.0,4.0,4.0,4.0,4.0,4.0,4.0,4.0,4.0,4.0,4.0,4.0,4.0,4.0,4.0,4.0,4.0,4.0,4.0,4.0,4.0,4.0,100.0,,,,,,,,,,,,,,,,,,,,,,,,,,,,,,,,,,,,,,,,,,,,,,,,,,,,,,,,,,,,,,,,,,,,,,,,,,,,,,,,,,,,,,,,,,,,,,,,,,,,,,,,,,,,,,,,,,,,,,,,,,,,,,,,,,,,,,,,,,,,,,,,,,,,,,,,,,,,,,,,,,,,,,,,,,,,,,,,,,,,,,,,,,,,,,,,,,,,,,,,,,,,,,
1763975503.022989,22913.0,0.0,4414.871582,4412.05127,4518.974121,4536.666504,4418.461426,4548.846191,4565.769043,4401.794922,4594.102539,4430.0,4509.102539,4527.179688,4582.179688,4408.077148,4411.538574,4534.102539,4559.230957,4548.846191,4513.205078,4415.0,4415.769043,4585.256348,4546.922852,4519.871582,4424.615234,4596.922852,4410.128418,4582.05127,4532.563965,4424.487305,4540.769043,4526.410156,2858.0,0.0,13.0,2048.0,43743.0,,,,0.0,4.0,4.0,4.0,4.0,4.0,4.0,4.0,4.0,4.0,4.0,4.0,4.0,4.0,4.0,4.0,4.0,4.0,4.0,4.0,4.0,4.0,4.0,4.0,4.0,4.0,4.0,4.0,4.0,4.0,4.0,4.0,4.0,100.0,,,,,,,,,,,,,,,,,,,,,,,,,,,,,,,,,,,38496.0,0.0,0.464818,0.303711,0.209961,0.804749,0.869247,-0.492736,0.057136,36.333332,-19.5,-25.833334,,,,,,,,,,,,,,,,,,,,,,,,,,,,,,,,,,,,,,,,,,,,,,,,,,,,,,,,,,,,,,,,,,,,,,,,,,,,,,,,,,,,,,,,,,,,,,,,,,,,,,,,,,,,,,,,,,,,,,,,,,,,,,,,,,,,,,,,,,,,,,,,,,,,,,,,,,,,,,,,
1763975503.026895,22914.0,0.0,4382.94873,4378.589844,4486.794922,4501.282227,4392.94873,4524.230957,4531.410156,4367.436035,4561.666504,4406.922852,4476.794922,4495.384766,4547.820313,4379.615234,4378.589844,4500.897461,4527.94873,4514.358887,4494.230957,4379.743652,4383.461426,4560.641113,4515.384766,4487.05127,4383.717773,4558.077148,4373.846191,4550.256348,4499.230957,4390.0,4503.717773,4491.282227,2272.0,0.0,13.0,768.0,43751.0,,,,0.0,4.0,4.0,4.0,4.0,4.0,4.0,4.0,4.0,4.0,4.0,4.0,4.0,4.0,4.0,4.0,4.0,4.0,4.0,4.0,4.0,4.0,4.0,4.0,4.0,4.0,4.0,4.0,4.0,4.0,4.0,4.0,4.0,100.0,,,,,,,,,,,,,,,,,,,,,,,,,,,,,,,,,,,,,,,,,,,,,,,,,,,,,,,,,,,,,,,,,,,,,,,,,,,,,,,,,,,,,,,,,,,,,,,,,,,,,,,,,,,,,,,,,,,,,,,,,,,,,,,,,,,,,,,,,,,,,,,,,,,,,,,,,,,,,,,,,,,,,,,,,,,,,,,,,,,,,,,,,,,,,,,,,,,,,,,,,,,,,,
1763975503.030801,22915.0,0.0,4365.512695,4360.769043,4471.025879,4484.102539,4382.692383,4511.282227,4512.436035,4351.666504,4543.205078,4382.436035,4458.461426,4478.461426,4527.179688,4362.94873,4357.94873,4471.922852,4511.025879,4495.0,4490.128418,4361.922852,4369.743652,4552.820313,4499.230957,4472.820313,4361.410156,4538.461426,4356.538574,4534.743652,4481.410156,4373.205078,4486.410156,4474.615234,2968.0,0.0,13.0,768.0,43751.0,,,,0.0,4.0,4.0,4.0,4.0,4.0,4.0,4.0,4.0,4.0,4.0,4.0,4.0,4.0,4.0,4.0,4.0,4.0,4.0,4.0,4.0,4.0,4.0,4.0,4.0,4.0,4.0,4.0,4.0,4.0,4.0,4.0,4.0,100.0,,,,,,,,,,,,,,,,,,,,,,,,,,,,,,,,,,,,,,,,,,,,,,,,,,,,,,,,,,,,,,,,,,,,,,,,,,,,,,,,,,,,,,,,,,,,,,,,,,,,,,,,,,,,,,,,,,,,,,,,,,,,,,,,,,,,,,,,,,,,,,,,,,,,,,,,,,,,,,,,,,,,,,,,,,,,,,,,,,,,,,,,,,,,,,,,,,,,,,,,,,,,,,
1763975503.034707,22916.0,0.0,4375.256348,4371.794922,4485.0,4498.205078,4397.05127,4520.128418,4523.717773,4367.436035,4553.077148,4375.256348,4467.94873,4489.615234,4534.615234,4371.153809,4364.487305,4469.487305,4521.922852,4504.615234,4503.974121,4375.897461,4385.384766,4570.769043,4512.436035,4488.974121,4374.615234,4553.461426,4371.922852,4548.333496,4492.563965,4386.922852,4502.436035,4489.487305,2881.0,0.0,13.0,768.0,43759.0,,,,0.0,4.0,4.0,4.0,4.0,4.0,4.0,4.0,4.0,4.0,4.0,4.0,4.0,4.0,4.0,4.0,4.0,4.0,4.0,4.0,4.0,4.0,4.0,4.0,4.0,4.0,4.0,4.0,4.0,4.0,4.0,4.0,4.0,100.0,,,,,,,,,,,,,,,,,,,,,,,,,,,,,,,,,,,,,,,,,,,,,,,,,,,,,,,,,,,,,,,,,,,,,,,,,,,,,,,,,,,,,,,,,,,,,,,,,,,,,,,,,,,,,,,,,,,,,,,,,,,,,,,,,,,,,,,,,,,,,,,,,,,,,,,,,,,,,,,,,,,,,,,,,,,,,,,,,,,,,,,,,,,,,,,,,,,,,,,,,,,,,,
1763975503.038613,22917.0,0.0,4409.743652,4408.077148,4524.358887,4537.820313,4430.0,4548.333496,4561.922852,4408.717773,4589.358887,4397.94873,4503.333496,4525.769043,4568.717773,4403.333496,4398.333496,4501.410156,4557.94873,4540.512695,4530.769043,4415.897461,4423.461426,4608.333496,4552.179688,4529.230957,4419.487305,4597.436035,4413.846191,4586.410156,4528.974121,4426.410156,4546.153809,4529.871582,2392.0,0.0,13.0,768.0,43759.0,,,,0.0,4.0,4.0,4.0,4.0,4.0,4.0,4.0,4.0,4.0,4.0,4.0,4.0,4.0,4.0,4.0,4.0,4.0,4.0,4.0,4.0,4.0,4.0,4.0,4.0,4.0,4.0,4.0,4.0,4.0,4.0,4.0,4.0,100.0,,,,,,,,,,,,,,,,,,,,,,,,,,,,,,,,,,,38497.0,0.0,0.464887,0.303528,0.209839,0.80481,0.869247,-0.492736,0.057136,36.333332,-21.0,-27.833334,,,,,,,,,,,,,,,,,,,,,,,,,,,,,,,,,,,,,,,,,,,,,,,,,,,,,,,,,,,,,,,,,,,,,,,,,,,,,,,,,,,,,,,,,,,,,,,,,,,,,,,,,,,,,,,,,,,,,,,,,,,,,,,,,,,,,,,,,,,,,,,,,,,,,,,,,,,,,,,,
1763975503.042519,22918.0,0.0,4448.717773,4447.179688,4565.0,4578.974121,4461.666504,4579.230957,4604.743652,4450.769043,4630.512695,4440.384766,4543.333496,4565.769043,4609.487305,4441.794922,4439.615234,4551.153809,4598.461426,4582.05127,4556.538574,4456.410156,4460.897461,4644.358887,4595.256348,4568.974121,4468.846191,4643.461426,4457.307617,4625.769043,4567.94873,4467.820313,4590.897461,4571.153809,2976.0,0.0,13.0,1024.0,43767.0,,,,0.0,4.0,4.0,4.0,4.0,4.0,4.0,4.0,4.0,4.0,4.0,4.0,4.0,4.0,4.0,4.0,4.0,4.0,4.0,4.0,4.0,4.0,4.0,4.0,4.0,4.0,4.0,4.0,4.0,4.0,4.0,4.0,4.0,100.0,,,,,,,,,,,,,,,,,,,,,,,,,,,,,,,,,,,,,,,,,,,,,,,,,,,,,,,,,,,,,,,,,,,,,,,,,,,,,,,,,,,,,,,,,,,,,,,,,,,,,,,,,,,,,,,,,,,,,,,,,,,,,,,,,,,,,,,,,,,,,,,,,,,,,,,,,,,,,,,,,,,,,,,,,,,,,,,,,,,,,,,,,,,,,,,,,,,,,,,,,,,,,,
1763975503.046425,22919.0,0.0,4466.410156,4462.179688,4578.589844,4593.974121,4470.384766,4592.05127,4623.461426,4465.897461,4648.333496,4472.179688,4561.025879,4583.077148,4630.256348,4461.153809,4459.487305,4586.922852,4617.820313,4602.94873,4565.384766,4469.487305,4472.05127,4655.128418,4612.820313,4581.153809,4488.974121,4660.512695,4472.94873,4639.615234,4582.692383,4482.563965,4606.025879,4584.743652,2968.0,0.0,13.0,1024.0,43767.0,,,,0.0,4.0,4.0,4.0,4.0,4.0,4.0,4.0,4.0,4.0,4.0,4.0,4.0,4.0,4.0,4.0,4.0,4.0,4.0,4.0,4.0,4.0,4.0,4.0,4.0,4.0,4.0,4.0,4.0,4.0,4.0,4.0,4.0,100.0,,,,,,,,,,,,,,,,,,,,,,,,,,,,,,,,,,,,,,,,,,,,,,,,,,,,,,,,,,,,,,,,,,,,,,,,,,,,,,,,,,,,,,,,,,,,,,,,,,,,,,,,,,,,,,,,,,,,,,,,,,,,,,,,,,,,,,,,,,,,,,,,,,,,,,,,,,,,,,,,,,,,,,,,,,,,,,,,,,,,,,,,,,,,,,,,,,,,,,,,,,,,,,
1763975503.050331,22920.0,0.0,4450.0,4441.666504,4554.358887,4572.307617,4449.487305,4577.436035,4605.256348,4443.333496,4628.589844,4466.282227,4543.461426,4565.512695,4617.05127,4448.077148,4442.94873,4584.743652,4603.846191,4590.512695,4550.769043,4445.897461,4448.205078,4631.922852,4591.666504,4555.641113,4465.256348,4636.153809,4448.461426,4617.307617,4562.436035,4459.230957,4579.102539,4560.256348,2658.0,0.0,13.0,1280.0,43775.0,,,,0.0,4.0,4.0,4.0,4.0,4.0,4.0,4.0,4.0,4.0,4.0,4.0,4.0,4.0,4.0,4.0,4.0,4.0,4.0,4.0,4.0,4.0,4.0,4.0,4.0,4.0,4.0,4.0,4.0,4.0,4.0,4.0,4.0,100.0,,,,,,,,,,,,,,,,,,,,,,,,,,,,,,,,,,,,,,,,,,,,,,,1.578251,3.716846,3.497291,4.856464,7.238686,1.953619,2.237129,3.137891,4.871759,7.452521,1.279684,2.097198,3.557039,6.01931,8.317715,1.036943,2.127324,3.673744,5.983816,8.546481,0.883443,1.157904,2.816969,3.557872,5.273136,0.537829,1.331207,2.307102,3.632298,4.775537,0.927876,3.669373,2.669542,5.137829,7.523879,0.707878,2.137432,3.842185,5.310145,7.939019,0.94846,2.33429,3.423666,5.780139,7.655765,0.569226,1.45279,4.922376,9.173495,9.591328,0.478258,2.860269,1.778936,4.818323,6.93091,1.084612,6.279174,3.147083,4.478559,6.705959,0.515785,9.160991,3.462351,5.554656,7.62709,0.340844,1.977473,1.913651,3.990707,6.264805,0.818708,2.507836,2.461828,5.34176,7.52677,2.346951,4.862968,5.092015,6.491735,8.478139,1.380581,12.825889,3.243132,4.563356,6.47024,0.323824,3.114381,2.3145,5.447314,8.127693,0.789569,2.592629,2.582775,4.600964,8.168068,1.245254,5.419932,3.321711,6.400898,8.735691,0.516611,3.608645,2.733532,4.909029,7.25088,1.209168,4.55126,2.828791,4.937638,8.306204,1.419672,7.208133,3.358017,5.286198,8.087223,0.798509,2.673238,2.931102,5.084506,7.882517,0.924749,3.127088,2.925195,5.274567,8.933757,0.704593,3.087858,2.706529,5.519489,9.133027,1.34983,2.475389,2.890371,5.858682,8.505257,1.221412,2.536996,2.202393,5.005456,7.968391,1.650014,2.046696,2.799776,4.821644,6.952535,1.701314,2.497041,2.362671,6.083789,7.837671,1.512039,2.705466,3.064752,6.000515,8.7981,1.424253,2.190803,3.465922,5.894007,9.058784
1763975503.054237,22921.0,0.0,4411.153809,4399.871582,4508.717773,4529.358887,4413.333496,4546.025879,4563.461426,4399.358887,4584.358887,4423.717773,4503.589844,4526.025879,4580.641113,4411.922852,4401.922852,4548.205078,4567.94873,4555.128418,4522.05127,4402.307617,4405.384766,4589.102539,4546.025879,4509.487305,4414.230957,4587.05127,4400.256348,4573.077148,4520.641113,4412.563965,4527.820313,4514.358887,2842.0,0.0,13.0,1280.0,43775.0,,,,0.0,4.0,4.0,4.0,4.0,4.0,4.0,4.0,4.0,4.0,4.0,4.0,4.0,4.0,4.0,4.0,4.0,4.0,4.0,4.0,4.0,4.0,4.0,4.0,4.0,4.0,4.0,4.0,4.0,4.0,4.0,4.0,4.0,100.0,,,,,,,,,,,,,,,,,,,,,,,,,,,,,,,,,,,38498.0,0.0,0.464889,0.303406,0.209778,0.804871,0.880967,-0.487364,0.057136,37.333332,-20.0,-25.166666,,,,,,,,,,,,,,,,,,,,,,,,,,,,,,,,,,,,,,,,,,,,,,,,,,,,,,,,,,,,,,,,,,,,,,,,,,,,,,,,,,,,,,,,,,,,,,,,,,,,,,,,,,,,,,,,,,,,,,,,,,,,,,,,,,,,,,,,,,,,,,,,,,,,,,,,,,,,,,,,
1763975503.058143,22922.0,0.0,4377.94873,4367.05127,4474.487305,4496.666504,4388.077148,4520.512695,4528.589844,4366.282227,4546.922852,4375.512695,4471.025879,4493.461426,4548.589844,4379.102539,4367.179688,4505.256348,4536.794922,4523.589844,4499.102539,4369.358887,4373.077148,4555.256348,4507.820313,4474.743652,4371.794922,4547.307617,4361.538574,4536.794922,4486.538574,4375.0,4487.307617,4478.846191,2682.0,0.0,13.0,1536.0,43782.0,,,,0.0,4.0,4.0,4.0,4.0,4.0,4.0,4.0,4.0,4.0,4.0,4.0,4.0,4.0,4.0,4.0,4.0,4.0,4.0,4.0,4.0,4.0,4.0,4.0,4.0,4.0,4.0,4.0,4.0,4.0,4.0,4.0,4.0,100.0,,,,,,,,,,,,,,,,,,,,,,,,,,,,,,,,,,,,,,,,,,,,,,,,,,,,,,,,,,,,,,,,,,,,,,,,,,,,,,,,,,,,,,,,,,,,,,,,,,,,,,,,,,,,,,,,,,,,,,,,,,,,,,,,,,,,,,,,,,,,,,,,,,,,,,,,,,,,,,,,,,,,,,,,,,,,,,,,,,,,,,,,,,,,,,,,,,,,,,,,,,,,,,
1763975503.062049,22923.0,0.0,4374.102539,4366.666504,4476.025879,4497.820313,4392.179688,4519.230957,4525.641113,4368.461426,4543.333496,4358.077148,4470.0,4491.025879,4544.487305,4373.077148,4364.743652,4486.153809,4532.307617,4518.205078,4497.94873,4368.717773,4372.820313,4552.05127,4502.563965,4474.871582,4366.025879,4543.717773,4358.717773,4533.077148,4482.692383,4372.179688,4485.128418,4477.307617,3001.0,0.0,13.0,1536.0,43782.0,,,,0.0,4.0,4.0,4.0,4.0,4.0,4.0,4.0,4.0,4.0,4.0,4.0,4.0,4.0,4.0,4.0,4.0,4.0,4.0,4.0,4.0,4.0,4.0,4.0,4.0,4.0,4.0,4.0,4.0,4.0,4.0,4.0,4.0,100.0,,,,,,,,,,,,,,,,,,,,,,,,,,,,,,,,,,,,,,,,,,,,,,,,,,,,,,,,,,,,,,,,,,,,,,,,,,,,,,,,,,,,,,,,,,,,,,,,,,,,,,,,,,,,,,,,,,,,,,,,,,,,,,,,,,,,,,,,,,,,,,,,,,,,,,,,,,,,,,,,,,,,,,,,,,,,,,,,,,,,,,,,,,,,,,,,,,,,,,,,,,,,,,
1763975503.065955,22924.0,0.0,4401.410156,4398.077148,4510.769043,4531.666504,4422.563965,4541.794922,4555.0,4403.589844,4575.512695,4384.487305,4500.641113,4518.717773,4570.641113,4396.922852,4395.769043,4500.769043,4555.256348,4541.410156,4518.717773,4397.436035,4401.922852,4577.94873,4530.897461,4507.05127,4397.05127,4576.410156,4391.794922,4562.179688,4509.487305,4404.358887,4520.256348,4507.692383,2951.0,0.0,13.0,1792.0,43790.0,,,,0.0,4.0,4.0,4.0,4.0,4.0,4.0,4.0,4.0,4.0,4.0,4.0,4.0,4.0,4.0,4.0,4.0,4.0,4.0,4.0,4.0,4.0,4.0,4.0,4.0,4.0,4.0,4.0,4.0,4.0,4.0,4.0,4.0,100.0,,,,,,,,,,,,,,,,,,,,,,,,,,,,,,,,,,,,,,,,,,,,,,,,,,,,,,,,,,,,,,,,,,,,,,,,,,,,,,,,,,,,,,,,,,,,,,,,,,,,,,,,,,,,,,,,,,,,,,,,,,,,,,,,,,,,,,,,,,,,,,,,,,,,,,,,,,,,,,,,,,,,,,,,,,,,,,,,,,,,,,,,,,,,,,,,,,,,,,,,,,,,,,
1763975503.069861,22925.0,0.0,4437.436035,4436.666504,4550.128418,4571.794922,4456.153809,4569.487305,4592.307617,4444.102539,4617.94873,4434.358887,4538.846191,4553.461426,4605.769043,4430.769043,4435.512695,4532.179688,4584.871582,4572.05127,4544.230957,4429.230957,4434.871582,4608.974121,4567.179688,4543.974121,4437.563965,4618.461426,4433.717773,4600.384766,4544.615234,4445.256348,4564.102539,4544.743652,2726.0,0.0,13.0,1792.0,43790.0,,,,0.0,4.0,4.0,4.0,4.0,4.0,4.0,4.0,4.0,4.0,4.0,4.0,4.0,4.0,4.0,4.0,4.0,4.0,4.0,4.0,4.0,4.0,4.0,4.0,4.0,4.0,4.0,4.0,4.0,4.0,4.0,4.0,4.0,100.0,,,,,,,,,,,,,,,,,,,,,,,,,,,,,,,,,,,38499.0,0.0,0.464768,0.303711,0.209839,0.80481,0.872665,-0.497619,0.053229,38.5,-22.0,-26.0,,,,,,,,,,,,,,,,,,,,,,,,,,,,,,,,,,,,,,,,,,,,,,,,,,,,,,,,,,,,,,,,,,,,,,,,,,,,,,,,,,,,,,,,,,,,,,,,,,,,,,,,,,,,,,,,,,,,,,,,,,,,,,,,,,,,,,,,,,,,,,,,,,,,,,,,,,,,,,,,
1763975503.073767,22926.0,0.0,4452.563965,4451.153809,4560.897461,4585.384766,4466.410156,4578.717773,4605.897461,4456.794922,4636.410156,4468.846191,4553.974121,4566.153809,4620.641113,4446.666504,4451.538574,4551.153809,4594.230957,4582.179688,4550.897461,4434.230957,4441.922852,4615.769043,4578.717773,4553.333496,4452.563965,4635.0,4449.871582,4615.0,4558.461426,4461.153809,4581.282227,4557.692383,2728.0,0.0,13.0,2048.0,43798.0,,,,0.0,4.0,4.0,4.0,4.0,4.0,4.0,4.0,4.0,4.0,4.0,4.0,4.0,4.0,4.0,4.0,4.0,4.0,4.0,4.0,4.0,4.0,4.0,4.0,4.0,4.0,4.0,4.0,4.0,4.0,4.0,4.0,4.0,100.0,,,,,,,,,,,,,,,,,,,,,,,,,,,,,,,,,,,,,,,,,,,,,,,,,,,,,,,,,,,,,,,,,,,,,,,,,,,,,,,,,,,,,,,,,,,,,,,,,,,,,,,,,,,,,,,,,,,,,,,,,,,,,,,,,,,,,,,,,,,,,,,,,,,,,,,,,,,,,,,,,,,,,,,,,,,,,,,,,,,,,,,,,,,,,,,,,,,,,,,,,,,,,,
1763975503.077673,22927.0,0.0,4431.282227,4427.05127,4530.256348,4558.333496,4442.94873,4559.615234,4581.025879,4428.205078,4614.102539,4460.641113,4531.538574,4543.717773,4600.384766,4429.358887,4428.077148,4539.487305,4571.538574,4558.461426,4527.820313,4401.794922,4411.410156,4586.410156,4551.153809,4522.94873,4426.410156,4609.743652,4423.974121,4590.384766,4536.666504,4435.897461,4555.512695,4533.974121,2847.0,0.0,13.0,2048.0,43798.0,,,,0.0,4.0,4.0,4.0,4.0,4.0,4.0,4.0,4.0,4.0,4.0,4.0,4.0,4.0,4.0,4.0,4.0,4.0,4.0,4.0,4.0,4.0,4.0,4.0,4.0,4.0,4.0,4.0,4.0,4.0,4.0,4.0,4.0,100.0,,,,,,,,,,,,,,,,,,,,,,,,,,,,,,,,,,,,,,,,,,,,,,,,,,,,,,,,,,,,,,,,,,,,,,,,,,,,,,,,,,,,,,,,,,,,,,,,,,,,,,,,,,,,,,,,,,,,,,,,,,,,,,,,,,,,,,,,,,,,,,,,,,,,,,,,,,,,,,,,,,,,,,,,,,,,,,,,,,,,,,,,,,,,,,,,,,,,,,,,,,,,,,
1763975503.081579,22928.0,0.0,4386.153809,4379.487305,4477.307617,4506.794922,4400.512695,4524.615234,4532.94873,4375.641113,4566.025879,4415.641113,4486.153809,4500.256348,4557.563965,4390.769043,4379.871582,4506.025879,4530.384766,4515.897461,4487.94873,4350.897461,4361.538574,4537.563965,4500.641113,4470.897461,4375.0,4558.205078,4372.179688,4540.769043,4492.563965,4385.0,4503.717773,4488.974121,2945.0,0.0,13.0,2304.0,43806.0,,,,0.0,4.0,4.0,4.0,4.0,4.0,4.0,4.0,4.0,4.0,4.0,4.0,4.0,4.0,4.0,4.0,4.0,4.0,4.0,4.0,4.0,4.0,4.0,4.0,4.0,4.0,4.0,4.0,4.0,4.0,4.0,4.0,4.0,100.0,,,,,,,,,,,,,,,,,,,,,,,,,,,,,,,,,,,,,,,,,,,,,,,,,,,,,,,,,,,,,,,,,,,,,,,,,,,,,,,,,,,,,,,,,,,,,,,,,,,,,,,,,,,,,,,,,,,,,,,,,,,,,,,,,,,,,,,,,,,,,,,,,,,,,,,,,,,,,,,,,,,,,,,,,,,,,,,,,,,,,,,,,,,,,,,,,,,,,,,,,,,,,,
1763975503.085485,22929.0,0.0,4349.487305,4342.307617,4439.102539,4466.922852,4368.846191,4499.743652,4495.769043,4336.025879,4527.820313,4368.846191,4451.410156,4467.307617,4524.743652,4360.897461,4342.436035,4479.102539,4500.512695,4486.922852,4461.410156,4317.94873,4327.94873,4503.846191,4463.205078,4433.717773,4335.0,4516.922852,4331.410156,4501.538574,4458.205078,4344.871582,4463.589844,4454.743652,3062.0,0.0,13.0,2304.0,43806.0,,,,0.0,4.0,4.0,4.0,4.0,4.0,4.0,4.0,4.0,4.0,4.0,4.0,4.0,4.0,4.0,4.0,4.0,4.0,4.0,4.0,4.0,4.0,4.0,4.0,4.0,4.0,4.0,4.0,4.0,4.0,4.0,4.0,4.0,100.0,,,,,,,,,,,,,,,,,,,,,,,,,,,,,,,,,,,38500.0,0.0,0.464738,0.303833,0.209961,0.804749,0.886827,-0.482969,0.057624,38.5,-20.833334,-25.5,,,,,,,,,,,,,,,,,,,,,,,,,,,,,,,,,,,,,,,,,,,,,,,,,,,,,,,,,,,,,,,,,,,,,,,,,,,,,,,,,,,,,,,,,,,,,,,,,,,,,,,,,,,,,,,,,,,,,,,,,,,,,,,,,,,,,,,,,,,,,,,,,,,,,,,,,,,,,,,,
1763975503.089391,22930.0,0.0,4347.94873,4341.538574,4441.922852,4465.769043,4369.230957,4503.589844,4495.641113,4336.666504,4527.179688,4354.487305,4452.820313,4468.589844,4527.307617,4363.333496,4344.102539,4481.922852,4503.589844,4494.615234,4470.769043,4326.794922,4335.128418,4510.256348,4465.384766,4437.436035,4334.487305,4514.743652,4330.512695,4501.282227,4458.846191,4343.846191,4463.077148,4454.871582,2824.0,0.0,13.0,2560.0,43814.0,,,,0.0,4.0,4.0,4.0,4.0,4.0,4.0,4.0,4.0,4.0,4.0,4.0,4.0,4.0,4.0,4.0,4.0,4.0,4.0,4.0,4.0,4.0,4.0,4.0,4.0,4.0,4.0,4.0,4.0,4.0,4.0,4.0,4.0,100.0,,,,,,,,,,,,,,,,,,,,,,,,,,,,,,,,,,,,,,,,,,,,,,,,,,,,,,,,,,,,,,,,,,,,,,,,,,,,,,,,,,,,,,,,,,,,,,,,,,,,,,,,,,,,,,,,,,,,,,,,,,,,,,,,,,,,,,,,,,,,,,,,,,,,,,,,,,,,,,,,,,,,,,,,,,,,,,,,,,,,,,,,,,,,,,,,,,,,,,,,,,,,,,
1763975503.093297,22931.0,0.0,4380.384766,4374.102539,4479.358887,4500.256348,4397.436035,4531.282227,4529.358887,4373.589844,4560.641113,4377.436035,4486.666504,4500.256348,4562.307617,4395.0,4382.436035,4510.769043,4535.128418,4531.666504,4510.769043,4368.717773,4375.512695,4550.512695,4502.692383,4476.025879,4369.871582,4549.230957,4366.410156,4537.179688,4491.410156,4379.102539,4498.333496,4485.0,3021.0,0.0,13.0,2560.0,43814.0,,,,0.0,4.0,4.0,4.0,4.0,4.0,4.0,4.0,4.0,4.0,4.0,4.0,4.0,4.0,4.0,4.0,4.0,4.0,4.0,4.0,4.0,4.0,4.0,4.0,4.0,4.0,4.0,4.0,4.0,4.0,4.0,4.0,4.0,100.0,,,,,,,,,,,,,,,,,,,,,,,,,,,,,,,,,,,,,,,,,,,,,,,,,,,,,,,,,,,,,,,,,,,,,,,,,,,,,,,,,,,,,,,,,,,,,,,,,,,,,,,,,,,,,,,,,,,,,,,,,,,,,,,,,,,,,,,,,,,,,,,,,,,,,,,,,,,,,,,,,,,,,,,,,,,,,,,,,,,,,,,,,,,,,,,,,,,,,,,,,,,,,,
1763975503.097203,22932.0,0.0,4419.487305,4411.025879,4518.846191,4539.615234,4427.563965,4558.974121,4568.461426,4414.871582,4597.436035,4411.410156,4523.589844,4535.384766,4600.128418,4429.102539,4426.153809,4539.871582,4568.077148,4566.282227,4551.410156,4408.589844,4415.897461,4592.307617,4543.974121,4516.666504,4410.384766,4590.256348,4408.077148,4578.846191,4527.94873,4420.128418,4537.94873,4517.820313,3000.0,0.0,13.0,2560.0,43821.0,,,,0.0,4.0,4.0,4.0,4.0,4.0,4.0,4.0,4.0,4.0,4.0,4.0,4.0,4.0,4.0,4.0,4.0,4.0,4.0,4.0,4.0,4.0,4.0,4.0,4.0,4.0,4.0,4.0,4.0,4.0,4.0,4.0,4.0,100.0,,,,,,,,,,,,,,,,,,,,,,,,,,,,,,,,,,,,,,,,,,,,,,,,,,,,,,,,,,,,,,,,,,,,,,,,,,,,,,,,,,,,,,,,,,,,,,,,,,,,,,,,,,,,,,,,,,,,,,,,,,,,,,,,,,,,,,,,,,,,,,,,,,,,,,,,,,,,,,,,,,,,,,,,,,,,,,,,,,,,,,,,,,,,,,,,,,,,,,,,,,,,,,
1763975503.101109,22933.0,0.0,4435.256348,4423.077148,4529.487305,4552.820313,4434.358887,4563.589844,4583.077148,4427.820313,4607.436035,4425.128418,4534.230957,4546.410156,4611.410156,4438.974121,4441.922852,4545.769043,4576.794922,4570.384766,4562.563965,4415.256348,4425.384766,4605.128418,4558.461426,4528.333496,4424.615234,4605.384766,4423.461426,4594.487305,4539.871582,4435.128418,4551.025879,4527.05127,2921.0,0.0,13.0,2560.0,43821.0,,,,0.0,4.0,4.0,4.0,4.0,4.0,4.0,4.0,4.0,4.0,4.0,4.0,4.0,4.0,4.0,4.0,4.0,4.0,4.0,4.0,4.0,4.0,4.0,4.0,4.0,4.0,4.0,4.0,4.0,4.0,4.0,4.0,4.0,100.0,,,,,,,,,,,,,,,,,,,,,,,,,,,,,,,,,,,38501.0,0.0,0.464697,0.304016,0.210022,0.804688,0.874618,-0.489806,0.057624,38.5,-20.833334,-25.5,,,,,,,,,,,,,,,,,,,,,,,,,,,,,,,,,,,,,,,,,,,,,,,,,,,,,,,,,,,,,,,,,,,,,,,,,,,,,,,,,,,,,,,,,,,,,,,,,,,,,,,,,,,,,,,,,,,,,,,,,,,,,,,,,,,,,,,,,,,,,,,,,,,,,,,,,,,,,,,,
1763975503.105015,22934.0,0.0,4418.974121,4403.461426,4505.897461,4532.692383,4413.974121,4541.794922,4565.256348,4404.743652,4584.615234,4409.743652,4512.94873,4527.307617,4589.615234,4419.615234,4419.743652,4526.666504,4557.05127,4542.179688,4538.717773,4386.153809,4400.641113,4583.717773,4539.871582,4505.641113,4404.871582,4584.615234,4403.717773,4575.897461,4520.384766,4415.897461,4530.512695,4507.692383,2992.0,0.0,13.0,2304.0,43829.0,,,,0.0,4.0,4.0,4.0,4.0,4.0,4.0,4.0,4.0,4.0,4.0,4.0,4.0,4.0,4.0,4.0,4.0,4.0,4.0,4.0,4.0,4.0,4.0,4.0,4.0,4.0,4.0,4.0,4.0,4.0,4.0,4.0,4.0,100.0,,,,,,,,,,,,,,,,,,,,,,,,,,,,,,,,,,,,,,,,,,,,,,,,,,,,,,,,,,,,,,,,,,,,,,,,,,,,,,,,,,,,,,,,,,,,,,,,,,,,,,,,,,,,,,,,,,,,,,,,,,,,,,,,,,,,,,,,,,,,,,,,,,,,,,,,,,,,,,,,,,,,,,,,,,,,,,,,,,,,,,,,,,,,,,,,,,,,,,,,,,,,,,
1763975503.108921,22935.0,0.0,4387.820313,4370.384766,4469.487305,4498.333496,4383.974121,4510.897461,4531.666504,4366.153809,4549.358887,4381.922852,4479.358887,4495.769043,4553.846191,4387.94873,4378.846191,4501.538574,4527.436035,4505.384766,4501.153809,4346.410156,4365.256348,4550.512695,4508.717773,4471.025879,4370.512695,4546.538574,4367.820313,4541.794922,4488.205078,4381.410156,4495.769043,4477.692383,2937.0,0.0,13.0,2304.0,43829.0,,,,0.0,4.0,4.0,4.0,4.0,4.0,4.0,4.0,4.0,4.0,4.0,4.0,4.0,4.0,4.0,4.0,4.0,4.0,4.0,4.0,4.0,4.0,4.0,4.0,4.0,4.0,4.0,4.0,4.0,4.0,4.0,4.0,4.0,100.0,,,,,,,,,,,,,,,,,,,,,,,,,,,,,,,,,,,,,,,,,,,,,,,,,,,,,,,,,,,,,,,,,,,,,,,,,,,,,,,,,,,,,,,,,,,,,,,,,,,,,,,,,,,,,,,,,,,,,,,,,,,,,,,,,,,,,,,,,,,,,,,,,,,,,,,,,,,,,,,,,,,,,,,,,,,,,,,,,,,,,,,,,,,,,,,,,,,,,,,,,,,,,,
1763975503.112827,22936.0,0.0,4367.563965,4350.0,4448.461426,4477.563965,4367.563965,4493.333496,4507.94873,4341.538574,4528.974121,4365.897461,4459.230957,4476.666504,4530.769043,4367.307617,4349.358887,4490.897461,4512.05127,4488.205078,4479.358887,4328.077148,4348.589844,4533.974121,4492.05127,4453.205078,4350.256348,4520.897461,4344.487305,4520.256348,4469.358887,4359.615234,4474.615234,4460.769043,2893.0,0.0,13.0,1536.0,43837.0,,,,0.0,4.0,4.0,4.0,4.0,4.0,4.0,4.0,4.0,4.0,4.0,4.0,4.0,4.0,4.0,4.0,4.0,4.0,4.0,4.0,4.0,4.0,4.0,4.0,4.0,4.0,4.0,4.0,4.0,4.0,4.0,4.0,4.0,100.0,,,,,,,,,,,,,,,,,,,,,,,,,,,,,,,,,,,,,,,,,,,,,,,,,,,,,,,,,,,,,,,,,,,,,,,,,,,,,,,,,,,,,,,,,,,,,,,,,,,,,,,,,,,,,,,,,,,,,,,,,,,,,,,,,,,,,,,,,,,,,,,,,,,,,,,,,,,,,,,,,,,,,,,,,,,,,,,,,,,,,,,,,,,,,,,,,,,,,,,,,,,,,,
1763975503.116733,22937.0,0.0,4372.94873,4355.897461,4456.538574,4485.128418,4375.256348,4499.743652,4508.974121,4346.666504,4536.922852,4372.563965,4464.743652,4482.563965,4534.615234,4368.846191,4349.615234,4500.641113,4521.666504,4501.410156,4487.820313,4346.153809,4363.205078,4547.307617,4502.820313,4465.897461,4359.871582,4526.410156,4350.384766,4526.794922,4477.563965,4366.025879,4481.666504,4468.077148,2856.0,0.0,13.0,1536.0,43837.0,,,,0.0,4.0,4.0,4.0,4.0,4.0,4.0,4.0,4.0,4.0,4.0,4.0,4.0,4.0,4.0,4.0,4.0,4.0,4.0,4.0,4.0,4.0,4.0,4.0,4.0,4.0,4.0,4.0,4.0,4.0,4.0,4.0,4.0,100.0,,,,,,,,,,,,,,,,,,,,,,,,,,,,,,,,,,,38502.0,0.0,0.464724,0.304016,0.209961,0.804688,0.878525,-0.477597,0.058601,39.333332,-20.833334,-26.0,,,,,,,,,,,,,,,,,,,,,,,,,,,,,,,,,,,,,,,,,,,,,,,,,,,,,,,,,,,,,,,,,,,,,,,,,,,,,,,,,,,,,,,,,,,,,,,,,,,,,,,,,,,,,,,,,,,,,,,,,,,,,,,,,,,,,,,,,,,,,,,,,,,,,,,,,,,,,,,,
1763975503.120639,22938.0,0.0,4398.461426,4382.05127,4486.538574,4514.487305,4399.358887,4523.589844,4530.641113,4374.487305,4565.897461,4394.487305,4488.589844,4507.94873,4559.358887,4387.179688,4376.282227,4519.615234,4548.846191,4533.717773,4517.94873,4390.641113,4398.077148,4580.897461,4532.94873,4499.871582,4392.94873,4558.589844,4380.0,4555.897461,4505.641113,4394.615234,4510.384766,4493.205078,2793.0,0.0,13.0,1792.0,43845.0,,,,0.0,4.0,4.0,4.0,4.0,4.0,4.0,4.0,4.0,4.0,4.0,4.0,4.0,4.0,4.0,4.0,4.0,4.0,4.0,4.0,4.0,4.0,4.0,4.0,4.0,4.0,4.0,4.0,4.0,4.0,4.0,4.0,4.0,100.0,,,,,,,,,,,,,,,,,,,,,,,,,,,,,,,,,,,,,,,,,,,,,,,,,,,,,,,,,,,,,,,,,,,,,,,,,,,,,,,,,,,,,,,,,,,,,,,,,,,,,,,,,,,,,,,,,,,,,,,,,,,,,,,,,,,,,,,,,,,,,,,,,,,,,,,,,,,,,,,,,,,,,,,,,,,,,,,,,,,,,,,,,,,,,,,,,,,,,,,,,,,,,,
1763975503.124545,22939.0,0.0,4426.666504,4410.256348,4519.487305,4546.153809,4423.205078,4548.974121,4556.922852,4405.0,4596.794922,4417.436035,4513.974121,4536.153809,4587.563965,4408.077148,4410.512695,4532.05127,4576.025879,4563.846191,4548.461426,4436.410156,4430.769043,4612.692383,4563.205078,4533.333496,4429.230957,4596.794922,4413.846191,4588.589844,4534.487305,4426.282227,4542.179688,4520.769043,3017.0,0.0,13.0,1792.0,43845.0,,,,0.0,4.0,4.0,4.0,4.0,4.0,4.0,4.0,4.0,4.0,4.0,4.0,4.0,4.0,4.0,4.0,4.0,4.0,4.0,4.0,4.0,4.0,4.0,4.0,4.0,4.0,4.0,4.0,4.0,4.0,4.0,4.0,4.0,100.0,,,,,,,,,,,,,,,,,,,,,,,,,,,,,,,,,,,,,,,,,,,,,,,,,,,,,,,,,,,,,,,,,,,,,,,,,,,,,,,,,,,,,,,,,,,,,,,,,,,,,,,,,,,,,,,,,,,,,,,,,,,,,,,,,,,,,,,,,,,,,,,,,,,,,,,,,,,,,,,,,,,,,,,,,,,,,,,,,,,,,,,,,,,,,,,,,,,,,,,,,,,,,,
1763975503.128451,22940.0,0.0,4442.307617,4425.641113,4539.230957,4564.615234,4434.871582,4563.974121,4573.205078,4421.538574,4614.230957,4433.333496,4527.692383,4553.205078,4603.974121,4420.769043,4433.717773,4531.025879,4590.0,4577.436035,4562.05127,4461.538574,4445.128418,4626.410156,4579.358887,4549.102539,4450.641113,4620.769043,4434.230957,4607.563965,4549.102539,4444.615234,4561.282227,4538.205078,2964.0,0.0,13.0,2048.0,43853.0,,,,0.0,4.0,4.0,4.0,4.0,4.0,4.0,4.0,4.0,4.0,4.0,4.0,4.0,4.0,4.0,4.0,4.0,4.0,4.0,4.0,4.0,4.0,4.0,4.0,4.0,4.0,4.0,4.0,4.0,4.0,4.0,4.0,4.0,100.0,,,,,,,,,,,,,,,,,,,,,,,,,,,,,,,,,,,,,,,,,,,,,,,,,,,,,,,,,,,,,,,,,,,,,,,,,,,,,,,,,,,,,,,,,,,,,,,,,,,,,,,,,,,,,,,,,,,,,,,,,,,,,,,,,,,,,,,,,,,,,,,,,,,,,,,,,,,,,,,,,,,,,,,,,,,,,,,,,,,,,,,,,,,,,,,,,,,,,,,,,,,,,,
1763975503.132357,22941.0,0.0,4441.538574,4425.384766,4541.538574,4566.666504,4433.461426,4566.666504,4575.128418,4421.666504,4615.769043,4442.307617,4528.077148,4555.128418,4604.871582,4423.846191,4437.94873,4522.05127,4588.974121,4573.974121,4556.410156,4459.487305,4440.128418,4621.025879,4578.974121,4544.615234,4452.307617,4623.846191,4436.153809,4607.820313,4547.179688,4445.384766,4563.974121,4543.077148,2828.0,0.0,13.0,2048.0,43853.0,,,,0.0,4.0,4.0,4.0,4.0,4.0,4.0,4.0,4.0,4.0,4.0,4.0,4.0,4.0,4.0,4.0,4.0,4.0,4.0,4.0,4.0,4.0,4.0,4.0,4.0,4.0,4.0,4.0,4.0,4.0,4.0,4.0,4.0,100.0,,,,,,,,,,,,,,,,,,,,,,,,,,,,,,,,,,,38503.0,0.0,0.464617,0.304138,0.210022,0.804688,0.872665,-0.494201,0.047369,37.166668,-20.166666,-26.666666,,,,,,,,,,,,,,,,,,,,,,,,,,,,,,,,,,,,,,,,,,,,,,,,,,,,,,,,,,,,,,,,,,,,,,,,,,,,,,,,,,,,,,,,,,,,,,,,,,,,,,,,,,,,,,,,,,,,,,,,,,,,,,,,,,,,,,,,,,,,,,,,,,,,,,,,,,,,,,,,
