title:Sad1, start timestamp:1764667382.153101, stop timestamp:1764667401.081623, headset type:FLEX2, headset serial:F30002B4, headset firmware:2f10, channels:283, sampling rate:eeg_256;mot_64;pow_8, samples:4561      , version:2.2, ,,,,,,,,,,,,,,,,,,,,,,,,,,,,,,,,,,,,,,,,,,,,,,,,,,,,,,,,,,,,,,,,,,,,,,,,,,,,,,,,,,,,,,,,,,,,,,,,,,,,,,,,,,,,,,,,,,,,,,,,,,,,,,,,,,,,,,,,,,,,,,,,,,,,,,,,,,,,,,,,,,,,,,,,,,,,,,,,,,,,,,,,,,,,,,,,,,,,,,,,,,,,,,,,,,,,,,,,,,,,,,,,,,,,,,,,,,,,,,,,,,,,,,,,,,,,,,,,,,,,,,,,,,,,,,,,
Timestamp,EEG.Counter,EEG.Interpolated,EEG.Cz,EEG.Fz,EEG.Fp1,EEG.F7,EEG.F3,EEG.FC1,EEG.C3,EEG.FC5,EEG.FT9,EEG.T7,EEG.CP5,EEG.CP1,EEG.P3,EEG.P7,EEG.PO9,EEG.O1,EEG.Pz,EEG.Oz,EEG.O2,EEG.PO10,EEG.P8,EEG.P4,EEG.CP2,EEG.CP6,EEG.T8,EEG.FT10,EEG.FC6,EEG.C4,EEG.FC2,EEG.F4,EEG.F8,EEG.Fp2,EEG.RawCq,EEG.Battery,EEG.BatteryPercent,EEG.FwBufferSize,EEG.FwClockTime,MarkerIndex,MarkerType,MarkerValueInt,EEG.MarkerHardware,CQ.Cz,CQ.Fz,CQ.Fp1,CQ.F7,CQ.F3,CQ.FC1,CQ.C3,CQ.FC5,CQ.FT9,CQ.T7,CQ.CP5,CQ.CP1,CQ.P3,CQ.P7,CQ.PO9,CQ.O1,CQ.Pz,CQ.Oz,CQ.O2,CQ.PO10,CQ.P8,CQ.P4,CQ.CP2,CQ.CP6,CQ.T8,CQ.FT10,CQ.FC6,CQ.C4,CQ.FC2,CQ.F4,CQ.F8,CQ.Fp2,CQ.Overall,EQ.SampleRateQuality,EQ.OVERALL,EQ.Cz,EQ.Fz,EQ.Fp1,EQ.F7,EQ.F3,EQ.FC1,EQ.C3,EQ.FC5,EQ.FT9,EQ.T7,EQ.CP5,EQ.CP1,EQ.P3,EQ.P7,EQ.PO9,EQ.O1,EQ.Pz,EQ.Oz,EQ.O2,EQ.PO10,EQ.P8,EQ.P4,EQ.CP2,EQ.CP6,EQ.T8,EQ.FT10,EQ.FC6,EQ.C4,EQ.FC2,EQ.F4,EQ.F8,EQ.Fp2,MOT.CounterMems,MOT.InterpolatedMems,MOT.Q0,MOT.Q1,MOT.Q2,MOT.Q3,MOT.AccX,MOT.AccY,MOT.AccZ,MOT.MagX,MOT.MagY,MOT.MagZ,POW.Cz.Theta,POW.Cz.Alpha,POW.Cz.BetaL,POW.Cz.BetaH,POW.Cz.Gamma,POW.Fz.Theta,POW.Fz.Alpha,POW.Fz.BetaL,POW.Fz.BetaH,POW.Fz.Gamma,POW.Fp1.Theta,POW.Fp1.Alpha,POW.Fp1.BetaL,POW.Fp1.BetaH,POW.Fp1.Gamma,POW.F7.Theta,POW.F7.Alpha,POW.F7.BetaL,POW.F7.BetaH,POW.F7.Gamma,POW.F3.Theta,POW.F3.Alpha,POW.F3.BetaL,POW.F3.BetaH,POW.F3.Gamma,POW.FC1.Theta,POW.FC1.Alpha,POW.FC1.BetaL,POW.FC1.BetaH,POW.FC1.Gamma,POW.C3.Theta,POW.C3.Alpha,POW.C3.BetaL,POW.C3.BetaH,POW.C3.Gamma,POW.FC5.Theta,POW.FC5.Alpha,POW.FC5.BetaL,POW.FC5.BetaH,POW.FC5.Gamma,POW.FT9.Theta,POW.FT9.Alpha,POW.FT9.BetaL,POW.FT9.BetaH,POW.FT9.Gamma,POW.T7.Theta,POW.T7.Alpha,POW.T7.BetaL,POW.T7.BetaH,POW.T7.Gamma,POW.CP5.Theta,POW.CP5.Alpha,POW.CP5.BetaL,POW.CP5.BetaH,POW.CP5.Gamma,POW.CP1.Theta,POW.CP1.Alpha,POW.CP1.BetaL,POW.CP1.BetaH,POW.CP1.Gamma,POW.P3.Theta,POW.P3.Alpha,POW.P3.BetaL,POW.P3.BetaH,POW.P3.Gamma,POW.P7.Theta,POW.P7.Alpha,POW.P7.BetaL,POW.P7.BetaH,POW.P7.Gamma,POW.PO9.Theta,POW.PO9.Alpha,POW.PO9.BetaL,POW.PO9.BetaH,POW.PO9.Gamma,POW.O1.Theta,POW.O1.Alpha,POW.O1.BetaL,POW.O1.BetaH,POW.O1.Gamma,POW.Pz.Theta,POW.Pz.Alpha,POW.Pz.BetaL,POW.Pz.BetaH,POW.Pz.Gamma,POW.Oz.Theta,POW.Oz.Alpha,POW.Oz.BetaL,POW.Oz.BetaH,POW.Oz.Gamma,POW.O2.Theta,POW.O2.Alpha,POW.O2.BetaL,POW.O2.BetaH,POW.O2.Gamma,POW.PO10.Theta,POW.PO10.Alpha,POW.PO10.BetaL,POW.PO10.BetaH,POW.PO10.Gamma,POW.P8.Theta,POW.P8.Alpha,POW.P8.BetaL,POW.P8.BetaH,POW.P8.Gamma,POW.P4.Theta,POW.P4.Alpha,POW.P4.BetaL,POW.P4.BetaH,POW.P4.Gamma,POW.CP2.Theta,POW.CP2.Alpha,POW.CP2.BetaL,POW.CP2.BetaH,POW.CP2.Gamma,POW.CP6.Theta,POW.CP6.Alpha,POW.CP6.BetaL,POW.CP6.BetaH,POW.CP6.Gamma,POW.T8.Theta,POW.T8.Alpha,POW.T8.BetaL,POW.T8.BetaH,POW.T8.Gamma,POW.FT10.Theta,POW.FT10.Alpha,POW.FT10.BetaL,POW.FT10.BetaH,POW.FT10.Gamma,POW.FC6.Theta,POW.FC6.Alpha,POW.FC6.BetaL,POW.FC6.BetaH,POW.FC6.Gamma,POW.C4.Theta,POW.C4.Alpha,POW.C4.BetaL,POW.C4.BetaH,POW.C4.Gamma,POW.FC2.Theta,POW.FC2.Alpha,POW.FC2.BetaL,POW.FC2.BetaH,POW.FC2.Gamma,POW.F4.Theta,POW.F4.Alpha,POW.F4.BetaL,POW.F4.BetaH,POW.F4.Gamma,POW.F8.Theta,POW.F8.Alpha,POW.F8.BetaL,POW.F8.BetaH,POW.F8.Gamma,POW.Fp2.Theta,POW.Fp2.Alpha,POW.Fp2.BetaL,POW.Fp2.BetaH,POW.Fp2.Gamma
1764667392.531364,7570,1,4379.220703,4374.664551,4450.611328,4502.72168,4364.713867,4502.978516,4523.234863,4371.351074,4571.282227,4391.982422,4483.303711,4506.54834,4561.696289,4395.887695,4389.12207,4508.855957,4539.881836,4536.982422,4512.94873,4381.183594,4392.583984,4564.092773,4506.696289,4485.068848,4398.077148,4547.455566,4365.87793,4547.445801,4499.753418,4379.378906,4489.201172,4457.918945,1774,0,14,0,0,1,1,5,0,4,4,4,4,4,4,4,4,4,4,4,4,4,4,4,4,4,4,4,4,4,4,4,4,4,4,4,4,4,4,4,4,100,,,,,,,,,,,,,,,,,,,,,,,,,,,,,,,,,,,,,,,,,,,,,,,,,,,,,,,,,,,,,,,,,,,,,,,,,,,,,,,,,,,,,,,,,,,,,,,,,,,,,,,,,,,,,,,,,,,,,,,,,,,,,,,,,,,,,,,,,,,,,,,,,,,,,,,,,,,,,,,,,,,,,,,,,,,,,,,,,,,,,,,,,,,,,,,,,,,,,,,,,,,,,,
1764667392.535270,7571,1,4379.842285,4374.250488,4449.14209,4502.268066,4366.064941,4503.293945,4523.293945,4372.130371,4571.410156,4392.998047,4483.629395,4507.208984,4561.883789,4395.867676,4390.1875,4508.875977,4540.029785,4538.895508,4514.487305,4381.242676,4393.13623,4564.970215,4507.78125,4485.463379,4398.589844,4548.26416,4366.479492,4548.362793,4500.029785,4378.905273,4489.013672,4458.116211,2783,0,14,0,0,,,,0,4,4,4,4,4,4,4,4,4,4,4,4,4,4,4,4,4,4,4,4,4,4,4,4,4,4,4,4,4,4,4,4,100,,,,,,,,,,,,,,,,,,,,,,,,,,,,,,,,,,,34659,1,0.490223,-0.496063,-0.370163,0.613663,0.970822,-0.242705,0.041997,5.166667,49.291668,-8.083333,,,,,,,,,,,,,,,,,,,,,,,,,,,,,,,,,,,,,,,,,,,,,,,,,,,,,,,,,,,,,,,,,,,,,,,,,,,,,,,,,,,,,,,,,,,,,,,,,,,,,,,,,,,,,,,,,,,,,,,,,,,,,,,,,,,,,,,,,,,,,,,,,,,,,,,,,,,,,,,,
1764667392.539176,7572,1,4380.463379,4373.836426,4447.672363,4501.814453,4367.416016,4503.609375,4523.353027,4372.90918,4571.538574,4394.013672,4483.95459,4507.869629,4562.070801,4395.848145,4391.252441,4508.895508,4540.177734,4540.808594,4516.025879,4381.301758,4393.688477,4565.848145,4508.865723,4485.85791,4399.102539,4549.072754,4367.081055,4549.280273,4500.305664,4378.432129,4488.82666,4458.313477,2576,0,14,0,0,,,,0,4,4,4,4,4,4,4,4,4,4,4,4,4,4,4,4,4,4,4,4,4,4,4,4,4,4,4,4,4,4,4,4,100,,,,,,,,,,,,,,,,,,,,,,,,,,,,,,,,,,,,,,,,,,,,,,,,,,,,,,,,,,,,,,,,,,,,,,,,,,,,,,,,,,,,,,,,,,,,,,,,,,,,,,,,,,,,,,,,,,,,,,,,,,,,,,,,,,,,,,,,,,,,,,,,,,,,,,,,,,,,,,,,,,,,,,,,,,,,,,,,,,,,,,,,,,,,,,,,,,,,,,,,,,,,,,
1764667392.543082,7573,1,4381.084961,4373.421875,4446.203125,4501.36084,4368.76709,4503.925293,4523.412109,4373.688477,4571.666504,4395.029785,4484.280273,4508.530762,4562.258301,4395.828613,4392.317383,4508.915039,4540.325684,4542.72168,4517.563965,4381.36084,4394.240723,4566.726074,4509.950684,4486.252441,4399.615234,4549.881836,4367.682617,4550.197266,4500.582031,4377.958496,4488.63916,4458.510742,2829,0,14,0,0,,,,0,4,4,4,4,4,4,4,4,4,4,4,4,4,4,4,4,4,4,4,4,4,4,4,4,4,4,4,4,4,4,4,4,100,,,,,,,,,,,,,,,,,,,,,,,,,,,,,,,,,,,34660,1,0.490199,-0.496155,-0.370148,0.613617,0.972775,-0.245147,0.037114,4.833333,49.083332,-7.666667,,,,,,,,,,,,,,,,,,,,,,,,,,,,,,,,,,,,,,,,,,,,,,,,,,,,,,,,,,,,,,,,,,,,,,,,,,,,,,,,,,,,,,,,,,,,,,,,,,,,,,,,,,,,,,,,,,,,,,,,,,,,,,,,,,,,,,,,,,,,,,,,,,,,,,,,,,,,,,,,
1764667392.546988,7574,1,4381.706055,4373.007813,4444.733887,4500.907227,4370.118164,4504.240723,4523.471191,4374.467285,4571.794922,4396.04541,4484.605469,4509.191406,4562.445801,4395.808594,4393.382813,4508.935059,4540.473145,4544.635254,4519.102539,4381.419922,4394.792969,4567.603516,4511.035645,4486.646973,4400.128418,4550.69043,4368.28418,4551.114258,4500.85791,4377.485352,4488.45166,4458.708008,2934,0,14,0,0,,,,0,4,4,4,4,4,4,4,4,4,4,4,4,4,4,4,4,4,4,4,4,4,4,4,4,4,4,4,4,4,4,4,4,100,,,,,,,,,,,,,,,,,,,,,,,,,,,,,,,,,,,,,,,,,,,,,,,,,,,,,,,,,,,,,,,,,,,,,,,,,,,,,,,,,,,,,,,,,,,,,,,,,,,,,,,,,,,,,,,,,,,,,,,,,,,,,,,,,,,,,,,,,,,,,,,,,,,,,,,,,,,,,,,,,,,,,,,,,,,,,,,,,,,,,,,,,,,,,,,,,,,,,,,,,,,,,,
1764667392.550894,7575,1,4382.327637,4372.59375,4443.26416,4500.453613,4371.469238,4504.556152,4523.530762,4375.246582,4571.922852,4397.061035,4484.931152,4509.852051,4562.633301,4395.789063,4394.447754,4508.95459,4540.621094,4546.54834,4520.641113,4381.479492,4395.345215,4568.481445,4512.120117,4487.041504,4400.641113,4551.499023,4368.885742,4552.031738,4501.134277,4377.011719,4488.26416,4458.905273,2836,0,14,0,0,,,,0,4,4,4,4,4,4,4,4,4,4,4,4,4,4,4,4,4,4,4,4,4,4,4,4,4,4,4,4,4,4,4,4,100,,,,,,,,,,,,,,,,,,,,,,,,,,,,,,,,,,,34661,1,0.490175,-0.496246,-0.370132,0.613571,0.974728,-0.247589,0.03223,4.5,48.875,-7.25,,,,,,,,,,,,,,,,,,,,,,,,,,,,,,,,,,,,,,,,,,,,,,,,,,,,,,,,,,,,,,,,,,,,,,,,,,,,,,,,,,,,,,,,,,,,,,,,,,,,,,,,,,,,,,,,,,,,,,,,,,,,,,,,,,,,,,,,,,,,,,,,,,,,,,,,,,,,,,,,
1764667392.554800,7576,0,4382.94873,4372.179688,4441.794922,4500,4372.820313,4504.871582,4523.589844,4376.025879,4572.05127,4398.077148,4485.256348,4510.512695,4562.820313,4395.769043,4395.512695,4508.974121,4540.769043,4548.461426,4522.179688,4381.538574,4395.897461,4569.358887,4513.205078,4487.436035,4401.153809,4552.307617,4369.487305,4552.94873,4501.410156,4376.538574,4488.077148,4459.102539,2737,0,14,2576,40792,,,,0,4,4,4,4,4,4,4,4,4,4,4,4,4,4,4,4,4,4,4,4,4,4,4,4,4,4,4,4,4,4,4,4,100,,,,,,,,,,,,,,,,,,,,,,,,,,,,,,,,,,,,,,,,,,,,,,,,,,,,,,,,,,,,,,,,,,,,,,,,,,,,,,,,,,,,,,,,,,,,,,,,,,,,,,,,,,,,,,,,,,,,,,,,,,,,,,,,,,,,,,,,,,,,,,,,,,,,,,,,,,,,,,,,,,,,,,,,,,,,,,,,,,,,,,,,,,,,,,,,,,,,,,,,,,,,,,
1764667392.558706,7577,0,4387.307617,4375.128418,4444.743652,4497.307617,4381.666504,4505.641113,4523.461426,4380.512695,4563.589844,4387.307617,4486.538574,4513.717773,4565.256348,4398.461426,4395.384766,4508.589844,4544.102539,4551.922852,4527.563965,4381.666504,4395.384766,4573.846191,4512.307617,4492.307617,4413.077148,4552.05127,4374.487305,4553.205078,4503.717773,4372.307617,4496.282227,4456.922852,2882,0,14,2576,40792,,,,0,4,4,4,4,4,4,4,4,4,4,4,4,4,4,4,4,4,4,4,4,4,4,4,4,4,4,4,4,4,4,4,4,100,,,,,,,,,,,,,,,,,,,,,,,,,,,,,,,,,,,34662,0,0.490152,-0.496338,-0.370117,0.613525,0.976682,-0.250031,0.027347,4.166667,48.666668,-6.833333,,,,,,,,,,,,,,,,,,,,,,,,,,,,,,,,,,,,,,,,,,,,,,,,,,,,,,,,,,,,,,,,,,,,,,,,,,,,,,,,,,,,,,,,,,,,,,,,,,,,,,,,,,,,,,,,,,,,,,,,,,,,,,,,,,,,,,,,,,,,,,,,,,,,,,,,,,,,,,,,
1764667392.562612,7578,1,4387.436035,4376.367676,4449.187988,4500.897461,4381.538574,4507.692383,4525.470215,4378.846191,4560.854492,4382.521484,4489.572754,4512.777832,4566.581055,4400.555664,4398.461426,4509.658203,4546.367676,4553.931641,4525.812012,4386.324707,4395.341797,4573.205078,4513.760742,4494.187988,4408.632324,4554.572754,4377.820313,4554.572754,4504.316406,4374.487305,4499.957031,4456.367676,1920,0,14,0,0,,,,0,4,4,4,4,4,4,4,4,4,4,4,4,4,4,4,4,4,4,4,4,4,4,4,4,4,4,4,4,4,4,4,4,100,,,,,,,,,,,,,,,,,,,,,,,,,,,,,,,,,,,,,,,,,,,,,,,,,,,,,,,,,,,,,,,,,,,,,,,,,,,,,,,,,,,,,,,,,,,,,,,,,,,,,,,,,,,,,,,,,,,,,,,,,,,,,,,,,,,,,,,,,,,,,,,,,,,,,,,,,,,,,,,,,,,,,,,,,,,,,,,,,,,,,,,,,,,,,,,,,,,,,,,,,,,,,,
1764667392.566518,7579,1,4387.563965,4377.606934,4453.632324,4504.487305,4381.410156,4509.743652,4527.478516,4377.179688,4558.119629,4377.734863,4492.606934,4511.837402,4567.905762,4402.649414,4401.538574,4510.726563,4548.632324,4555.939941,4524.060059,4390.98291,4395.299316,4572.563965,4515.213867,4496.068359,4404.187988,4557.094238,4381.153809,4555.939941,4504.914551,4376.666504,4503.632324,4455.812012,2566,0,14,0,0,,,,0,4,4,4,4,4,4,4,4,4,4,4,4,4,4,4,4,4,4,4,4,4,4,4,4,4,4,4,4,4,4,4,4,100,,,,,,,,,,,,,,,,,,,,,,,,,,,,,,,,,,,,,,,,,,,,,,,,,,,,,,,,,,,,,,,,,,,,,,,,,,,,,,,,,,,,,,,,,,,,,,,,,,,,,,,,,,,,,,,,,,,,,,,,,,,,,,,,,,,,,,,,,,,,,,,,,,,,,,,,,,,,,,,,,,,,,,,,,,,,,,,,,,,,,,,,,,,,,,,,,,,,,,,,,,,,,,
1764667392.570424,7580,0,4387.692383,4378.846191,4458.077148,4508.077148,4381.282227,4511.794922,4529.487305,4375.512695,4555.384766,4372.94873,4495.641113,4510.897461,4569.230957,4404.743652,4404.615234,4511.794922,4550.897461,4557.94873,4522.307617,4395.641113,4395.256348,4571.922852,4516.666504,4497.94873,4399.743652,4559.615234,4384.487305,4557.307617,4505.512695,4378.846191,4507.307617,4455.256348,2728,0,14,2575,40809,,,,0,4,4,4,4,4,4,4,4,4,4,4,4,4,4,4,4,4,4,4,4,4,4,4,4,4,4,4,4,4,4,4,4,100,,,,,,,,,,,,,,,,,,,,,,,,,,,,,,,,,,,,,,,,,,,,,,,,,,,,,,,,,,,,,,,,,,,,,,,,,,,,,,,,,,,,,,,,,,,,,,,,,,,,,,,,,,,,,,,,,,,,,,,,,,,,,,,,,,,,,,,,,,,,,,,,,,,,,,,,,,,,,,,,,,,,,,,,,,,,,,,,,,,,,,,,,,,,,,,,,,,,,,,,,,,,,,
1764667392.574330,7581,0,4385.897461,4381.153809,4459.358887,4510.512695,4371.153809,4513.974121,4533.461426,4371.922852,4565.512695,4376.666504,4497.436035,4507.692383,4567.05127,4405.384766,4404.615234,4512.436035,4547.05127,4553.461426,4514.743652,4394.102539,4397.179688,4565.384766,4516.282227,4495,4387.307617,4561.282227,4379.871582,4557.820313,4505.256348,4382.563965,4502.436035,4446.666504,2536,0,14,2575,40809,,,,0,4,4,4,4,4,4,4,4,4,4,4,4,4,4,4,4,4,4,4,4,4,4,4,4,4,4,4,4,4,4,4,4,100,,,,,,,,,,,,,,,,,,,,,,,,,,,,,,,,,,,34663,0,0.489981,-0.496521,-0.3703,0.613403,0.984007,-0.245147,0.023929,7.333333,46.5,-9.5,,,,,,,,,,,,,,,,,,,,,,,,,,,,,,,,,,,,,,,,,,,,,,,,,,,,,,,,,,,,,,,,,,,,,,,,,,,,,,,,,,,,,,,,,,,,,,,,,,,,,,,,,,,,,,,,,,,,,,,,,,,,,,,,,,,,,,,,,,,,,,,,,,,,,,,,,,,,,,,,
1764667392.578236,7582,0,4386.282227,4384.230957,4461.538574,4510.769043,4363.589844,4514.743652,4536.666504,4371.153809,4576.538574,4385.384766,4498.846191,4508.077148,4566.410156,4406.666504,4402.692383,4511.666504,4543.077148,4547.436035,4508.589844,4388.974121,4397.94873,4561.025879,4514.743652,4492.94873,4369.871582,4561.666504,4375.769043,4556.794922,4504.615234,4381.666504,4498.589844,4443.077148,2714,0,14,2576,40816,,,,0,4,4,4,4,4,4,4,4,4,4,4,4,4,4,4,4,4,4,4,4,4,4,4,4,4,4,4,4,4,4,4,4,100,,,,,,,,,,,,,,,,,,,,,,,,,,,,,,,,,,,,,,,,,,,,,,,,,,,,,,,,,,,,,,,,,,,,,,,,,,,,,,,,,,,,,,,,,,,,,,,,,,,,,,,,,,,,,,,,,,,,,,,,,,,,,,,,,,,,,,,,,,,,,,,,,,,,,,,,,,,,,,,,,,,,,,,,,,,,,,,,,,,,,,,,,,,,,,,,,,,,,,,,,,,,,,
1764667392.582142,7583,0,4388.974121,4385.897461,4464.743652,4510.256348,4365,4514.487305,4539.230957,4374.358887,4582.307617,4397.820313,4500,4512.563965,4569.358887,4409.102539,4400.897461,4510.256348,4542.307617,4542.563965,4505.897461,4383.589844,4397.563965,4561.025879,4513.846191,4493.077148,4351.538574,4561.282227,4376.025879,4555,4503.717773,4378.205078,4497.692383,4448.974121,2826,0,14,2576,40816,,,,0,4,4,4,4,4,4,4,4,4,4,4,4,4,4,4,4,4,4,4,4,4,4,4,4,4,4,4,4,4,4,4,4,100,,,,,,,,,,,,,,,,,,,,,,,,,,,,,,,,,,,,,,,,,,,,,,,,,,,,,,,,,,,,,,,,,,,,,,,,,,,,,,,,,,,,,,,,,,,,,,,,,,,,,,,,,,,,,,,,,,,,,,,,,,,,,,,,,,,,,,,,,,,,,,,,,,,,,,,,,,,,,,,,,,,,,,,,,,,,,,,,,,,,,,,,,,,,,,,,,,,,,,,,,,,,,,
1764667392.586048,7584,0,4392.05127,4384.743652,4466.922852,4511.922852,4376.410156,4514.358887,4541.282227,4381.410156,4578.717773,4408.205078,4501.153809,4519.102539,4575.128418,4411.282227,4399.871582,4509.358887,4545.384766,4539.871582,4506.666504,4380.897461,4396.666504,4563.974121,4514.487305,4494.743652,4342.692383,4560.641113,4381.410156,4553.589844,4503.077148,4375.641113,4499.230957,4460,2796,0,14,2576,40823,,,,0,4,4,4,4,4,4,4,4,4,4,4,4,4,4,4,4,4,4,4,4,4,4,4,4,4,4,4,4,4,4,4,4,100,,,,,,,,,,,,,,,,,,,,,,,,,,,,,,,,,,,,,,,,,,,,,,,,,,,,,,,,,,,,,,,,,,,,,,,,,,,,,,,,,,,,,,,,,,,,,,,,,,,,,,,,,,,,,,,,,,,,,,,,,,,,,,,,,,,,,,,,,,,,,,,,,,,,,,,,,,,,,,,,,,,,,,,,,,,,,,,,,,,,,,,,,,,,,,,,,,,,,,,,,,,,,,
1764667392.589954,7585,0,4393.205078,4380.897461,4467.436035,4517.307617,4390.512695,4515,4542.307617,4388.974121,4567.692383,4409.615234,4501.794922,4523.461426,4580.897461,4411.410156,4398.205078,4509.615234,4549.615234,4538.205078,4508.974121,4380.641113,4396.666504,4566.410156,4516.025879,4495.769043,4351.794922,4559.102539,4388.077148,4552.94873,4502.94873,4375.641113,4501.922852,4467.179688,2916,0,14,2576,40823,,,,0,4,4,4,4,4,4,4,4,4,4,4,4,4,4,4,4,4,4,4,4,4,4,4,4,4,4,4,4,4,4,4,4,100,,,,,,,,,,,,,,,,,,,,,,,,,,,,,,,,,,,34664,0,0.49009,-0.496399,-0.370117,0.613525,0.984007,-0.245147,0.023929,6.333333,48.333332,-8.5,,,,,,,,,,,,,,,,,,,,,,,,,,,,,,,,,,,,,,,,,,,,,,,,,,,,,,,,,,,,,,,,,,,,,,,,,,,,,,,,,,,,,,,,,,,,,,,,,,,,,,,,,,,,,,,,,,,,,,,,,,,,,,,,,,,,,,,,,,,,,,,,,,,,,,,,,,,,,,,,
1764667392.593860,7586,0,4391.666504,4376.666504,4466.666504,4524.102539,4396.666504,4515.512695,4541.410156,4393.077148,4555.897461,4400.512695,4501.538574,4522.436035,4582.94873,4408.333496,4394.230957,4510.384766,4551.282227,4535.897461,4509.743652,4380.512695,4396.794922,4565.641113,4516.794922,4494.871582,4377.307617,4556.922852,4391.282227,4552.563965,4502.820313,4377.179688,4505.512695,4464.358887,2637,0,14,2573,40831,,,,0,4,4,4,4,4,4,4,4,4,4,4,4,4,4,4,4,4,4,4,4,4,4,4,4,4,4,4,4,4,4,4,4,100,,,,,,,,,,,,,,,,,,,,,,,,,,,,,,,,,,,,,,,,,,,,,,,,,,,,,,,,,,,,,,,,,,,,,,,,,,,,,,,,,,,,,,,,,,,,,,,,,,,,,,,,,,,,,,,,,,,,,,,,,,,,,,,,,,,,,,,,,,,,,,,,,,,,,,,,,,,,,,,,,,,,,,,,,,,,,,,,,,,,,,,,,,,,,,,,,,,,,,,,,,,,,,
1764667392.597766,7587,0,4388.461426,4374.743652,4466.282227,4526.794922,4389.743652,4515,4538.461426,4391.410156,4551.153809,4388.077148,4500.128418,4516.153809,4579.743652,4403.077148,4388.077148,4510.128418,4548.589844,4531.153809,4506.922852,4379.102539,4395.897461,4560.897461,4515.384766,4492.436035,4405.641113,4555.128418,4388.717773,4551.794922,4502.436035,4378.589844,4510,4453.717773,2862,0,14,2573,40831,,,,0,4,4,4,4,4,4,4,4,4,4,4,4,4,4,4,4,4,4,4,4,4,4,4,4,4,4,4,4,4,4,4,4,100,,,,,,,,,,,,,,,,,,,,,,,,,,,,,,,,,,,,,,,,,,,,,,,,,,,,,,,,,,,,,,,,,,,,,,,,,,,,,,,,,,,,,,,,,,,,,,,,,,,,,,,,,,,,,,,,,,,,,,,,,,,,,,,,,,,,,,,,,,,,,,,,,,,,,,,,,,,,,,,,,,,,,,,,,,,,,,,,,,,,,,,,,,,,,,,,,,,,,,,,,,,,,,
1764667392.601672,7588,0,4385.512695,4375.641113,4466.666504,4521.538574,4374.743652,4512.692383,4534.615234,4385,4556.282227,4382.05127,4497.692383,4507.563965,4572.179688,4398.461426,4382.05127,4508.333496,4542.820313,4524.487305,4500.897461,4376.794922,4392.820313,4555,4511.666504,4490.384766,4421.025879,4555.512695,4381.538574,4550.384766,4500.897461,4378.589844,4514.871582,4444.230957,2746,0,14,2574,40839,,,,0,4,4,4,4,4,4,4,4,4,4,4,4,4,4,4,4,4,4,4,4,4,4,4,4,4,4,4,4,4,4,4,4,100,,,,,,,,,,,,,,,,,,,,,,,,,,,,,,,,,,,,,,,,,,,,,,,0.488083,0.331327,0.294948,0.061762,0.048292,1.064816,0.542637,0.501358,0.105578,0.079185,4.263171,2.376172,0.821321,0.555127,0.202985,1.308451,0.794358,0.398771,0.404517,0.223124,1.750955,3.065864,0.977542,1.095842,0.262134,0.520705,0.393314,0.446267,0.107029,0.047359,0.582554,0.199777,0.165794,0.104607,0.058625,0.439111,0.959805,0.606025,0.235565,0.146102,0.612325,0.357969,0.292147,0.229445,0.118156,2.02961,2.092242,1.499264,0.631376,0.256736,0.767769,0.432846,0.333214,0.086383,0.064167,1.089741,0.347792,0.131502,0.068532,0.041445,1.118759,0.506281,0.248838,0.060161,0.051775,0.550965,0.317946,0.222907,0.08554,0.045199,1.442078,0.675351,0.633543,0.092927,0.106069,0.326391,0.171087,0.206129,0.020869,0.014069,1.532773,0.452257,0.217943,0.087221,0.068515,3.153963,1.624929,0.803532,0.189476,0.141919,2.271056,0.971792,0.631179,0.139947,0.164815,1.243535,0.28062,0.262516,0.084059,0.111524,0.961256,0.387757,0.291162,0.188375,0.132349,1.316181,0.311365,0.278052,0.136995,0.079125,1.236378,0.253057,0.323502,0.06391,0.041029,0.50102,0.218503,0.462646,0.140517,0.125546,4.260961,1.692681,3.05418,2.009324,0.97129,0.457746,0.230398,0.154084,0.115519,0.076748,1.308768,0.92263,0.435855,0.19773,0.101019,0.66337,0.346113,0.220442,0.0843,0.055737,0.354951,0.155345,0.177781,0.037699,0.024496,0.941013,0.852113,0.847,0.195751,0.208013,1.85618,1.653628,1.038385,1.248255,0.638699,6.550566,2.625521,1.48758,1.166323,0.483521
1764667392.605578,7589,0,4384.487305,4378.333496,4467.820313,4510.897461,4363.461426,4509.871582,4531.922852,4378.717773,4566.794922,4386.025879,4495.384766,4501.025879,4564.102539,4396.794922,4378.846191,4505.641113,4536.794922,4518.205078,4494.871582,4374.871582,4388.333496,4552.179688,4507.05127,4490.384766,4418.717773,4559.230957,4373.974121,4548.974121,4498.974121,4376.410156,4518.333496,4445.128418,2800,0,14,2574,40839,,,,0,4,4,4,4,4,4,4,4,4,4,4,4,4,4,4,4,4,4,4,4,4,4,4,4,4,4,4,4,4,4,4,4,100,,,,,,,,,,,,,,,,,,,,,,,,,,,,,,,,,,,34665,0,0.490152,-0.496338,-0.370117,0.613525,0.979612,-0.241729,0.039067,4.666667,48.666668,-9.333333,,,,,,,,,,,,,,,,,,,,,,,,,,,,,,,,,,,,,,,,,,,,,,,,,,,,,,,,,,,,,,,,,,,,,,,,,,,,,,,,,,,,,,,,,,,,,,,,,,,,,,,,,,,,,,,,,,,,,,,,,,,,,,,,,,,,,,,,,,,,,,,,,,,,,,,,,,,,,,,,
1764667392.609484,7590,0,4385.384766,4381.282227,4471.025879,4503.461426,4364.487305,4508.333496,4531.666504,4377.179688,4575.128418,4395.641113,4494.487305,4500.128418,4559.487305,4398.461426,4379.487305,4503.333496,4533.846191,4515.384766,4492.307617,4374.230957,4384.743652,4555,4504.230957,4492.94873,4408.077148,4565.512695,4370,4548.717773,4498.205078,4373.205078,4518.717773,4459.487305,2822,0,14,2574,40847,,,,0,4,4,4,4,4,4,4,4,4,4,4,4,4,4,4,4,4,4,4,4,4,4,4,4,4,4,4,4,4,4,4,4,100,,,,,,,,,,,,,,,,,,,,,,,,,,,,,,,,,,,,,,,,,,,,,,,,,,,,,,,,,,,,,,,,,,,,,,,,,,,,,,,,,,,,,,,,,,,,,,,,,,,,,,,,,,,,,,,,,,,,,,,,,,,,,,,,,,,,,,,,,,,,,,,,,,,,,,,,,,,,,,,,,,,,,,,,,,,,,,,,,,,,,,,,,,,,,,,,,,,,,,,,,,,,,,
1764667392.613390,7591,0,4387.94873,4383.461426,4477.05127,4506.538574,4377.692383,4510,4534.615234,4381.794922,4576.538574,4402.179688,4495.897461,4505.384766,4560.384766,4402.307617,4383.333496,4502.436035,4535.384766,4517.563965,4495.384766,4375.256348,4384.743652,4562.563965,4505.128418,4497.307617,4402.307617,4572.692383,4372.179688,4550.897461,4499.871582,4371.410156,4515.897461,4481.410156,3009,0,14,2574,40847,,,,0,4,4,4,4,4,4,4,4,4,4,4,4,4,4,4,4,4,4,4,4,4,4,4,4,4,4,4,4,4,4,4,4,100,,,,,,,,,,,,,,,,,,,,,,,,,,,,,,,,,,,,,,,,,,,,,,,,,,,,,,,,,,,,,,,,,,,,,,,,,,,,,,,,,,,,,,,,,,,,,,,,,,,,,,,,,,,,,,,,,,,,,,,,,,,,,,,,,,,,,,,,,,,,,,,,,,,,,,,,,,,,,,,,,,,,,,,,,,,,,,,,,,,,,,,,,,,,,,,,,,,,,,,,,,,,,,
1764667392.617296,7592,0,4391.538574,4384.615234,4484.871582,4520,4394.487305,4514.871582,4539.230957,4390.384766,4571.538574,4401.025879,4498.974121,4513.846191,4565,4406.025879,4387.94873,4502.05127,4540.769043,4524.102539,4502.94873,4378.205078,4389.743652,4570.897461,4509.743652,4502.05127,4405.128418,4578.205078,4379.102539,4555.128418,4504.102539,4374.102539,4512.179688,4500.641113,2902,0,14,2574,40855,,,,0,4,4,4,4,4,4,4,4,4,4,4,4,4,4,4,4,4,4,4,4,4,4,4,4,4,4,4,4,4,4,4,4,100,,,,,,,,,,,,,,,,,,,,,,,,,,,,,,,,,,,,,,,,,,,,,,,,,,,,,,,,,,,,,,,,,,,,,,,,,,,,,,,,,,,,,,,,,,,,,,,,,,,,,,,,,,,,,,,,,,,,,,,,,,,,,,,,,,,,,,,,,,,,,,,,,,,,,,,,,,,,,,,,,,,,,,,,,,,,,,,,,,,,,,,,,,,,,,,,,,,,,,,,,,,,,,
1764667392.621202,7593,0,4395.256348,4385.256348,4491.794922,4536.538574,4405,4520.769043,4542.94873,4397.94873,4565.641113,4395,4501.922852,4520.769043,4570.128418,4407.307617,4391.025879,4501.410156,4547.307617,4532.179688,4511.538574,4382.05127,4397.307617,4576.153809,4515.512695,4505.256348,4409.487305,4580.384766,4387.05127,4559.615234,4508.846191,4381.410156,4510,4508.461426,2744,0,14,2574,40855,,,,0,4,4,4,4,4,4,4,4,4,4,4,4,4,4,4,4,4,4,4,4,4,4,4,4,4,4,4,4,4,4,4,4,100,,,,,,,,,,,,,,,,,,,,,,,,,,,,,,,,,,,34666,0,0.490153,-0.496277,-0.369995,0.613647,0.967403,-0.258332,0.030277,4.666667,48.666668,-9.333333,,,,,,,,,,,,,,,,,,,,,,,,,,,,,,,,,,,,,,,,,,,,,,,,,,,,,,,,,,,,,,,,,,,,,,,,,,,,,,,,,,,,,,,,,,,,,,,,,,,,,,,,,,,,,,,,,,,,,,,,,,,,,,,,,,,,,,,,,,,,,,,,,,,,,,,,,,,,,,,,
1764667392.625108,7594,0,4398.077148,4386.794922,4495.384766,4547.820313,4405.256348,4525.384766,4543.077148,4400.897461,4563.205078,4391.410156,4503.077148,4523.205078,4573.077148,4405.769043,4391.153809,4500.256348,4551.922852,4538.333496,4517.307617,4385.641113,4403.333496,4576.282227,4519.743652,4505.512695,4406.410156,4578.846191,4391.666504,4562.436035,4512.436035,4390.384766,4510.641113,4502.820313,628,0,14,2575,40863,,,,0,4,4,4,4,4,4,4,4,4,4,4,4,4,4,4,4,4,4,4,4,4,4,4,4,4,4,4,4,4,4,4,4,100,,,,,,,,,,,,,,,,,,,,,,,,,,,,,,,,,,,,,,,,,,,,,,,,,,,,,,,,,,,,,,,,,,,,,,,,,,,,,,,,,,,,,,,,,,,,,,,,,,,,,,,,,,,,,,,,,,,,,,,,,,,,,,,,,,,,,,,,,,,,,,,,,,,,,,,,,,,,,,,,,,,,,,,,,,,,,,,,,,,,,,,,,,,,,,,,,,,,,,,,,,,,,,
1764667392.629014,7595,0,4399.743652,4390.256348,4496.153809,4550,4398.974121,4527.820313,4539.743652,4399.487305,4565.128418,4394.487305,4502.563965,4521.282227,4573.846191,4402.94873,4388.974121,4499.102539,4553.717773,4540.384766,4518.461426,4388.205078,4405.384766,4572.94873,4521.282227,4502.692383,4394.743652,4575.384766,4392.436035,4562.820313,4513.974121,4396.538574,4513.846191,4489.487305,2724,0,14,2575,40863,,,,0,4,4,4,4,4,4,4,4,4,4,4,4,4,4,4,4,4,4,4,4,4,4,4,4,4,4,4,4,4,4,4,4,100,,,,,,,,,,,,,,,,,,,,,,,,,,,,,,,,,,,,,,,,,,,,,,,,,,,,,,,,,,,,,,,,,,,,,,,,,,,,,,,,,,,,,,,,,,,,,,,,,,,,,,,,,,,,,,,,,,,,,,,,,,,,,,,,,,,,,,,,,,,,,,,,,,,,,,,,,,,,,,,,,,,,,,,,,,,,,,,,,,,,,,,,,,,,,,,,,,,,,,,,,,,,,,
1764667392.632920,7596,0,4400.128418,4395.641113,4495.769043,4545.512695,4393.846191,4528.589844,4536.538574,4397.436035,4568.589844,4402.05127,4502.307617,4518.461426,4574.487305,4402.179688,4387.692383,4499.230957,4554.358887,4539.615234,4516.922852,4391.410156,4405.384766,4570.256348,4521.410156,4499.358887,4383.077148,4573.077148,4391.282227,4561.794922,4514.615234,4397.94873,4518.077148,4477.179688,2514,0,14,2576,40870,,,,0,4,4,4,4,4,4,4,4,4,4,4,4,4,4,4,4,4,4,4,4,4,4,4,4,4,4,4,4,4,4,4,4,100,,,,,,,,,,,,,,,,,,,,,,,,,,,,,,,,,,,,,,,,,,,,,,,,,,,,,,,,,,,,,,,,,,,,,,,,,,,,,,,,,,,,,,,,,,,,,,,,,,,,,,,,,,,,,,,,,,,,,,,,,,,,,,,,,,,,,,,,,,,,,,,,,,,,,,,,,,,,,,,,,,,,,,,,,,,,,,,,,,,,,,,,,,,,,,,,,,,,,,,,,,,,,,
1764667392.636826,7597,0,4400,4401.025879,4496.025879,4538.974121,4395.512695,4528.974121,4537.820313,4398.333496,4570.897461,4409.487305,4503.974121,4518.461426,4576.666504,4405.769043,4390.256348,4501.538574,4556.282227,4540.384766,4517.179688,4396.410156,4407.436035,4571.666504,4522.179688,4498.461426,4381.025879,4573.589844,4391.025879,4561.538574,4515.256348,4395.769043,4521.794922,4471.410156,2271,0,14,2576,40870,,,,0,4,4,4,4,4,4,4,4,4,4,4,4,4,4,4,4,4,4,4,4,4,4,4,4,4,4,4,4,4,4,4,4,100,,,,,,,,,,,,,,,,,,,,,,,,,,,,,,,,,,,34667,0,0.490292,-0.496155,-0.369873,0.613708,0.984007,-0.244659,0.030277,4.333333,48.166668,-9.166667,,,,,,,,,,,,,,,,,,,,,,,,,,,,,,,,,,,,,,,,,,,,,,,,,,,,,,,,,,,,,,,,,,,,,,,,,,,,,,,,,,,,,,,,,,,,,,,,,,,,,,,,,,,,,,,,,,,,,,,,,,,,,,,,,,,,,,,,,,,,,,,,,,,,,,,,,,,,,,,,
1764667392.640732,7598,0,4399.615234,4403.717773,4495.641113,4534.102539,4402.436035,4529.102539,4543.846191,4401.666504,4571.666504,4414.230957,4507.05127,4521.538574,4580.641113,4413.077148,4396.538574,4505.769043,4560,4545.256348,4521.025879,4402.179688,4412.307617,4577.436035,4523.974121,4501.282227,4389.230957,4575.897461,4391.922852,4563.077148,4515.897461,4392.307617,4524.743652,4470.769043,2735,0,14,2576,40878,,,,0,4,4,4,4,4,4,4,4,4,4,4,4,4,4,4,4,4,4,4,4,4,4,4,4,4,4,4,4,4,4,4,4,100,,,,,,,,,,,,,,,,,,,,,,,,,,,,,,,,,,,,,,,,,,,,,,,,,,,,,,,,,,,,,,,,,,,,,,,,,,,,,,,,,,,,,,,,,,,,,,,,,,,,,,,,,,,,,,,,,,,,,,,,,,,,,,,,,,,,,,,,,,,,,,,,,,,,,,,,,,,,,,,,,,,,,,,,,,,,,,,,,,,,,,,,,,,,,,,,,,,,,,,,,,,,,,
1764667392.644638,7599,0,4398.461426,4401.794922,4491.538574,4531.410156,4407.820313,4527.563965,4550.769043,4403.974121,4572.563965,4416.666504,4508.589844,4524.358887,4583.846191,4420.641113,4402.94873,4510.384766,4562.563965,4552.179688,4526.282227,4404.871582,4415.641113,4583.589844,4525,4505.897461,4398.974121,4576.922852,4392.05127,4564.487305,4515.256348,4388.974121,4527.307617,4469.487305,2509,0,14,2576,40878,,,,0,4,4,4,4,4,4,4,4,4,4,4,4,4,4,4,4,4,4,4,4,4,4,4,4,4,4,4,4,4,4,4,4,100,,,,,,,,,,,,,,,,,,,,,,,,,,,,,,,,,,,,,,,,,,,,,,,,,,,,,,,,,,,,,,,,,,,,,,,,,,,,,,,,,,,,,,,,,,,,,,,,,,,,,,,,,,,,,,,,,,,,,,,,,,,,,,,,,,,,,,,,,,,,,,,,,,,,,,,,,,,,,,,,,,,,,,,,,,,,,,,,,,,,,,,,,,,,,,,,,,,,,,,,,,,,,,
1764667392.648544,7600,0,4395.384766,4395.512695,4481.794922,4529.358887,4405.256348,4523.077148,4553.589844,4402.436035,4575.128418,4417.05127,4506.538574,4522.94873,4583.589844,4424.615234,4405.128418,4513.205078,4560.512695,4556.025879,4527.94873,4401.538574,4412.307617,4584.743652,4522.94873,4507.94873,4401.410156,4574.615234,4389.871582,4562.820313,4511.922852,4386.794922,4528.461426,4463.077148,2888,0,14,2576,40886,,,,0,4,4,4,4,4,4,4,4,4,4,4,4,4,4,4,4,4,4,4,4,4,4,4,4,4,4,4,4,4,4,4,4,100,,,,,,,,,,,,,,,,,,,,,,,,,,,,,,,,,,,,,,,,,,,,,,,,,,,,,,,,,,,,,,,,,,,,,,,,,,,,,,,,,,,,,,,,,,,,,,,,,,,,,,,,,,,,,,,,,,,,,,,,,,,,,,,,,,,,,,,,,,,,,,,,,,,,,,,,,,,,,,,,,,,,,,,,,,,,,,,,,,,,,,,,,,,,,,,,,,,,,,,,,,,,,,
1764667392.652450,7601,0,4390.641113,4387.94873,4468.974121,4525.769043,4394.871582,4516.538574,4550,4397.692383,4579.102539,4412.820313,4501.410156,4516.922852,4578.974121,4423.205078,4401.794922,4512.94873,4553.589844,4552.94873,4523.077148,4393.205078,4402.179688,4578.717773,4517.563965,4504.487305,4397.307617,4569.487305,4385.769043,4556.922852,4506.794922,4386.666504,4525.897461,4453.077148,2916,0,14,2576,40886,,,,0,4,4,4,4,4,4,4,4,4,4,4,4,4,4,4,4,4,4,4,4,4,4,4,4,4,4,4,4,4,4,4,4,100,,,,,,,,,,,,,,,,,,,,,,,,,,,,,,,,,,,34668,0,0.490401,-0.496033,-0.36969,0.613831,0.955683,-0.249542,0.041509,5,49.5,-8,,,,,,,,,,,,,,,,,,,,,,,,,,,,,,,,,,,,,,,,,,,,,,,,,,,,,,,,,,,,,,,,,,,,,,,,,,,,,,,,,,,,,,,,,,,,,,,,,,,,,,,,,,,,,,,,,,,,,,,,,,,,,,,,,,,,,,,,,,,,,,,,,,,,,,,,,,,,,,,,
1764667392.656356,7602,0,4385.897461,4383.205078,4459.615234,4520.897461,4383.717773,4511.153809,4542.94873,4393.846191,4582.05127,4400.897461,4495.641113,4510,4572.307617,4418.205078,4395.641113,4509.615234,4545.512695,4544.358887,4514.102539,4384.743652,4391.410156,4568.589844,4511.410156,4497.436035,4394.871582,4565.128418,4382.05127,4548.717773,4502.436035,4388.846191,4518.205078,4445.384766,1774,0,14,2576,40894,,,,0,4,4,4,4,4,4,4,4,4,4,4,4,4,4,4,4,4,4,4,4,4,4,4,4,4,4,4,4,4,4,4,4,100,,,,,,,,,,,,,,,,,,,,,,,,,,,,,,,,,,,,,,,,,,,,,,,,,,,,,,,,,,,,,,,,,,,,,,,,,,,,,,,,,,,,,,,,,,,,,,,,,,,,,,,,,,,,,,,,,,,,,,,,,,,,,,,,,,,,,,,,,,,,,,,,,,,,,,,,,,,,,,,,,,,,,,,,,,,,,,,,,,,,,,,,,,,,,,,,,,,,,,,,,,,,,,
1764667392.660262,7603,0,4383.589844,4383.846191,4459.871582,4517.563965,4380.512695,4510.256348,4537.307617,4393.974121,4581.282227,4382.436035,4492.307617,4506.538574,4567.820313,4412.692383,4390.384766,4504.871582,4541.666504,4535.769043,4506.153809,4381.025879,4387.692383,4560.128418,4507.692383,4491.666504,4400.897461,4565.128418,4381.282227,4542.436035,4501.282227,4392.307617,4507.307617,4444.871582,2800,0,14,2576,40894,,,,0,4,4,4,4,4,4,4,4,4,4,4,4,4,4,4,4,4,4,4,4,4,4,4,4,4,4,4,4,4,4,4,4,100,,,,,,,,,,,,,,,,,,,,,,,,,,,,,,,,,,,,,,,,,,,,,,,,,,,,,,,,,,,,,,,,,,,,,,,,,,,,,,,,,,,,,,,,,,,,,,,,,,,,,,,,,,,,,,,,,,,,,,,,,,,,,,,,,,,,,,,,,,,,,,,,,,,,,,,,,,,,,,,,,,,,,,,,,,,,,,,,,,,,,,,,,,,,,,,,,,,,,,,,,,,,,,
1764667392.664168,7604,0,4385.128418,4389.230957,4469.615234,4519.230957,4388.205078,4513.717773,4535.512695,4397.94873,4575.512695,4365.128418,4492.436035,4507.94873,4567.692383,4409.102539,4388.077148,4500.897461,4543.717773,4531.794922,4502.563965,4383.461426,4392.820313,4557.692383,4508.077148,4491.410156,4412.692383,4570.641113,4384.102539,4541.666504,4503.974121,4394.743652,4498.846191,4452.307617,2579,0,14,2576,40902,,,,0,4,4,4,4,4,4,4,4,4,4,4,4,4,4,4,4,4,4,4,4,4,4,4,4,4,4,4,4,4,4,4,4,100,,,,,,,,,,,,,,,,,,,,,,,,,,,,,,,,,,,,,,,,,,,,,,,,,,,,,,,,,,,,,,,,,,,,,,,,,,,,,,,,,,,,,,,,,,,,,,,,,,,,,,,,,,,,,,,,,,,,,,,,,,,,,,,,,,,,,,,,,,,,,,,,,,,,,,,,,,,,,,,,,,,,,,,,,,,,,,,,,,,,,,,,,,,,,,,,,,,,,,,,,,,,,,
1764667392.668074,7605,0,4389.358887,4395.512695,4482.692383,4525.641113,4400.897461,4518.846191,4536.666504,4401.666504,4567.05127,4359.102539,4495.128418,4511.794922,4570.384766,4407.436035,4388.717773,4499.743652,4548.717773,4532.94873,4503.077148,4390.128418,4402.05127,4560.128418,4511.666504,4496.666504,4420.897461,4579.230957,4388.717773,4546.538574,4508.461426,4394.743652,4498.717773,4464.230957,2841,0,14,2576,40902,,,,0,4,4,4,4,4,4,4,4,4,4,4,4,4,4,4,4,4,4,4,4,4,4,4,4,4,4,4,4,4,4,4,4,100,,,,,,,,,,,,,,,,,,,,,,,,,,,,,,,,,,,34669,0,0.490509,-0.495911,-0.369507,0.613953,0.975705,-0.246612,0.047857,4.166667,49.166668,-8.833333,,,,,,,,,,,,,,,,,,,,,,,,,,,,,,,,,,,,,,,,,,,,,,,,,,,,,,,,,,,,,,,,,,,,,,,,,,,,,,,,,,,,,,,,,,,,,,,,,,,,,,,,,,,,,,,,,,,,,,,,,,,,,,,,,,,,,,,,,,,,,,,,,,,,,,,,,,,,,,,,
1764667392.671980,7606,0,4392.820313,4398.589844,4490.769043,4533.077148,4408.205078,4521.410156,4537.820313,4400.384766,4560.128418,4370,4497.94873,4513.589844,4571.794922,4405.769043,4391.282227,4501.410156,4550.769043,4535.128418,4504.230957,4396.666504,4408.333496,4562.94873,4515.256348,4503.205078,4417.563965,4585.769043,4392.307617,4553.717773,4511.282227,4392.820313,4509.358887,4475.897461,2944,0,14,2576,40909,,,,0,4,4,4,4,4,4,4,4,4,4,4,4,4,4,4,4,4,4,4,4,4,4,4,4,4,4,4,4,4,4,4,4,100,,,,,,,,,,,,,,,,,,,,,,,,,,,,,,,,,,,,,,,,,,,,,,,,,,,,,,,,,,,,,,,,,,,,,,,,,,,,,,,,,,,,,,,,,,,,,,,,,,,,,,,,,,,,,,,,,,,,,,,,,,,,,,,,,,,,,,,,,,,,,,,,,,,,,,,,,,,,,,,,,,,,,,,,,,,,,,,,,,,,,,,,,,,,,,,,,,,,,,,,,,,,,,
1764667392.675886,7607,0,4392.179688,4396.410156,4491.282227,4537.692383,4402.436035,4519.230957,4536.410156,4392.307617,4558.077148,4393.333496,4498.461426,4511.025879,4568.974121,4401.922852,4394.230957,4503.717773,4545.641113,4533.846191,4503.717773,4399.487305,4408.077148,4561.538574,4515.769043,4505.897461,4402.563965,4586.666504,4392.820313,4558.205078,4509.615234,4390,4527.05127,4484.230957,2866,0,14,2576,40909,,,,0,4,4,4,4,4,4,4,4,4,4,4,4,4,4,4,4,4,4,4,4,4,4,4,4,4,4,4,4,4,4,4,4,100,,,,,,,,,,,,,,,,,,,,,,,,,,,,,,,,,,,,,,,,,,,,,,,,,,,,,,,,,,,,,,,,,,,,,,,,,,,,,,,,,,,,,,,,,,,,,,,,,,,,,,,,,,,,,,,,,,,,,,,,,,,,,,,,,,,,,,,,,,,,,,,,,,,,,,,,,,,,,,,,,,,,,,,,,,,,,,,,,,,,,,,,,,,,,,,,,,,,,,,,,,,,,,
1764667392.679792,7608,0,4386.666504,4390.384766,4487.436035,4538.077148,4385.384766,4512.94873,4531.666504,4381.025879,4561.282227,4416.025879,4496.282227,4504.871582,4562.692383,4395.512695,4396.025879,4504.230957,4534.743652,4527.05127,4500.641113,4397.05127,4402.94873,4554.871582,4511.794922,4502.179688,4383.846191,4581.666504,4390.641113,4557.436035,4503.589844,4386.922852,4543.717773,4488.846191,2738,0,14,2575,40917,,,,0,4,4,4,4,4,4,4,4,4,4,4,4,4,4,4,4,4,4,4,4,4,4,4,4,4,4,4,4,4,4,4,4,100,,,,,,,,,,,,,,,,,,,,,,,,,,,,,,,,,,,,,,,,,,,,,,,,,,,,,,,,,,,,,,,,,,,,,,,,,,,,,,,,,,,,,,,,,,,,,,,,,,,,,,,,,,,,,,,,,,,,,,,,,,,,,,,,,,,,,,,,,,,,,,,,,,,,,,,,,,,,,,,,,,,,,,,,,,,,,,,,,,,,,,,,,,,,,,,,,,,,,,,,,,,,,,
1764667392.683698,7609,0,4378.717773,4383.717773,4485.641113,4535.384766,4367.436035,4506.794922,4525,4372.94873,4568.077148,4425.769043,4493.205078,4498.461426,4556.410156,4388.974121,4395.512695,4502.05127,4524.615234,4517.307617,4496.538574,4390.769043,4396.922852,4546.025879,4505.641113,4493.589844,4371.538574,4574.615234,4387.563965,4552.307617,4496.282227,4383.974121,4550.256348,4490.769043,2882,0,14,2575,40917,,,,0,4,4,4,4,4,4,4,4,4,4,4,4,4,4,4,4,4,4,4,4,4,4,4,4,4,4,4,4,4,4,4,4,100,,,,,,,,,,,,,,,,,,,,,,,,,,,,,,,,,,,34670,0,0.490494,-0.495972,-0.369446,0.613953,0.962031,-0.242217,0.0293,6.333333,48.333332,-8.5,,,,,,,,,,,,,,,,,,,,,,,,,,,,,,,,,,,,,,,,,,,,,,,,,,,,,,,,,,,,,,,,,,,,,,,,,,,,,,,,,,,,,,,,,,,,,,,,,,,,,,,,,,,,,,,,,,,,,,,,,,,,,,,,,,,,,,,,,,,,,,,,,,,,,,,,,,,,,,,,
1764667392.687604,7610,1,4379.686523,4384.301758,4486.030273,4535.797852,4368.589844,4507.93457,4525.939941,4374.202148,4568.342773,4425.038086,4493.736816,4499.411133,4557.165039,4389.435059,4395.484375,4502.150879,4525.59375,4518.010254,4497.027344,4390.792969,4396.804199,4547.046387,4506.206055,4494.021973,4372.621094,4574.515625,4388.252441,4553.010254,4496.861328,4384.63916,4549.601074,4490.764648,0,0,14,0,0,,,,0,4,4,4,4,4,4,4,4,4,4,4,4,4,4,4,4,4,4,4,4,4,4,4,4,4,4,4,4,4,4,4,4,100,,,,,,,,,,,,,,,,,,,,,,,,,,,,,,,,,,,,,,,,,,,,,,,,,,,,,,,,,,,,,,,,,,,,,,,,,,,,,,,,,,,,,,,,,,,,,,,,,,,,,,,,,,,,,,,,,,,,,,,,,,,,,,,,,,,,,,,,,,,,,,,,,,,,,,,,,,,,,,,,,,,,,,,,,,,,,,,,,,,,,,,,,,,,,,,,,,,,,,,,,,,,,,
1764667392.691511,7611,1,4380.655273,4384.88623,4486.419922,4536.210938,4369.743652,4509.074219,4526.880371,4375.456055,4568.608887,4424.306641,4494.268555,4500.36084,4557.92041,4389.895508,4395.456055,4502.250488,4526.571777,4518.713379,4497.516602,4390.816895,4396.685547,4548.067383,4506.770996,4494.454102,4373.703613,4574.416016,4388.940918,4553.713379,4497.44043,4385.303711,4548.945801,4490.759766,0,0,14,0,0,,,,0,4,4,4,4,4,4,4,4,4,4,4,4,4,4,4,4,4,4,4,4,4,4,4,4,4,4,4,4,4,4,4,4,100,,,,,,,,,,,,,,,,,,,,,,,,,,,,,,,,,,,,,,,,,,,,,,,,,,,,,,,,,,,,,,,,,,,,,,,,,,,,,,,,,,,,,,,,,,,,,,,,,,,,,,,,,,,,,,,,,,,,,,,,,,,,,,,,,,,,,,,,,,,,,,,,,,,,,,,,,,,,,,,,,,,,,,,,,,,,,,,,,,,,,,,,,,,,,,,,,,,,,,,,,,,,,,
1764667392.695417,7612,1,4381.624023,4385.470215,4486.809082,4536.624023,4370.897461,4510.213867,4527.820313,4376.709473,4568.874512,4423.575684,4494.800781,4501.310547,4558.675293,4390.355957,4395.427246,4502.350586,4527.549805,4519.416016,4498.005859,4390.840332,4396.566895,4549.088379,4507.336426,4494.88623,4374.786133,4574.316406,4389.629395,4554.416016,4498.02002,4385.96875,4548.290527,4490.754883,0,0,14,0,0,,,,0,4,4,4,4,4,4,4,4,4,4,4,4,4,4,4,4,4,4,4,4,4,4,4,4,4,4,4,4,4,4,4,4,100,,,,,,,,,,,,,,,,,,,,,,,,,,,,,,,,,,,,,,,,,,,,,,,,,,,,,,,,,,,,,,,,,,,,,,,,,,,,,,,,,,,,,,,,,,,,,,,,,,,,,,,,,,,,,,,,,,,,,,,,,,,,,,,,,,,,,,,,,,,,,,,,,,,,,,,,,,,,,,,,,,,,,,,,,,,,,,,,,,,,,,,,,,,,,,,,,,,,,,,,,,,,,,
1764667392.699323,7613,1,4382.592773,4386.054199,4487.198242,4537.037109,4372.05127,4511.353516,4528.760742,4377.962891,4569.140625,4422.844238,4495.33252,4502.260254,4559.430176,4390.816895,4395.398926,4502.450195,4528.527832,4520.118652,4498.494629,4390.864258,4396.448242,4550.109375,4507.901367,4495.318359,4375.869141,4574.216309,4390.318359,4555.118652,4498.599121,4386.633301,4547.635254,4490.75,0,0,14,0,0,,,,0,4,4,4,4,4,4,4,4,4,4,4,4,4,4,4,4,4,4,4,4,4,4,4,4,4,4,4,4,4,4,4,4,100,,,,,,,,,,,,,,,,,,,,,,,,,,,,,,,,,,,,,,,,,,,,,,,,,,,,,,,,,,,,,,,,,,,,,,,,,,,,,,,,,,,,,,,,,,,,,,,,,,,,,,,,,,,,,,,,,,,,,,,,,,,,,,,,,,,,,,,,,,,,,,,,,,,,,,,,,,,,,,,,,,,,,,,,,,,,,,,,,,,,,,,,,,,,,,,,,,,,,,,,,,,,,,
1764667392.703229,7614,1,4383.561035,4386.638184,4487.587891,4537.450195,4373.205078,4512.492676,4529.700684,4379.216309,4569.40625,4422.112793,4495.864258,4503.209961,4560.185059,4391.277344,4395.370605,4502.549805,4529.506348,4520.821289,4498.983887,4390.887695,4396.32959,4551.129883,4508.466309,4495.75,4376.95166,4574.116699,4391.006836,4555.821289,4499.178711,4387.29834,4546.97998,4490.745605,0,0,14,0,0,,,,0,4,4,4,4,4,4,4,4,4,4,4,4,4,4,4,4,4,4,4,4,4,4,4,4,4,4,4,4,4,4,4,4,100,,,,,,,,,,,,,,,,,,,,,,,,,,,,,,,,,,,,,,,,,,,,,,,,,,,,,,,,,,,,,,,,,,,,,,,,,,,,,,,,,,,,,,,,,,,,,,,,,,,,,,,,,,,,,,,,,,,,,,,,,,,,,,,,,,,,,,,,,,,,,,,,,,,,,,,,,,,,,,,,,,,,,,,,,,,,,,,,,,,,,,,,,,,,,,,,,,,,,,,,,,,,,,
1764667392.707135,7615,1,4384.529785,4387.222168,4487.977051,4537.863281,4374.358887,4513.632324,4530.641113,4380.470215,4569.672363,4421.381836,4496.395996,4504.159668,4560.939941,4391.737793,4395.341797,4502.649414,4530.484375,4521.524414,4499.473145,4390.911621,4396.210938,4552.150879,4509.03125,4496.182129,4378.03418,4574.01709,4391.695313,4556.524414,4499.757813,4387.962891,4546.324707,4490.740723,0,0,14,0,0,,,,0,4,4,4,4,4,4,4,4,4,4,4,4,4,4,4,4,4,4,4,4,4,4,4,4,4,4,4,4,4,4,4,4,100,,,,,,,,,,,,,,,,,,,,,,,,,,,,,,,,,,,,,,,,,,,,,,,,,,,,,,,,,,,,,,,,,,,,,,,,,,,,,,,,,,,,,,,,,,,,,,,,,,,,,,,,,,,,,,,,,,,,,,,,,,,,,,,,,,,,,,,,,,,,,,,,,,,,,,,,,,,,,,,,,,,,,,,,,,,,,,,,,,,,,,,,,,,,,,,,,,,,,,,,,,,,,,
1764667392.711041,7616,1,4385.498535,4387.806152,4488.366699,4538.276367,4375.512695,4514.771973,4531.581055,4381.723633,4569.938477,4420.650391,4496.927734,4505.109375,4561.695313,4392.198242,4395.313477,4502.749512,4531.462402,4522.227051,4499.961914,4390.935547,4396.092285,4553.171875,4509.596191,4496.614258,4379.116699,4573.91748,4392.383789,4557.227051,4500.336914,4388.62793,4545.669434,4490.73584,0,0,14,0,0,,,,0,4,4,4,4,4,4,4,4,4,4,4,4,4,4,4,4,4,4,4,4,4,4,4,4,4,4,4,4,4,4,4,4,100,,,,,,,,,,,,,,,,,,,,,,,,,,,,,,,,,,,,,,,,,,,,,,,,,,,,,,,,,,,,,,,,,,,,,,,,,,,,,,,,,,,,,,,,,,,,,,,,,,,,,,,,,,,,,,,,,,,,,,,,,,,,,,,,,,,,,,,,,,,,,,,,,,,,,,,,,,,,,,,,,,,,,,,,,,,,,,,,,,,,,,,,,,,,,,,,,,,,,,,,,,,,,,
1764667392.714947,7617,1,4386.467285,4388.390137,4488.755859,4538.689453,4376.666504,4515.911621,4532.521484,4382.977051,4570.204102,4419.919434,4497.459473,4506.059082,4562.450195,4392.65918,4395.284668,4502.849121,4532.44043,4522.929688,4500.451172,4390.958984,4395.973633,4554.192871,4510.161621,4497.046387,4380.199219,4573.817871,4393.072266,4557.929688,4500.916504,4389.29248,4545.01416,4490.731445,0,0,14,0,0,,,,0,4,4,4,4,4,4,4,4,4,4,4,4,4,4,4,4,4,4,4,4,4,4,4,4,4,4,4,4,4,4,4,4,100,,,,,,,,,,,,,,,,,,,,,,,,,,,,,,,,,,,,,,,,,,,,,,,,,,,,,,,,,,,,,,,,,,,,,,,,,,,,,,,,,,,,,,,,,,,,,,,,,,,,,,,,,,,,,,,,,,,,,,,,,,,,,,,,,,,,,,,,,,,,,,,,,,,,,,,,,,,,,,,,,,,,,,,,,,,,,,,,,,,,,,,,,,,,,,,,,,,,,,,,,,,,,,
1764667392.718853,7618,1,4387.436035,4388.974121,4489.145508,4539.102539,4377.820313,4517.05127,4533.461426,4384.230957,4570.470215,4419.187988,4497.991211,4507.008789,4563.205078,4393.119629,4395.256348,4502.94873,4533.418945,4523.632324,4500.939941,4390.98291,4395.854492,4555.213867,4510.726563,4497.478516,4381.282227,4573.717773,4393.760742,4558.632324,4501.495605,4389.957031,4544.358887,4490.726563,0,0,14,0,0,,,,0,4,4,4,4,4,4,4,4,4,4,4,4,4,4,4,4,4,4,4,4,4,4,4,4,4,4,4,4,4,4,4,4,100,,,,,,,,,,,,,,,,,,,,,,,,,,,,,,,,,,,,,,,,,,,,,,,,,,,,,,,,,,,,,,,,,,,,,,,,,,,,,,,,,,,,,,,,,,,,,,,,,,,,,,,,,,,,,,,,,,,,,,,,,,,,,,,,,,,,,,,,,,,,,,,,,,,,,,,,,,,,,,,,,,,,,,,,,,,,,,,,,,,,,,,,,,,,,,,,,,,,,,,,,,,,,,
1764667392.722759,7619,1,4388.404785,4389.558594,4489.534668,4539.515625,4378.974121,4518.190918,4534.401855,4385.484375,4570.73584,4418.457031,4498.523438,4507.958008,4563.959961,4393.580078,4395.228027,4503.04834,4534.396973,4524.335449,4501.429199,4391.006836,4395.73584,4556.234375,4511.291504,4497.910645,4382.364746,4573.618164,4394.449219,4559.335449,4502.075195,4390.62207,4543.703613,4490.72168,0,0,14,0,0,,,,0,4,4,4,4,4,4,4,4,4,4,4,4,4,4,4,4,4,4,4,4,4,4,4,4,4,4,4,4,4,4,4,4,100,,,,,,,,,,,,,,,,,,,,,,,,,,,,,,,,,,,,,,,,,,,,,,,,,,,,,,,,,,,,,,,,,,,,,,,,,,,,,,,,,,,,,,,,,,,,,,,,,,,,,,,,,,,,,,,,,,,,,,,,,,,,,,,,,,,,,,,,,,,,,,,,,,,,,,,,,,,,,,,,,,,,,,,,,,,,,,,,,,,,,,,,,,,,,,,,,,,,,,,,,,,,,,
1764667392.726665,7620,1,4389.373047,4390.142578,4489.923828,4539.928711,4380.128418,4519.330566,4535.341797,4386.737793,4571.001953,4417.725586,4499.055176,4508.907715,4564.715332,4394.041016,4395.199219,4503.147949,4535.375,4525.038086,4501.918457,4391.030273,4395.617188,4557.255371,4511.856445,4498.342773,4383.447266,4573.518555,4395.137695,4560.038086,4502.654297,4391.286621,4543.04834,4490.716797,0,0,14,0,0,,,,0,4,4,4,4,4,4,4,4,4,4,4,4,4,4,4,4,4,4,4,4,4,4,4,4,4,4,4,4,4,4,4,4,100,,,,,,,,,,,,,,,,,,,,,,,,,,,,,,,,,,,,,,,,,,,,,,,0.724027,0.436628,0.277451,0.0674,0.03945,1.150577,0.774752,0.428091,0.112781,0.07239,8.347342,3.717641,0.995925,0.536863,0.15527,1.716511,0.88238,0.318621,0.301514,0.17905,1.777572,3.19202,0.862104,0.935185,0.193981,0.544098,0.454691,0.36121,0.099815,0.038355,0.727899,0.343108,0.17495,0.10405,0.046054,0.375692,1.018558,0.506374,0.212634,0.119971,0.601626,0.400117,0.239344,0.203398,0.092354,1.936366,2.160738,1.331285,0.546493,0.197305,0.705014,0.410441,0.247166,0.073968,0.048294,1.492495,0.373068,0.136305,0.072479,0.032853,1.267652,0.453021,0.212351,0.058386,0.040678,0.544851,0.303737,0.193059,0.0739,0.030888,1.787588,0.592051,0.488649,0.076354,0.088179,0.349227,0.153043,0.153082,0.020142,0.011414,1.6712,0.520547,0.213289,0.083695,0.053586,3.45554,1.538657,0.634869,0.166428,0.115425,2.653947,0.910088,0.521471,0.12513,0.1314,1.486827,0.237936,0.209735,0.072778,0.08536,1.342782,0.472293,0.270792,0.171224,0.097022,1.546768,0.433118,0.255175,0.125698,0.062968,1.404869,0.238654,0.270134,0.057301,0.038516,0.634127,0.30737,0.441169,0.128806,0.091867,4.178833,2.013412,2.31791,1.67947,0.744144,0.385412,0.207963,0.108241,0.096617,0.061529,1.658784,0.907821,0.409104,0.209286,0.089367,0.828368,0.50247,0.246145,0.098516,0.047486,0.393353,0.204837,0.165924,0.042715,0.022531,1.259976,1.021148,0.733217,0.199927,0.182957,2.247292,1.67344,0.932571,1.081878,0.518972,11.588804,3.977093,1.789737,1.037378,0.370925
1764667392.730571,7621,1,4390.341797,4390.726563,4490.313477,4540.341797,4381.282227,4520.470215,4536.282227,4387.991211,4571.267578,4416.994141,4499.586914,4509.857422,4565.470215,4394.501465,4395.170898,4503.248047,4536.353516,4525.740723,4502.407227,4391.054199,4395.498535,4558.276367,4512.421875,4498.774902,4384.529785,4573.418945,4395.826172,4560.740723,4503.233398,4391.95166,4542.393066,4490.712402,0,0,14,0,0,,,,0,4,4,4,4,4,4,4,4,4,4,4,4,4,4,4,4,4,4,4,4,4,4,4,4,4,4,4,4,4,4,4,4,100,,,,,,,,,,,,,,,,,,,,,,,,,,,,,,,,,,,,,,,,,,,,,,,,,,,,,,,,,,,,,,,,,,,,,,,,,,,,,,,,,,,,,,,,,,,,,,,,,,,,,,,,,,,,,,,,,,,,,,,,,,,,,,,,,,,,,,,,,,,,,,,,,,,,,,,,,,,,,,,,,,,,,,,,,,,,,,,,,,,,,,,,,,,,,,,,,,,,,,,,,,,,,,
1764667392.734477,7622,1,4391.310547,4391.310547,4490.702637,4540.754883,4382.436035,4521.609863,4537.222168,4389.245117,4571.533691,4416.263184,4500.118652,4510.807129,4566.225098,4394.961914,4395.142578,4503.347656,4537.331543,4526.443359,4502.896484,4391.077637,4395.379883,4559.297363,4512.986816,4499.207031,4385.612305,4573.318848,4396.514648,4561.443359,4503.812988,4392.616211,4541.737793,4490.70752,0,0,14,0,0,,,,0,4,4,4,4,4,4,4,4,4,4,4,4,4,4,4,4,4,4,4,4,4,4,4,4,4,4,4,4,4,4,4,4,100,,,,,,,,,,,,,,,,,,,,,,,,,,,,,,,,,,,,,,,,,,,,,,,,,,,,,,,,,,,,,,,,,,,,,,,,,,,,,,,,,,,,,,,,,,,,,,,,,,,,,,,,,,,,,,,,,,,,,,,,,,,,,,,,,,,,,,,,,,,,,,,,,,,,,,,,,,,,,,,,,,,,,,,,,,,,,,,,,,,,,,,,,,,,,,,,,,,,,,,,,,,,,,
1764667392.738383,7623,1,4392.279297,4391.894531,4491.092285,4541.167969,4383.589844,4522.749512,4538.162598,4390.498535,4571.799805,4415.531738,4500.650391,4511.756836,4566.97998,4395.422363,4395.11377,4503.447266,4538.30957,4527.146484,4503.385742,4391.101563,4395.26123,4560.318359,4513.551758,4499.63916,4386.695313,4573.219238,4397.203125,4562.146484,4504.39209,4393.28125,4541.08252,4490.702637,0,0,14,0,0,,,,0,4,4,4,4,4,4,4,4,4,4,4,4,4,4,4,4,4,4,4,4,4,4,4,4,4,4,4,4,4,4,4,4,100,,,,,,,,,,,,,,,,,,,,,,,,,,,,,,,,,,,,,,,,,,,,,,,,,,,,,,,,,,,,,,,,,,,,,,,,,,,,,,,,,,,,,,,,,,,,,,,,,,,,,,,,,,,,,,,,,,,,,,,,,,,,,,,,,,,,,,,,,,,,,,,,,,,,,,,,,,,,,,,,,,,,,,,,,,,,,,,,,,,,,,,,,,,,,,,,,,,,,,,,,,,,,,
1764667392.742289,7624,1,4393.248047,4392.478516,4491.481445,4541.581055,4384.743652,4523.888672,4539.102539,4391.751953,4572.06543,4414.800781,4501.182129,4512.706543,4567.734863,4395.883301,4395.085449,4503.546875,4539.287598,4527.849121,4503.874512,4391.125488,4395.142578,4561.338867,4514.116699,4500.071289,4387.777832,4573.119629,4397.891602,4562.849121,4504.97168,4393.945801,4540.427246,4490.698242,0,0,14,0,0,,,,0,4,4,4,4,4,4,4,4,4,4,4,4,4,4,4,4,4,4,4,4,4,4,4,4,4,4,4,4,4,4,4,4,100,,,,,,,,,,,,,,,,,,,,,,,,,,,,,,,,,,,,,,,,,,,,,,,,,,,,,,,,,,,,,,,,,,,,,,,,,,,,,,,,,,,,,,,,,,,,,,,,,,,,,,,,,,,,,,,,,,,,,,,,,,,,,,,,,,,,,,,,,,,,,,,,,,,,,,,,,,,,,,,,,,,,,,,,,,,,,,,,,,,,,,,,,,,,,,,,,,,,,,,,,,,,,,
1764667392.746195,7625,1,4394.216309,4393.0625,4491.870605,4541.994141,4385.897461,4525.02832,4540.042969,4393.005859,4572.331543,4414.069336,4501.714355,4513.65625,4568.490234,4396.34375,4395.057129,4503.646484,4540.266113,4528.551758,4504.36377,4391.148926,4395.023926,4562.359863,4514.681641,4500.503418,4388.860352,4573.02002,4398.580078,4563.551758,4505.550781,4394.61084,4539.771973,4490.693359,0,0,14,0,0,,,,0,4,4,4,4,4,4,4,4,4,4,4,4,4,4,4,4,4,4,4,4,4,4,4,4,4,4,4,4,4,4,4,4,100,,,,,,,,,,,,,,,,,,,,,,,,,,,,,,,,,,,34671,1,0.490494,-0.495946,-0.369437,0.613979,0.961752,-0.243543,0.030277,6.095238,48.333332,-8.547619,,,,,,,,,,,,,,,,,,,,,,,,,,,,,,,,,,,,,,,,,,,,,,,,,,,,,,,,,,,,,,,,,,,,,,,,,,,,,,,,,,,,,,,,,,,,,,,,,,,,,,,,,,,,,,,,,,,,,,,,,,,,,,,,,,,,,,,,,,,,,,,,,,,,,,,,,,,,,,,,
1764667392.750101,7626,1,4395.185059,4393.646484,4492.260254,4542.407227,4387.05127,4526.167969,4540.98291,4394.259277,4572.597168,4413.337891,4502.246094,4514.605957,4569.245117,4396.804199,4395.02832,4503.746582,4541.244141,4529.254395,4504.853027,4391.172852,4394.905273,4563.380859,4515.24707,4500.935547,4389.942871,4572.92041,4399.268555,4564.254395,4506.129883,4395.275391,4539.116699,4490.688477,0,0,14,0,0,,,,0,4,4,4,4,4,4,4,4,4,4,4,4,4,4,4,4,4,4,4,4,4,4,4,4,4,4,4,4,4,4,4,4,100,,,,,,,,,,,,,,,,,,,,,,,,,,,,,,,,,,,,,,,,,,,,,,,,,,,,,,,,,,,,,,,,,,,,,,,,,,,,,,,,,,,,,,,,,,,,,,,,,,,,,,,,,,,,,,,,,,,,,,,,,,,,,,,,,,,,,,,,,,,,,,,,,,,,,,,,,,,,,,,,,,,,,,,,,,,,,,,,,,,,,,,,,,,,,,,,,,,,,,,,,,,,,,
1764667392.754007,7627,1,4396.153809,4394.230957,4492.649414,4542.820313,4388.205078,4527.307617,4541.922852,4395.512695,4572.863281,4412.606934,4502.777832,4515.555664,4570,4397.265137,4395,4503.846191,4542.222168,4529.957031,4505.341797,4391.196777,4394.786133,4564.401855,4515.812012,4501.367676,4391.025879,4572.820313,4399.957031,4564.957031,4506.709473,4395.939941,4538.461426,4490.683594,0,0,14,0,0,,,,0,4,4,4,4,4,4,4,4,4,4,4,4,4,4,4,4,4,4,4,4,4,4,4,4,4,4,4,4,4,4,4,4,100,,,,,,,,,,,,,,,,,,,,,,,,,,,,,,,,,,,34672,1,0.490494,-0.495919,-0.369428,0.614005,0.961473,-0.244868,0.031254,5.857143,48.333332,-8.595238,,,,,,,,,,,,,,,,,,,,,,,,,,,,,,,,,,,,,,,,,,,,,,,,,,,,,,,,,,,,,,,,,,,,,,,,,,,,,,,,,,,,,,,,,,,,,,,,,,,,,,,,,,,,,,,,,,,,,,,,,,,,,,,,,,,,,,,,,,,,,,,,,,,,,,,,,,,,,,,,
1764667392.757913,7628,1,4397.122559,4394.814941,4493.039063,4543.233398,4389.358887,4528.447266,4542.863281,4396.766602,4573.129395,4411.875488,4503.30957,4516.505371,4570.754883,4397.725586,4394.97168,4503.945801,4543.200195,4530.660156,4505.831055,4391.220215,4394.66748,4565.422363,4516.376953,4501.799805,4392.108398,4572.720703,4400.645996,4565.660156,4507.288574,4396.60498,4537.806152,4490.679199,0,0,14,0,0,,,,0,4,4,4,4,4,4,4,4,4,4,4,4,4,4,4,4,4,4,4,4,4,4,4,4,4,4,4,4,4,4,4,4,100,,,,,,,,,,,,,,,,,,,,,,,,,,,,,,,,,,,,,,,,,,,,,,,,,,,,,,,,,,,,,,,,,,,,,,,,,,,,,,,,,,,,,,,,,,,,,,,,,,,,,,,,,,,,,,,,,,,,,,,,,,,,,,,,,,,,,,,,,,,,,,,,,,,,,,,,,,,,,,,,,,,,,,,,,,,,,,,,,,,,,,,,,,,,,,,,,,,,,,,,,,,,,,
1764667392.761819,7629,1,4398.091309,4395.398926,4493.428223,4543.646484,4390.512695,4529.586914,4543.803223,4398.02002,4573.39502,4411.144531,4503.841309,4517.455078,4571.509766,4398.186035,4394.942871,4504.04541,4544.178711,4531.362793,4506.319824,4391.244141,4394.548828,4566.443359,4516.941895,4502.231934,4393.190918,4572.621094,4401.334473,4566.362793,4507.868164,4397.269531,4537.150879,4490.674316,0,0,14,0,0,,,,0,4,4,4,4,4,4,4,4,4,4,4,4,4,4,4,4,4,4,4,4,4,4,4,4,4,4,4,4,4,4,4,4,100,,,,,,,,,,,,,,,,,,,,,,,,,,,,,,,,,,,34673,1,0.490494,-0.495893,-0.36942,0.614031,0.961194,-0.246194,0.03223,5.619048,48.333332,-8.642858,,,,,,,,,,,,,,,,,,,,,,,,,,,,,,,,,,,,,,,,,,,,,,,,,,,,,,,,,,,,,,,,,,,,,,,,,,,,,,,,,,,,,,,,,,,,,,,,,,,,,,,,,,,,,,,,,,,,,,,,,,,,,,,,,,,,,,,,,,,,,,,,,,,,,,,,,,,,,,,,
1764667392.765725,7630,1,4399.060059,4395.98291,4493.817871,4544.060059,4391.666504,4530.726563,4544.743652,4399.273438,4573.661133,4410.413086,4504.373047,4518.404785,4572.265137,4398.646484,4394.914551,4504.145508,4545.156738,4532.06543,4506.809082,4391.267578,4394.430176,4567.464355,4517.507324,4502.663574,4394.273438,4572.521484,4402.022949,4567.06543,4508.447266,4397.93457,4536.495605,4490.669434,0,0,14,0,0,,,,0,4,4,4,4,4,4,4,4,4,4,4,4,4,4,4,4,4,4,4,4,4,4,4,4,4,4,4,4,4,4,4,4,100,,,,,,,,,,,,,,,,,,,,,,,,,,,,,,,,,,,,,,,,,,,,,,,,,,,,,,,,,,,,,,,,,,,,,,,,,,,,,,,,,,,,,,,,,,,,,,,,,,,,,,,,,,,,,,,,,,,,,,,,,,,,,,,,,,,,,,,,,,,,,,,,,,,,,,,,,,,,,,,,,,,,,,,,,,,,,,,,,,,,,,,,,,,,,,,,,,,,,,,,,,,,,,
1764667392.769631,7631,1,4400.02832,4396.566895,4494.207031,4544.473145,4392.820313,4531.866211,4545.683594,4400.526855,4573.926758,4409.681641,4504.905273,4519.354004,4573.02002,4399.107422,4394.88623,4504.245117,4546.134766,4532.768066,4507.29834,4391.291504,4394.311523,4568.485352,4518.072266,4503.095703,4395.355957,4572.421875,4402.711426,4567.768066,4509.026367,4398.599121,4535.840332,4490.664551,0,0,14,0,0,,,,0,4,4,4,4,4,4,4,4,4,4,4,4,4,4,4,4,4,4,4,4,4,4,4,4,4,4,4,4,4,4,4,4,100,,,,,,,,,,,,,,,,,,,,,,,,,,,,,,,,,,,34674,1,0.490495,-0.495867,-0.369411,0.614057,0.960915,-0.247519,0.033207,5.380952,48.333332,-8.690476,,,,,,,,,,,,,,,,,,,,,,,,,,,,,,,,,,,,,,,,,,,,,,,,,,,,,,,,,,,,,,,,,,,,,,,,,,,,,,,,,,,,,,,,,,,,,,,,,,,,,,,,,,,,,,,,,,,,,,,,,,,,,,,,,,,,,,,,,,,,,,,,,,,,,,,,,,,,,,,,
1764667392.773537,7632,1,4400.99707,4397.150879,4494.596191,4544.88623,4393.974121,4533.005859,4546.624023,4401.780762,4574.192871,4408.950684,4505.437012,4520.303711,4573.774902,4399.567871,4394.857422,4504.344727,4547.112793,4533.471191,4507.787109,4391.31543,4394.192871,4569.506348,4518.637207,4503.527832,4396.438965,4572.321777,4403.399902,4568.471191,4509.605957,4399.26416,4535.185059,4490.660156,0,0,14,0,0,,,,0,4,4,4,4,4,4,4,4,4,4,4,4,4,4,4,4,4,4,4,4,4,4,4,4,4,4,4,4,4,4,4,4,100,,,,,,,,,,,,,,,,,,,,,,,,,,,,,,,,,,,,,,,,,,,,,,,,,,,,,,,,,,,,,,,,,,,,,,,,,,,,,,,,,,,,,,,,,,,,,,,,,,,,,,,,,,,,,,,,,,,,,,,,,,,,,,,,,,,,,,,,,,,,,,,,,,,,,,,,,,,,,,,,,,,,,,,,,,,,,,,,,,,,,,,,,,,,,,,,,,,,,,,,,,,,,,
1764667392.777443,7633,1,4401.96582,4397.734863,4494.98584,4545.299316,4395.128418,4534.145508,4547.563965,4403.03418,4574.458496,4408.219238,4505.96875,4521.253418,4574.529785,4400.02832,4394.829102,4504.444336,4548.091309,4534.173828,4508.276367,4391.338867,4394.074219,4570.526855,4519.202148,4503.959961,4397.521484,4572.222168,4404.088379,4569.173828,4510.185059,4399.928711,4534.529785,4490.655273,0,0,14,0,0,,,,0,4,4,4,4,4,4,4,4,4,4,4,4,4,4,4,4,4,4,4,4,4,4,4,4,4,4,4,4,4,4,4,4,100,,,,,,,,,,,,,,,,,,,,,,,,,,,,,,,,,,,34675,1,0.490495,-0.495841,-0.369402,0.614083,0.960636,-0.248845,0.034184,5.142857,48.333332,-8.738095,,,,,,,,,,,,,,,,,,,,,,,,,,,,,,,,,,,,,,,,,,,,,,,,,,,,,,,,,,,,,,,,,,,,,,,,,,,,,,,,,,,,,,,,,,,,,,,,,,,,,,,,,,,,,,,,,,,,,,,,,,,,,,,,,,,,,,,,,,,,,,,,,,,,,,,,,,,,,,,,
1764667392.781349,7634,1,4402.93457,4398.318848,4495.375,4545.712402,4396.282227,4535.284668,4548.504395,4404.287598,4574.724609,4407.488281,4506.500488,4522.203125,4575.284668,4400.489258,4394.800781,4504.543945,4549.069336,4534.876465,4508.765625,4391.362793,4393.955566,4571.547852,4519.76709,4504.39209,4398.604004,4572.122559,4404.776855,4569.876465,4510.764648,4400.59375,4533.874512,4490.650391,0,0,14,0,0,,,,0,4,4,4,4,4,4,4,4,4,4,4,4,4,4,4,4,4,4,4,4,4,4,4,4,4,4,4,4,4,4,4,4,100,,,,,,,,,,,,,,,,,,,,,,,,,,,,,,,,,,,,,,,,,,,,,,,,,,,,,,,,,,,,,,,,,,,,,,,,,,,,,,,,,,,,,,,,,,,,,,,,,,,,,,,,,,,,,,,,,,,,,,,,,,,,,,,,,,,,,,,,,,,,,,,,,,,,,,,,,,,,,,,,,,,,,,,,,,,,,,,,,,,,,,,,,,,,,,,,,,,,,,,,,,,,,,
1764667392.785255,7635,1,4403.90332,4398.90332,4495.764648,4546.125488,4397.436035,4536.424316,4549.444336,4405.541504,4574.990723,4406.756836,4507.032227,4523.152832,4576.040039,4400.949707,4394.771973,4504.644043,4550.047363,4535.579102,4509.254395,4391.386719,4393.836426,4572.568848,4520.33252,4504.824219,4399.686523,4572.022949,4405.465332,4570.579102,4511.34375,4401.258301,4533.219238,4490.645996,0,0,14,0,0,,,,0,4,4,4,4,4,4,4,4,4,4,4,4,4,4,4,4,4,4,4,4,4,4,4,4,4,4,4,4,4,4,4,4,100,,,,,,,,,,,,,,,,,,,,,,,,,,,,,,,,,,,34676,1,0.490495,-0.495815,-0.369393,0.61411,0.960357,-0.25017,0.035161,4.904762,48.333332,-8.785714,,,,,,,,,,,,,,,,,,,,,,,,,,,,,,,,,,,,,,,,,,,,,,,,,,,,,,,,,,,,,,,,,,,,,,,,,,,,,,,,,,,,,,,,,,,,,,,,,,,,,,,,,,,,,,,,,,,,,,,,,,,,,,,,,,,,,,,,,,,,,,,,,,,,,,,,,,,,,,,,
1764667392.789161,7636,0,4404.871582,4399.487305,4496.153809,4546.538574,4398.589844,4537.563965,4550.384766,4406.794922,4575.256348,4406.025879,4507.563965,4524.102539,4576.794922,4401.410156,4394.743652,4504.743652,4551.025879,4536.282227,4509.743652,4391.410156,4393.717773,4573.589844,4520.897461,4505.256348,4400.769043,4571.922852,4406.153809,4571.282227,4511.922852,4401.922852,4532.563965,4490.641113,2577,0,14,2573,41027,,,,0,4,4,4,4,4,4,4,4,4,4,4,4,4,4,4,4,4,4,4,4,4,4,4,4,4,4,4,4,4,4,4,4,100,,,,,,,,,,,,,,,,,,,,,,,,,,,,,,,,,,,,,,,,,,,,,,,,,,,,,,,,,,,,,,,,,,,,,,,,,,,,,,,,,,,,,,,,,,,,,,,,,,,,,,,,,,,,,,,,,,,,,,,,,,,,,,,,,,,,,,,,,,,,,,,,,,,,,,,,,,,,,,,,,,,,,,,,,,,,,,,,,,,,,,,,,,,,,,,,,,,,,,,,,,,,,,
1764667392.793067,7637,0,4404.102539,4401.025879,4499.743652,4545.897461,4405.384766,4538.846191,4551.025879,4403.333496,4579.230957,4415.512695,4508.589844,4525.256348,4575.128418,4401.666504,4398.717773,4505,4550.769043,4541.666504,4513.717773,4395.128418,4396.922852,4577.563965,4521.282227,4502.820313,4416.666504,4575.769043,4399.743652,4569.615234,4514.358887,4407.436035,4523.333496,4488.205078,2828,0,14,2573,41027,,,,0,4,4,4,4,4,4,4,4,4,4,4,4,4,4,4,4,4,4,4,4,4,4,4,4,4,4,4,4,4,4,4,4,100,,,,,,,,,,,,,,,,,,,,,,,,,,,,,,,,,,,34677,0,0.490496,-0.495789,-0.369385,0.614136,0.960078,-0.251496,0.036137,4.666667,48.333332,-8.833333,,,,,,,,,,,,,,,,,,,,,,,,,,,,,,,,,,,,,,,,,,,,,,,,,,,,,,,,,,,,,,,,,,,,,,,,,,,,,,,,,,,,,,,,,,,,,,,,,,,,,,,,,,,,,,,,,,,,,,,,,,,,,,,,,,,,,,,,,,,,,,,,,,,,,,,,,,,,,,,,
1764667392.796973,7638,0,4404.487305,4405.641113,4502.692383,4550.384766,4412.307617,4540.384766,4551.666504,4402.307617,4584.743652,4418.461426,4510.897461,4529.615234,4575.512695,4403.974121,4406.666504,4507.05127,4553.974121,4548.205078,4520.128418,4401.922852,4404.743652,4582.94873,4526.025879,4503.717773,4430,4581.922852,4397.94873,4571.153809,4518.461426,4413.461426,4524.358887,4489.230957,2934,0,14,2574,41034,,,,0,4,4,4,4,4,4,4,4,4,4,4,4,4,4,4,4,4,4,4,4,4,4,4,4,4,4,4,4,4,4,4,4,100,,,,,,,,,,,,,,,,,,,,,,,,,,,,,,,,,,,,,,,,,,,,,,,,,,,,,,,,,,,,,,,,,,,,,,,,,,,,,,,,,,,,,,,,,,,,,,,,,,,,,,,,,,,,,,,,,,,,,,,,,,,,,,,,,,,,,,,,,,,,,,,,,,,,,,,,,,,,,,,,,,,,,,,,,,,,,,,,,,,,,,,,,,,,,,,,,,,,,,,,,,,,,,
1764667392.800879,7639,0,4406.538574,4411.538574,4503.589844,4557.563965,4416.282227,4542.307617,4551.922852,4403.589844,4591.282227,4416.922852,4513.461426,4534.871582,4577.820313,4406.410156,4413.974121,4509.358887,4559.615234,4553.461426,4526.410156,4408.205078,4415.128418,4588.333496,4532.563965,4508.974121,4440.128418,4588.333496,4400.384766,4575.769043,4522.05127,4417.05127,4532.692383,4494.230957,2866,0,14,2574,41034,,,,0,4,4,4,4,4,4,4,4,4,4,4,4,4,4,4,4,4,4,4,4,4,4,4,4,4,4,4,4,4,4,4,4,100,,,,,,,,,,,,,,,,,,,,,,,,,,,,,,,,,,,,,,,,,,,,,,,,,,,,,,,,,,,,,,,,,,,,,,,,,,,,,,,,,,,,,,,,,,,,,,,,,,,,,,,,,,,,,,,,,,,,,,,,,,,,,,,,,,,,,,,,,,,,,,,,,,,,,,,,,,,,,,,,,,,,,,,,,,,,,,,,,,,,,,,,,,,,,,,,,,,,,,,,,,,,,,
1764667392.804785,7640,0,4408.461426,4415.256348,4503.333496,4561.666504,4416.025879,4543.717773,4551.025879,4405.256348,4597.436035,4416.410156,4515,4538.205078,4580.384766,4407.563965,4415.897461,4510.128418,4564.230957,4555.512695,4529.743652,4410.384766,4423.717773,4591.922852,4536.922852,4516.538574,4447.820313,4593.205078,4403.974121,4580.512695,4523.077148,4416.025879,4539.743652,4500.512695,2737,0,14,2575,41042,,,,0,4,4,4,4,4,4,4,4,4,4,4,4,4,4,4,4,4,4,4,4,4,4,4,4,4,4,4,4,4,4,4,4,100,,,,,,,,,,,,,,,,,,,,,,,,,,,,,,,,,,,,,,,,,,,,,,,,,,,,,,,,,,,,,,,,,,,,,,,,,,,,,,,,,,,,,,,,,,,,,,,,,,,,,,,,,,,,,,,,,,,,,,,,,,,,,,,,,,,,,,,,,,,,,,,,,,,,,,,,,,,,,,,,,,,,,,,,,,,,,,,,,,,,,,,,,,,,,,,,,,,,,,,,,,,,,,
1764667392.808691,7641,0,4407.692383,4413.846191,4503.461426,4557.436035,4411.666504,4542.692383,4548.717773,4405.256348,4600.128418,4419.871582,4514.230957,4537.563965,4581.153809,4406.794922,4410.769043,4509.102539,4564.871582,4553.846191,4527.563965,4407.436035,4426.538574,4591.666504,4536.282227,4521.153809,4449.102539,4594.230957,4405.128418,4581.666504,4521.025879,4410.256348,4539.358887,4502.692383,2879,0,14,2575,41042,,,,0,4,4,4,4,4,4,4,4,4,4,4,4,4,4,4,4,4,4,4,4,4,4,4,4,4,4,4,4,4,4,4,4,100,,,,,,,,,,,,,,,,,,,,,,,,,,,,,,,,,,,34678,0,0.490465,-0.495789,-0.369324,0.614197,0.971798,-0.245147,0.023929,6.833333,50.166668,-8.666667,,,,,,,,,,,,,,,,,,,,,,,,,,,,,,,,,,,,,,,,,,,,,,,,,,,,,,,,,,,,,,,,,,,,,,,,,,,,,,,,,,,,,,,,,,,,,,,,,,,,,,,,,,,,,,,,,,,,,,,,,,,,,,,,,,,,,,,,,,,,,,,,,,,,,,,,,,,,,,,,
1764667392.812597,7642,1,4407.539551,4413.119629,4502.375,4556.0625,4410.848633,4542.057617,4548.949707,4405.128418,4598.418945,4418.046387,4514.029297,4537.197754,4581.160156,4406.453125,4410.006348,4508.956055,4564.462891,4552.95459,4526.849609,4406.678711,4424.944824,4590.854492,4536.025879,4520.195313,4446.282227,4592.771484,4404.92041,4580.952148,4520.848633,4409.731445,4540.104004,4502.008789,0,0,14,0,0,,,,0,4,4,4,4,4,4,4,4,4,4,4,4,4,4,4,4,4,4,4,4,4,4,4,4,4,4,4,4,4,4,4,4,100,,,,,,,,,,,,,,,,,,,,,,,,,,,,,,,,,,,,,,,,,,,,,,,,,,,,,,,,,,,,,,,,,,,,,,,,,,,,,,,,,,,,,,,,,,,,,,,,,,,,,,,,,,,,,,,,,,,,,,,,,,,,,,,,,,,,,,,,,,,,,,,,,,,,,,,,,,,,,,,,,,,,,,,,,,,,,,,,,,,,,,,,,,,,,,,,,,,,,,,,,,,,,,
1764667392.816503,7643,1,4407.387207,4412.393066,4501.288086,4554.688477,4410.030762,4541.422363,4549.182129,4405,4596.709473,4416.221191,4513.827637,4536.831543,4581.166016,4406.111328,4409.243164,4508.80957,4564.053711,4552.063477,4526.135742,4405.921875,4423.351563,4590.042969,4535.769043,4519.236816,4443.461426,4591.3125,4404.712891,4580.238281,4520.671387,4409.206543,4540.848633,4501.324707,0,0,14,0,0,,,,0,4,4,4,4,4,4,4,4,4,4,4,4,4,4,4,4,4,4,4,4,4,4,4,4,4,4,4,4,4,4,4,4,100,,,,,,,,,,,,,,,,,,,,,,,,,,,,,,,,,,,,,,,,,,,,,,,,,,,,,,,,,,,,,,,,,,,,,,,,,,,,,,,,,,,,,,,,,,,,,,,,,,,,,,,,,,,,,,,,,,,,,,,,,,,,,,,,,,,,,,,,,,,,,,,,,,,,,,,,,,,,,,,,,,,,,,,,,,,,,,,,,,,,,,,,,,,,,,,,,,,,,,,,,,,,,,
1764667392.820409,7644,1,4407.234375,4411.666504,4500.20166,4553.314941,4409.212402,4540.787598,4549.414063,4404.871582,4595,4414.395508,4513.626465,4536.465332,4581.172363,4405.769043,4408.47998,4508.663086,4563.644531,4551.172363,4525.421387,4405.165039,4421.758301,4589.230957,4535.512695,4518.27832,4440.641113,4589.853516,4404.505371,4579.523926,4520.494629,4408.681152,4541.593262,4500.641113,0,0,14,0,0,,,,0,4,4,4,4,4,4,4,4,4,4,4,4,4,4,4,4,4,4,4,4,4,4,4,4,4,4,4,4,4,4,4,4,100,,,,,,,,,,,,,,,,,,,,,,,,,,,,,,,,,,,,,,,,,,,,,,,,,,,,,,,,,,,,,,,,,,,,,,,,,,,,,,,,,,,,,,,,,,,,,,,,,,,,,,,,,,,,,,,,,,,,,,,,,,,,,,,,,,,,,,,,,,,,,,,,,,,,,,,,,,,,,,,,,,,,,,,,,,,,,,,,,,,,,,,,,,,,,,,,,,,,,,,,,,,,,,
1764667392.824315,7645,1,4407.082031,4410.939941,4499.114746,4551.941406,4408.394531,4540.152832,4549.645996,4404.743652,4593.290527,4412.570313,4513.424805,4536.099121,4581.178223,4405.427246,4407.716797,4508.516602,4563.23584,4550.280762,4524.707031,4404.407715,4420.165039,4588.418945,4535.256348,4517.319824,4437.820313,4588.394531,4404.297852,4578.80957,4520.317383,4408.15625,4542.338379,4499.957031,0,0,14,0,0,,,,0,4,4,4,4,4,4,4,4,4,4,4,4,4,4,4,4,4,4,4,4,4,4,4,4,4,4,4,4,4,4,4,4,100,,,,,,,,,,,,,,,,,,,,,,,,,,,,,,,,,,,,,,,,,,,,,,,,,,,,,,,,,,,,,,,,,,,,,,,,,,,,,,,,,,,,,,,,,,,,,,,,,,,,,,,,,,,,,,,,,,,,,,,,,,,,,,,,,,,,,,,,,,,,,,,,,,,,,,,,,,,,,,,,,,,,,,,,,,,,,,,,,,,,,,,,,,,,,,,,,,,,,,,,,,,,,,
1764667392.828221,7646,1,4406.929199,4410.213867,4498.02832,4550.567871,4407.576172,4539.517578,4549.87793,4404.615234,4591.581055,4410.744629,4513.223633,4535.732422,4581.18457,4405.085449,4406.953613,4508.370117,4562.82666,4549.389648,4523.992676,4403.650879,4418.571289,4587.606934,4535,4516.361328,4435,4586.935059,4404.090332,4578.095215,4520.140625,4407.631348,4543.083008,4499.273438,0,0,14,0,0,,,,0,4,4,4,4,4,4,4,4,4,4,4,4,4,4,4,4,4,4,4,4,4,4,4,4,4,4,4,4,4,4,4,4,100,,,,,,,,,,,,,,,,,,,,,,,,,,,,,,,,,,,,,,,,,,,,,,,,,,,,,,,,,,,,,,,,,,,,,,,,,,,,,,,,,,,,,,,,,,,,,,,,,,,,,,,,,,,,,,,,,,,,,,,,,,,,,,,,,,,,,,,,,,,,,,,,,,,,,,,,,,,,,,,,,,,,,,,,,,,,,,,,,,,,,,,,,,,,,,,,,,,,,,,,,,,,,,
1764667392.832127,7647,1,4406.776367,4409.487305,4496.941406,4549.194336,4406.758301,4538.882813,4550.109863,4404.487305,4589.871582,4408.919434,4513.021973,4535.366211,4581.19043,4404.743652,4406.19043,4508.223633,4562.41748,4548.498047,4523.27832,4402.893555,4416.978027,4586.794922,4534.743652,4515.402832,4432.179688,4585.476074,4403.882813,4577.380859,4519.963379,4407.106445,4543.827637,4498.589844,0,0,14,0,0,,,,0,4,4,4,4,4,4,4,4,4,4,4,4,4,4,4,4,4,4,4,4,4,4,4,4,4,4,4,4,4,4,4,4,100,,,,,,,,,,,,,,,,,,,,,,,,,,,,,,,,,,,,,,,,,,,,,,,,,,,,,,,,,,,,,,,,,,,,,,,,,,,,,,,,,,,,,,,,,,,,,,,,,,,,,,,,,,,,,,,,,,,,,,,,,,,,,,,,,,,,,,,,,,,,,,,,,,,,,,,,,,,,,,,,,,,,,,,,,,,,,,,,,,,,,,,,,,,,,,,,,,,,,,,,,,,,,,
1764667392.836033,7648,1,4406.624023,4408.760742,4495.854492,4547.820313,4405.939941,4538.248047,4550.341797,4404.358887,4588.162598,4407.094238,4512.820313,4535,4581.196777,4404.401855,4405.427246,4508.077148,4562.008789,4547.606934,4522.563965,4402.136719,4415.384766,4585.98291,4534.487305,4514.444336,4429.358887,4584.01709,4403.675293,4576.666504,4519.786133,4406.581055,4544.572754,4497.905762,0,0,14,0,0,,,,0,4,4,4,4,4,4,4,4,4,4,4,4,4,4,4,4,4,4,4,4,4,4,4,4,4,4,4,4,4,4,4,4,100,,,,,,,,,,,,,,,,,,,,,,,,,,,,,,,,,,,,,,,,,,,,,,,,,,,,,,,,,,,,,,,,,,,,,,,,,,,,,,,,,,,,,,,,,,,,,,,,,,,,,,,,,,,,,,,,,,,,,,,,,,,,,,,,,,,,,,,,,,,,,,,,,,,,,,,,,,,,,,,,,,,,,,,,,,,,,,,,,,,,,,,,,,,,,,,,,,,,,,,,,,,,,,
1764667392.839939,7649,1,4406.471191,4408.03418,4494.768066,4546.446777,4405.12207,4537.612793,4550.57373,4404.230957,4586.453125,4405.268555,4512.619141,4534.633789,4581.202637,4404.060059,4404.664063,4507.930176,4561.599609,4546.715332,4521.849609,4401.379883,4413.791016,4585.170898,4534.230957,4513.48584,4426.538574,4582.558105,4403.467773,4575.952148,4519.609375,4406.056152,4545.317383,4497.222168,0,0,14,0,0,,,,0,4,4,4,4,4,4,4,4,4,4,4,4,4,4,4,4,4,4,4,4,4,4,4,4,4,4,4,4,4,4,4,4,100,,,,,,,,,,,,,,,,,,,,,,,,,,,,,,,,,,,,,,,,,,,,,,,,,,,,,,,,,,,,,,,,,,,,,,,,,,,,,,,,,,,,,,,,,,,,,,,,,,,,,,,,,,,,,,,,,,,,,,,,,,,,,,,,,,,,,,,,,,,,,,,,,,,,,,,,,,,,,,,,,,,,,,,,,,,,,,,,,,,,,,,,,,,,,,,,,,,,,,,,,,,,,,
1764667392.843845,7650,1,4406.318848,4407.307617,4493.681152,4545.073242,4404.304199,4536.978027,4550.805664,4404.102539,4584.743652,4403.443359,4512.41748,4534.267578,4581.208984,4403.717773,4403.900879,4507.783691,4561.19043,4545.824219,4521.135742,4400.622559,4412.197754,4584.358887,4533.974121,4512.527344,4423.717773,4581.099121,4403.260254,4575.238281,4519.432129,4405.53125,4546.0625,4496.538574,0,0,14,0,0,,,,0,4,4,4,4,4,4,4,4,4,4,4,4,4,4,4,4,4,4,4,4,4,4,4,4,4,4,4,4,4,4,4,4,100,,,,,,,,,,,,,,,,,,,,,,,,,,,,,,,,,,,,,,,,,,,,,,,,,,,,,,,,,,,,,,,,,,,,,,,,,,,,,,,,,,,,,,,,,,,,,,,,,,,,,,,,,,,,,,,,,,,,,,,,,,,,,,,,,,,,,,,,,,,,,,,,,,,,,,,,,,,,,,,,,,,,,,,,,,,,,,,,,,,,,,,,,,,,,,,,,,,,,,,,,,,,,,
1764667392.847751,7651,1,4406.166016,4406.581055,4492.594727,4543.699707,4403.48584,4536.343262,4551.038086,4403.974121,4583.03418,4401.617676,4512.216309,4533.900879,4581.214844,4403.375977,4403.138184,4507.637207,4560.78125,4544.932617,4520.421387,4399.865723,4410.604492,4583.546875,4533.717773,4511.568848,4420.897461,4579.639648,4403.052734,4574.523926,4519.255371,4405.006348,4546.807129,4495.854492,0,0,14,0,0,,,,0,4,4,4,4,4,4,4,4,4,4,4,4,4,4,4,4,4,4,4,4,4,4,4,4,4,4,4,4,4,4,4,4,100,,,,,,,,,,,,,,,,,,,,,,,,,,,,,,,,,,,,,,,,,,,,,,,,,,,,,,,,,,,,,,,,,,,,,,,,,,,,,,,,,,,,,,,,,,,,,,,,,,,,,,,,,,,,,,,,,,,,,,,,,,,,,,,,,,,,,,,,,,,,,,,,,,,,,,,,,,,,,,,,,,,,,,,,,,,,,,,,,,,,,,,,,,,,,,,,,,,,,,,,,,,,,,
1764667392.851657,7652,1,4406.013672,4405.854492,4491.507813,4542.326172,4402.667969,4535.708008,4551.27002,4403.846191,4581.324707,4399.79248,4512.014648,4533.534668,4581.221191,4403.03418,4402.375,4507.490723,4560.372559,4544.041504,4519.707031,4399.108887,4409.01123,4582.734863,4533.461426,4510.610352,4418.077148,4578.180664,4402.844727,4573.80957,4519.078125,4404.480957,4547.551758,4495.170898,0,0,14,0,0,,,,0,4,4,4,4,4,4,4,4,4,4,4,4,4,4,4,4,4,4,4,4,4,4,4,4,4,4,4,4,4,4,4,4,100,,,,,,,,,,,,,,,,,,,,,,,,,,,,,,,,,,,,,,,,,,,,,,,1.097409,0.569518,0.289113,0.078263,0.033356,1.328864,1.063805,0.41427,0.124649,0.063815,13.88031,5.639397,1.372152,0.595441,0.130918,2.25166,1.043994,0.309816,0.231259,0.14453,1.808211,3.057384,0.766557,0.735619,0.152419,0.644746,0.533507,0.313362,0.100769,0.031599,0.951731,0.501674,0.210768,0.112091,0.037325,0.360851,1.052961,0.421607,0.191197,0.092988,0.591574,0.468259,0.199856,0.186756,0.073572,2.082922,2.271363,1.200666,0.526141,0.16042,0.628519,0.370404,0.170176,0.064192,0.036064,2.029675,0.419581,0.162607,0.084096,0.028004,1.505723,0.420905,0.189493,0.057286,0.03089,0.587413,0.279508,0.160154,0.064102,0.022006,2.087229,0.519057,0.369117,0.070402,0.069942,0.37895,0.136893,0.109495,0.020846,0.010042,1.964023,0.61754,0.259552,0.085593,0.044337,3.782768,1.480626,0.52258,0.162221,0.09616,3.127952,0.901161,0.420067,0.122285,0.104706,1.941715,0.246105,0.19978,0.068378,0.069041,2.021988,0.663223,0.294228,0.153191,0.071296,2.033797,0.644009,0.293064,0.123603,0.050613,1.674081,0.268887,0.262191,0.058563,0.037359,0.94032,0.48111,0.465593,0.123871,0.065396,4.05108,2.577983,1.647174,1.354462,0.54421,0.394601,0.205514,0.091021,0.087411,0.048201,2.127596,0.943584,0.440705,0.228036,0.091019,1.116027,0.758001,0.322667,0.120438,0.045211,0.458774,0.277623,0.177178,0.05169,0.022027,1.662742,1.236228,0.636196,0.201957,0.150627,2.998306,1.902228,0.99032,0.879507,0.410716,17.915897,5.699335,2.15827,0.957039,0.282218
1764667392.855563,7653,1,4405.86084,4405.128418,4490.421387,4540.952148,4401.849609,4535.073242,4551.501953,4403.717773,4579.615234,4397.966797,4511.812988,4533.168457,4581.227051,4402.692383,4401.611816,4507.344238,4559.963379,4543.150391,4518.992676,4398.351563,4407.41748,4581.922852,4533.205078,4509.651855,4415.256348,4576.72168,4402.637207,4573.095215,4518.900879,4403.956055,4548.296875,4494.487305,0,0,14,0,0,,,,0,4,4,4,4,4,4,4,4,4,4,4,4,4,4,4,4,4,4,4,4,4,4,4,4,4,4,4,4,4,4,4,4,100,,,,,,,,,,,,,,,,,,,,,,,,,,,,,,,,,,,,,,,,,,,,,,,,,,,,,,,,,,,,,,,,,,,,,,,,,,,,,,,,,,,,,,,,,,,,,,,,,,,,,,,,,,,,,,,,,,,,,,,,,,,,,,,,,,,,,,,,,,,,,,,,,,,,,,,,,,,,,,,,,,,,,,,,,,,,,,,,,,,,,,,,,,,,,,,,,,,,,,,,,,,,,,
1764667392.859469,7654,1,4405.708008,4404.401855,4489.334473,4539.578613,4401.031738,4534.438477,4551.733887,4403.589844,4577.905762,4396.141602,4511.611816,4532.802246,4581.233398,4402.350586,4400.848633,4507.197754,4559.554199,4542.258789,4518.27832,4397.594727,4405.824219,4581.111328,4532.94873,4508.693359,4412.436035,4575.262695,4402.429688,4572.380859,4518.724121,4403.431152,4549.041504,4493.803223,0,0,14,0,0,,,,0,4,4,4,4,4,4,4,4,4,4,4,4,4,4,4,4,4,4,4,4,4,4,4,4,4,4,4,4,4,4,4,4,100,,,,,,,,,,,,,,,,,,,,,,,,,,,,,,,,,,,,,,,,,,,,,,,,,,,,,,,,,,,,,,,,,,,,,,,,,,,,,,,,,,,,,,,,,,,,,,,,,,,,,,,,,,,,,,,,,,,,,,,,,,,,,,,,,,,,,,,,,,,,,,,,,,,,,,,,,,,,,,,,,,,,,,,,,,,,,,,,,,,,,,,,,,,,,,,,,,,,,,,,,,,,,,
1764667392.863375,7655,1,4405.555664,4403.675293,4488.248047,4538.205078,4400.213867,4533.803223,4551.96582,4403.461426,4576.196777,4394.316406,4511.410156,4532.436035,4581.239258,4402.008789,4400.085449,4507.05127,4559.145508,4541.367676,4517.563965,4396.837402,4404.230957,4580.299316,4532.692383,4507.734863,4409.615234,4573.803223,4402.222168,4571.666504,4518.546875,4402.905762,4549.786133,4493.119629,0,0,14,0,0,,,,0,4,4,4,4,4,4,4,4,4,4,4,4,4,4,4,4,4,4,4,4,4,4,4,4,4,4,4,4,4,4,4,4,100,,,,,,,,,,,,,,,,,,,,,,,,,,,,,,,,,,,,,,,,,,,,,,,,,,,,,,,,,,,,,,,,,,,,,,,,,,,,,,,,,,,,,,,,,,,,,,,,,,,,,,,,,,,,,,,,,,,,,,,,,,,,,,,,,,,,,,,,,,,,,,,,,,,,,,,,,,,,,,,,,,,,,,,,,,,,,,,,,,,,,,,,,,,,,,,,,,,,,,,,,,,,,,
1764667392.867281,7656,1,4405.402832,4402.94873,4487.161133,4536.831543,4399.395508,4533.168457,4552.197754,4403.333496,4574.487305,4392.490723,4511.208984,4532.069824,4581.245605,4401.666504,4399.322266,4506.904785,4558.736328,4540.476074,4516.849609,4396.080566,4402.637207,4579.487305,4532.436035,4506.776367,4406.794922,4572.344238,4402.014648,4570.952148,4518.370117,4402.380859,4550.53125,4492.436035,0,0,14,0,0,,,,0,4,4,4,4,4,4,4,4,4,4,4,4,4,4,4,4,4,4,4,4,4,4,4,4,4,4,4,4,4,4,4,4,100,,,,,,,,,,,,,,,,,,,,,,,,,,,,,,,,,,,,,,,,,,,,,,,,,,,,,,,,,,,,,,,,,,,,,,,,,,,,,,,,,,,,,,,,,,,,,,,,,,,,,,,,,,,,,,,,,,,,,,,,,,,,,,,,,,,,,,,,,,,,,,,,,,,,,,,,,,,,,,,,,,,,,,,,,,,,,,,,,,,,,,,,,,,,,,,,,,,,,,,,,,,,,,
1764667392.871187,7657,1,4405.250488,4402.222168,4486.074707,4535.458008,4398.577637,4532.533691,4552.429688,4403.205078,4572.777832,4390.665527,4511.007324,4531.703125,4581.251465,4401.324707,4398.559082,4506.758301,4558.327148,4539.584961,4516.135742,4395.32373,4401.043945,4578.675293,4532.179688,4505.817871,4403.974121,4570.885254,4401.807129,4570.238281,4518.192871,4401.855957,4551.275879,4491.751953,0,0,14,0,0,,,,0,4,4,4,4,4,4,4,4,4,4,4,4,4,4,4,4,4,4,4,4,4,4,4,4,4,4,4,4,4,4,4,4,100,,,,,,,,,,,,,,,,,,,,,,,,,,,,,,,,,,,,,,,,,,,,,,,,,,,,,,,,,,,,,,,,,,,,,,,,,,,,,,,,,,,,,,,,,,,,,,,,,,,,,,,,,,,,,,,,,,,,,,,,,,,,,,,,,,,,,,,,,,,,,,,,,,,,,,,,,,,,,,,,,,,,,,,,,,,,,,,,,,,,,,,,,,,,,,,,,,,,,,,,,,,,,,
1764667392.875093,7658,1,4405.097656,4401.495605,4484.987793,4534.084473,4397.759277,4531.898438,4552.661621,4403.077148,4571.068359,4388.839844,4510.805664,4531.336914,4581.257813,4400.98291,4397.795898,4506.611816,4557.917969,4538.693359,4515.421387,4394.566406,4399.450684,4577.863281,4531.922852,4504.859375,4401.153809,4569.42627,4401.599609,4569.523926,4518.016113,4401.331055,4552.020996,4491.068359,0,0,14,0,0,,,,0,4,4,4,4,4,4,4,4,4,4,4,4,4,4,4,4,4,4,4,4,4,4,4,4,4,4,4,4,4,4,4,4,100,,,,,,,,,,,,,,,,,,,,,,,,,,,,,,,,,,,,,,,,,,,,,,,,,,,,,,,,,,,,,,,,,,,,,,,,,,,,,,,,,,,,,,,,,,,,,,,,,,,,,,,,,,,,,,,,,,,,,,,,,,,,,,,,,,,,,,,,,,,,,,,,,,,,,,,,,,,,,,,,,,,,,,,,,,,,,,,,,,,,,,,,,,,,,,,,,,,,,,,,,,,,,,
1764667392.878999,7659,1,4404.944824,4400.769043,4483.900879,4532.710449,4396.941406,4531.263672,4552.893555,4402.94873,4569.358887,4387.014648,4510.604492,4530.970703,4581.263672,4400.641113,4397.033203,4506.465332,4557.509277,4537.802246,4514.707031,4393.80957,4397.856934,4577.05127,4531.666504,4503.900879,4398.333496,4567.966797,4401.39209,4568.80957,4517.838867,4400.805664,4552.765625,4490.384766,0,0,14,0,0,,,,0,4,4,4,4,4,4,4,4,4,4,4,4,4,4,4,4,4,4,4,4,4,4,4,4,4,4,4,4,4,4,4,4,100,,,,,,,,,,,,,,,,,,,,,,,,,,,,,,,,,,,,,,,,,,,,,,,,,,,,,,,,,,,,,,,,,,,,,,,,,,,,,,,,,,,,,,,,,,,,,,,,,,,,,,,,,,,,,,,,,,,,,,,,,,,,,,,,,,,,,,,,,,,,,,,,,,,,,,,,,,,,,,,,,,,,,,,,,,,,,,,,,,,,,,,,,,,,,,,,,,,,,,,,,,,,,,
1764667392.882905,7660,1,4404.79248,4400.042969,4482.814453,4531.336914,4396.123535,4530.628906,4553.125977,4402.820313,4567.649414,4385.189453,4510.402832,4530.604492,4581.27002,4400.299316,4396.27002,4506.318848,4557.100098,4536.910645,4513.992676,4393.052734,4396.263672,4576.239258,4531.410156,4502.942383,4395.512695,4566.507813,4401.18457,4568.095215,4517.661621,4400.280762,4553.510254,4489.700684,0,0,14,0,0,,,,0,4,4,4,4,4,4,4,4,4,4,4,4,4,4,4,4,4,4,4,4,4,4,4,4,4,4,4,4,4,4,4,4,100,,,,,,,,,,,,,,,,,,,,,,,,,,,,,,,,,,,,,,,,,,,,,,,,,,,,,,,,,,,,,,,,,,,,,,,,,,,,,,,,,,,,,,,,,,,,,,,,,,,,,,,,,,,,,,,,,,,,,,,,,,,,,,,,,,,,,,,,,,,,,,,,,,,,,,,,,,,,,,,,,,,,,,,,,,,,,,,,,,,,,,,,,,,,,,,,,,,,,,,,,,,,,,
1764667392.886811,7661,1,4404.639648,4399.316406,4481.727539,4529.963379,4395.305176,4529.993652,4553.35791,4402.692383,4565.939941,4383.36377,4510.20166,4530.238281,4581.275879,4399.957031,4395.506836,4506.172363,4556.690918,4536.019531,4513.27832,4392.29541,4394.67041,4575.427246,4531.153809,4501.983887,4392.692383,4565.048828,4400.976563,4567.380859,4517.484863,4399.755859,4554.255371,4489.01709,0,0,14,0,0,,,,0,4,4,4,4,4,4,4,4,4,4,4,4,4,4,4,4,4,4,4,4,4,4,4,4,4,4,4,4,4,4,4,4,100,,,,,,,,,,,,,,,,,,,,,,,,,,,,,,,,,,,,,,,,,,,,,,,,,,,,,,,,,,,,,,,,,,,,,,,,,,,,,,,,,,,,,,,,,,,,,,,,,,,,,,,,,,,,,,,,,,,,,,,,,,,,,,,,,,,,,,,,,,,,,,,,,,,,,,,,,,,,,,,,,,,,,,,,,,,,,,,,,,,,,,,,,,,,,,,,,,,,,,,,,,,,,,
1764667392.890717,7662,0,4404.487305,4398.589844,4480.641113,4528.589844,4394.487305,4529.358887,4553.589844,4402.563965,4564.230957,4381.538574,4510,4529.871582,4581.282227,4399.615234,4394.743652,4506.025879,4556.282227,4535.128418,4512.563965,4391.538574,4393.077148,4574.615234,4530.897461,4501.025879,4389.871582,4563.589844,4400.769043,4566.666504,4517.307617,4399.230957,4555,4488.333496,2735,0,14,2576,41128,,,,0,4,4,4,4,4,4,4,4,4,4,4,4,4,4,4,4,4,4,4,4,4,4,4,4,4,4,4,4,4,4,4,4,100,,,,,,,,,,,,,,,,,,,,,,,,,,,,,,,,,,,,,,,,,,,,,,,,,,,,,,,,,,,,,,,,,,,,,,,,,,,,,,,,,,,,,,,,,,,,,,,,,,,,,,,,,,,,,,,,,,,,,,,,,,,,,,,,,,,,,,,,,,,,,,,,,,,,,,,,,,,,,,,,,,,,,,,,,,,,,,,,,,,,,,,,,,,,,,,,,,,,,,,,,,,,,,
1764667392.894623,7663,0,4402.563965,4397.307617,4484.358887,4531.282227,4391.922852,4529.230957,4552.179688,4395.769043,4565.512695,4381.153809,4509.615234,4528.589844,4579.102539,4399.743652,4396.538574,4506.025879,4555.897461,4536.538574,4515,4392.179688,4396.922852,4574.743652,4530.128418,4499.102539,4393.077148,4566.410156,4397.436035,4563.974121,4517.05127,4400.256348,4543.333496,4500.128418,2505,0,14,2576,41128,,,,0,4,4,4,4,4,4,4,4,4,4,4,4,4,4,4,4,4,4,4,4,4,4,4,4,4,4,4,4,4,4,4,4,100,,,,,,,,,,,,,,,,,,,,,,,,,,,,,,,,,,,,,,,,,,,,,,,,,,,,,,,,,,,,,,,,,,,,,,,,,,,,,,,,,,,,,,,,,,,,,,,,,,,,,,,,,,,,,,,,,,,,,,,,,,,,,,,,,,,,,,,,,,,,,,,,,,,,,,,,,,,,,,,,,,,,,,,,,,,,,,,,,,,,,,,,,,,,,,,,,,,,,,,,,,,,,,
1764667392.898529,7664,1,4401.453125,4398.846191,4494.145508,4531.880371,4395.769043,4529.487305,4551.111328,4393.03418,4571.624023,4387.649414,4511.581055,4528.290527,4579.829102,4399.316406,4394.700684,4507.094238,4555.897461,4537.905762,4516.111328,4393.119629,4402.521484,4576.666504,4527.94873,4499.316406,4395.256348,4567.094238,4395.854492,4565.598145,4515.512695,4400.085449,4528.333496,4499.102539,0,0,14,0,0,,,,0,4,4,4,4,4,4,4,4,4,4,4,4,4,4,4,4,4,4,4,4,4,4,4,4,4,4,4,4,4,4,4,4,100,,,,,,,,,,,,,,,,,,,,,,,,,,,,,,,,,,,,,,,,,,,,,,,,,,,,,,,,,,,,,,,,,,,,,,,,,,,,,,,,,,,,,,,,,,,,,,,,,,,,,,,,,,,,,,,,,,,,,,,,,,,,,,,,,,,,,,,,,,,,,,,,,,,,,,,,,,,,,,,,,,,,,,,,,,,,,,,,,,,,,,,,,,,,,,,,,,,,,,,,,,,,,,
1764667392.902435,7665,1,4400.341797,4400.384766,4503.931641,4532.478516,4399.615234,4529.743652,4550.042969,4390.299316,4577.734863,4394.145508,4513.546875,4527.991211,4580.555664,4398.888672,4392.863281,4508.162598,4555.897461,4539.273438,4517.222168,4394.060059,4408.119629,4578.589844,4525.769043,4499.529785,4397.436035,4567.777832,4394.273438,4567.222168,4513.974121,4399.914551,4513.333496,4498.077148,0,0,14,0,0,,,,0,4,4,4,4,4,4,4,4,4,4,4,4,4,4,4,4,4,4,4,4,4,4,4,4,4,4,4,4,4,4,4,4,100,,,,,,,,,,,,,,,,,,,,,,,,,,,,,,,,,,,,,,,,,,,,,,,,,,,,,,,,,,,,,,,,,,,,,,,,,,,,,,,,,,,,,,,,,,,,,,,,,,,,,,,,,,,,,,,,,,,,,,,,,,,,,,,,,,,,,,,,,,,,,,,,,,,,,,,,,,,,,,,,,,,,,,,,,,,,,,,,,,,,,,,,,,,,,,,,,,,,,,,,,,,,,,
1764667392.906341,7666,0,4399.230957,4401.922852,4513.717773,4533.077148,4403.461426,4530,4548.974121,4387.563965,4583.846191,4400.641113,4515.512695,4527.692383,4581.282227,4398.461426,4391.025879,4509.230957,4555.897461,4540.641113,4518.333496,4395,4413.717773,4580.512695,4523.589844,4499.743652,4399.615234,4568.461426,4392.692383,4568.846191,4512.436035,4399.743652,4498.333496,4497.05127,1781,0,14,2576,41144,,,,0,4,4,4,4,4,4,4,4,4,4,4,4,4,4,4,4,4,4,4,4,4,4,4,4,4,4,4,4,4,4,4,4,100,,,,,,,,,,,,,,,,,,,,,,,,,,,,,,,,,,,,,,,,,,,,,,,,,,,,,,,,,,,,,,,,,,,,,,,,,,,,,,,,,,,,,,,,,,,,,,,,,,,,,,,,,,,,,,,,,,,,,,,,,,,,,,,,,,,,,,,,,,,,,,,,,,,,,,,,,,,,,,,,,,,,,,,,,,,,,,,,,,,,,,,,,,,,,,,,,,,,,,,,,,,,,,
1764667392.910247,7667,0,4401.922852,4405.128418,4514.358887,4539.487305,4405.256348,4532.692383,4552.692383,4395.897461,4585.128418,4403.589844,4516.666504,4526.794922,4584.102539,4398.461426,4389.615234,4510.384766,4557.563965,4543.589844,4517.563965,4395.897461,4417.05127,4581.794922,4524.230957,4503.205078,4408.333496,4569.743652,4394.487305,4570.128418,4513.461426,4400.256348,4503.974121,4490.641113,2806,0,14,2576,41144,,,,0,4,4,4,4,4,4,4,4,4,4,4,4,4,4,4,4,4,4,4,4,4,4,4,4,4,4,4,4,4,4,4,4,100,,,,,,,,,,,,,,,,,,,,,,,,,,,,,,,,,,,,,,,,,,,,,,,,,,,,,,,,,,,,,,,,,,,,,,,,,,,,,,,,,,,,,,,,,,,,,,,,,,,,,,,,,,,,,,,,,,,,,,,,,,,,,,,,,,,,,,,,,,,,,,,,,,,,,,,,,,,,,,,,,,,,,,,,,,,,,,,,,,,,,,,,,,,,,,,,,,,,,,,,,,,,,,
1764667392.914153,7668,0,4404.871582,4406.666504,4506.282227,4546.922852,4403.846191,4534.743652,4554.358887,4401.666504,4582.179688,4405,4515.512695,4526.410156,4585.128418,4399.615234,4391.282227,4511.410156,4558.846191,4546.666504,4517.820313,4395.641113,4416.410156,4582.307617,4525.769043,4506.794922,4416.410156,4571.282227,4397.05127,4570.256348,4515.512695,4398.974121,4521.794922,4488.205078,2578,0,14,2575,41152,,,,0,4,4,4,4,4,4,4,4,4,4,4,4,4,4,4,4,4,4,4,4,4,4,4,4,4,4,4,4,4,4,4,4,100,,,,,,,,,,,,,,,,,,,,,,,,,,,,,,,,,,,,,,,,,,,,,,,,,,,,,,,,,,,,,,,,,,,,,,,,,,,,,,,,,,,,,,,,,,,,,,,,,,,,,,,,,,,,,,,,,,,,,,,,,,,,,,,,,,,,,,,,,,,,,,,,,,,,,,,,,,,,,,,,,,,,,,,,,,,,,,,,,,,,,,,,,,,,,,,,,,,,,,,,,,,,,,
1764667392.918059,7669,0,4406.282227,4405.769043,4492.563965,4550.128418,4402.436035,4535.128418,4552.05127,4400.384766,4576.922852,4406.666504,4512.05127,4527.436035,4584.230957,4402.05127,4396.025879,4512.94873,4558.974121,4550.128418,4521.153809,4395,4412.94873,4582.94873,4526.794922,4508.077148,4419.102539,4572.179688,4399.230957,4570.256348,4516.922852,4395.128418,4542.307617,4489.871582,2835,0,14,2575,41152,,,,0,4,4,4,4,4,4,4,4,4,4,4,4,4,4,4,4,4,4,4,4,4,4,4,4,4,4,4,4,4,4,4,4,100,,,,,,,,,,,,,,,,,,,,,,,,,,,,,,,,,,,34685,0,0.490477,-0.496155,-0.369324,0.613892,0.972287,-0.249054,0.038091,5.833333,49.166668,-8.833333,,,,,,,,,,,,,,,,,,,,,,,,,,,,,,,,,,,,,,,,,,,,,,,,,,,,,,,,,,,,,,,,,,,,,,,,,,,,,,,,,,,,,,,,,,,,,,,,,,,,,,,,,,,,,,,,,,,,,,,,,,,,,,,,,,,,,,,,,,,,,,,,,,,,,,,,,,,,,,,,
1764667392.921965,7670,0,4405.384766,4403.205078,4479.743652,4545.641113,4403.846191,4534.358887,4547.307617,4393.717773,4571.922852,4409.487305,4507.179688,4528.717773,4582.179688,4405.384766,4401.538574,4514.615234,4558.461426,4553.717773,4527.179688,4395.384766,4409.743652,4584.487305,4526.922852,4506.410156,4414.358887,4572.436035,4400.384766,4570.512695,4516.922852,4391.025879,4552.94873,4491.922852,2947,0,14,2574,41159,,,,0,4,4,4,4,4,4,4,4,4,4,4,4,4,4,4,4,4,4,4,4,4,4,4,4,4,4,4,4,4,4,4,4,100,,,,,,,,,,,,,,,,,,,,,,,,,,,,,,,,,,,,,,,,,,,,,,,,,,,,,,,,,,,,,,,,,,,,,,,,,,,,,,,,,,,,,,,,,,,,,,,,,,,,,,,,,,,,,,,,,,,,,,,,,,,,,,,,,,,,,,,,,,,,,,,,,,,,,,,,,,,,,,,,,,,,,,,,,,,,,,,,,,,,,,,,,,,,,,,,,,,,,,,,,,,,,,
1764667392.925871,7671,0,4403.461426,4401.410156,4474.871582,4535.384766,4407.94873,4533.846191,4543.333496,4387.820313,4568.974121,4411.538574,4502.692383,4528.717773,4580.512695,4408.589844,4404.615234,4516.025879,4557.563965,4555.897461,4533.077148,4397.94873,4409.743652,4587.563965,4526.922852,4503.846191,4405.384766,4572.94873,4400.256348,4571.794922,4516.410156,4391.410156,4546.922852,4489.615234,2859,0,14,2574,41159,,,,0,4,4,4,4,4,4,4,4,4,4,4,4,4,4,4,4,4,4,4,4,4,4,4,4,4,4,4,4,4,4,4,4,100,,,,,,,,,,,,,,,,,,,,,,,,,,,,,,,,,,,,,,,,,,,,,,,,,,,,,,,,,,,,,,,,,,,,,,,,,,,,,,,,,,,,,,,,,,,,,,,,,,,,,,,,,,,,,,,,,,,,,,,,,,,,,,,,,,,,,,,,,,,,,,,,,,,,,,,,,,,,,,,,,,,,,,,,,,,,,,,,,,,,,,,,,,,,,,,,,,,,,,,,,,,,,,
1764667392.929777,7672,0,4402.307617,4401.666504,4480.512695,4525.128418,4411.025879,4534.615234,4542.179688,4388.205078,4568.717773,4410.512695,4500.384766,4526.538574,4579.487305,4410.256348,4402.820313,4516.025879,4556.666504,4555.128418,4535.128418,4400.769043,4412.179688,4591.025879,4527.820313,4503.717773,4399.230957,4574.487305,4399.615234,4574.358887,4516.922852,4399.358887,4528.333496,4482.05127,2740,0,14,2575,41167,,,,0,4,4,4,4,4,4,4,4,4,4,4,4,4,4,4,4,4,4,4,4,4,4,4,4,4,4,4,4,4,4,4,4,100,,,,,,,,,,,,,,,,,,,,,,,,,,,,,,,,,,,,,,,,,,,,,,,,,,,,,,,,,,,,,,,,,,,,,,,,,,,,,,,,,,,,,,,,,,,,,,,,,,,,,,,,,,,,,,,,,,,,,,,,,,,,,,,,,,,,,,,,,,,,,,,,,,,,,,,,,,,,,,,,,,,,,,,,,,,,,,,,,,,,,,,,,,,,,,,,,,,,,,,,,,,,,,
1764667392.933683,7673,0,4402.307617,4403.333496,4492.05127,4520.128418,4409.871582,4535.769043,4543.589844,4394.230957,4570.769043,4404.615234,4500.641113,4522.820313,4578.333496,4409.487305,4397.05127,4514.487305,4554.743652,4550.897461,4531.025879,4401.153809,4413.717773,4593.077148,4529.230957,4507.436035,4400.769043,4576.282227,4398.717773,4577.05127,4518.717773,4412.05127,4509.871582,4472.563965,2879,0,14,2575,41167,,,,0,4,4,4,4,4,4,4,4,4,4,4,4,4,4,4,4,4,4,4,4,4,4,4,4,4,4,4,4,4,4,4,4,100,,,,,,,,,,,,,,,,,,,,,,,,,,,,,,,,,,,34686,0,0.49046,-0.496277,-0.369385,0.61377,0.96252,-0.246612,0.042486,4.833333,49.333332,-8.666667,,,,,,,,,,,,,,,,,,,,,,,,,,,,,,,,,,,,,,,,,,,,,,,,,,,,,,,,,,,,,,,,,,,,,,,,,,,,,,,,,,,,,,,,,,,,,,,,,,,,,,,,,,,,,,,,,,,,,,,,,,,,,,,,,,,,,,,,,,,,,,,,,,,,,,,,,,,,,,,,
1764667392.937589,7674,0,4401.666504,4404.102539,4500.384766,4520.897461,4403.846191,4535.256348,4545,4399.102539,4573.589844,4394.743652,4501.922852,4518.333496,4575.641113,4406.025879,4390.128418,4511.538574,4551.153809,4543.717773,4521.666504,4397.179688,4410.641113,4591.666504,4529.102539,4512.563965,4408.461426,4576.666504,4397.179688,4577.692383,4520,4421.410156,4502.820313,4466.794922,1939,0,14,2576,41175,,,,0,4,4,4,4,4,4,4,4,4,4,4,4,4,4,4,4,4,4,4,4,4,4,4,4,4,4,4,4,4,4,4,4,100,,,,,,,,,,,,,,,,,,,,,,,,,,,,,,,,,,,,,,,,,,,,,,,,,,,,,,,,,,,,,,,,,,,,,,,,,,,,,,,,,,,,,,,,,,,,,,,,,,,,,,,,,,,,,,,,,,,,,,,,,,,,,,,,,,,,,,,,,,,,,,,,,,,,,,,,,,,,,,,,,,,,,,,,,,,,,,,,,,,,,,,,,,,,,,,,,,,,,,,,,,,,,,
1764667392.941495,7675,0,4398.077148,4401.794922,4499.743652,4524.102539,4395.769043,4531.410156,4543.717773,4397.179688,4574.871582,4383.077148,4501.666504,4513.974121,4571.153809,4400.897461,4385.384766,4508.205078,4546.025879,4535.769043,4511.410156,4389.871582,4402.563965,4586.282227,4526.025879,4515,4414.487305,4574.230957,4395,4574.230957,4518.461426,4420.128418,4509.871582,4468.333496,2577,0,14,2576,41175,,,,0,4,4,4,4,4,4,4,4,4,4,4,4,4,4,4,4,4,4,4,4,4,4,4,4,4,4,4,4,4,4,4,4,100,,,,,,,,,,,,,,,,,,,,,,,,,,,,,,,,,,,,,,,,,,,,,,,,,,,,,,,,,,,,,,,,,,,,,,,,,,,,,,,,,,,,,,,,,,,,,,,,,,,,,,,,,,,,,,,,,,,,,,,,,,,,,,,,,,,,,,,,,,,,,,,,,,,,,,,,,,,,,,,,,,,,,,,,,,,,,,,,,,,,,,,,,,,,,,,,,,,,,,,,,,,,,,
1764667392.945401,7676,0,4392.179688,4396.025879,4492.179688,4525.897461,4388.589844,4525,4539.487305,4388.205078,4573.077148,4373.974121,4499.487305,4509.871582,4566.025879,4395.641113,4384.487305,4505.897461,4540.128418,4530,4505,4382.820313,4393.333496,4578.589844,4520.512695,4512.820313,4412.307617,4569.743652,4392.94873,4567.436035,4513.589844,4407.820313,4524.102539,4476.794922,2726,0,14,2576,41183,,,,0,4,4,4,4,4,4,4,4,4,4,4,4,4,4,4,4,4,4,4,4,4,4,4,4,4,4,4,4,4,4,4,4,100,,,,,,,,,,,,,,,,,,,,,,,,,,,,,,,,,,,,,,,,,,,,,,,,,,,,,,,,,,,,,,,,,,,,,,,,,,,,,,,,,,,,,,,,,,,,,,,,,,,,,,,,,,,,,,,,,,,,,,,,,,,,,,,,,,,,,,,,,,,,,,,,,,,,,,,,,,,,,,,,,,,,,,,,,,,,,,,,,,,,,,,,,,,,,,,,,,,,,,,,,,,,,,
1764667392.949307,7677,0,4386.666504,4389.230957,4484.102539,4525,4383.717773,4518.589844,4534.358887,4377.94873,4568.846191,4372.307617,4496.153809,4506.025879,4562.05127,4391.922852,4386.538574,4504.743652,4534.615234,4527.94873,4504.487305,4379.230957,4388.333496,4571.410156,4514.871582,4507.05127,4403.717773,4565.512695,4391.922852,4560.128418,4507.94873,4391.410156,4534.743652,4487.179688,2540,0,14,2576,41183,,,,0,4,4,4,4,4,4,4,4,4,4,4,4,4,4,4,4,4,4,4,4,4,4,4,4,4,4,4,4,4,4,4,4,100,,,,,,,,,,,,,,,,,,,,,,,,,,,,,,,,,,,34687,0,0.49046,-0.496277,-0.369385,0.61377,0.969845,-0.243682,0.043462,6.5,47.666668,-7.833333,,,,,,,,,,,,,,,,,,,,,,,,,,,,,,,,,,,,,,,,,,,,,,,,,,,,,,,,,,,,,,,,,,,,,,,,,,,,,,,,,,,,,,,,,,,,,,,,,,,,,,,,,,,,,,,,,,,,,,,,,,,,,,,,,,,,,,,,,,,,,,,,,,,,,,,,,,,,,,,,
1764667392.953213,7678,0,4384.743652,4384.487305,4479.871582,4522.05127,4381.282227,4514.743652,4531.538574,4372.692383,4564.743652,4379.743652,4494.102539,4503.077148,4560.256348,4391.025879,4388.461426,4504.358887,4530.512695,4528.589844,4507.436035,4380.256348,4389.871582,4567.307617,4510.769043,4501.153809,4396.666504,4563.717773,4392.179688,4555.512695,4504.230957,4378.717773,4534.743652,4492.820313,2716,0,14,2576,41191,,,,0,4,4,4,4,4,4,4,4,4,4,4,4,4,4,4,4,4,4,4,4,4,4,4,4,4,4,4,4,4,4,4,4,100,,,,,,,,,,,,,,,,,,,,,,,,,,,,,,,,,,,,,,,,,,,,,,,,,,,,,,,,,,,,,,,,,,,,,,,,,,,,,,,,,,,,,,,,,,,,,,,,,,,,,,,,,,,,,,,,,,,,,,,,,,,,,,,,,,,,,,,,,,,,,,,,,,,,,,,,,,,,,,,,,,,,,,,,,,,,,,,,,,,,,,,,,,,,,,,,,,,,,,,,,,,,,,
1764667392.957119,7679,0,4386.410156,4383.717773,4478.333496,4518.717773,4381.410156,4514.615234,4532.820313,4374.358887,4562.94873,4392.307617,4494.358887,4500.897461,4560.384766,4392.692383,4387.820313,4503.589844,4528.461426,4528.589844,4508.077148,4383.077148,4395.641113,4565.641113,4508.974121,4497.179688,4396.794922,4565,4392.436035,4554.230957,4503.589844,4373.205078,4524.102539,4489.230957,2824,0,14,2576,41191,,,,0,4,4,4,4,4,4,4,4,4,4,4,4,4,4,4,4,4,4,4,4,4,4,4,4,4,4,4,4,4,4,4,4,100,,,,,,,,,,,,,,,,,,,,,,,,,,,,,,,,,,,,,,,,,,,,,,,,,,,,,,,,,,,,,,,,,,,,,,,,,,,,,,,,,,,,,,,,,,,,,,,,,,,,,,,,,,,,,,,,,,,,,,,,,,,,,,,,,,,,,,,,,,,,,,,,,,,,,,,,,,,,,,,,,,,,,,,,,,,,,,,,,,,,,,,,,,,,,,,,,,,,,,,,,,,,,,
1764667392.961025,7680,1,4387.169434,4384.881836,4480.571777,4519.398438,4381.686523,4515.157715,4533.26416,4375.276367,4564.053223,4392.90918,4493.550293,4501.982422,4560.87793,4392.78125,4387.859863,4504.132324,4529.704102,4529.68457,4508.836426,4383.185547,4395.700195,4566.380859,4510.197266,4497.40625,4397.94873,4565.937012,4393.461426,4554.990234,4504.280273,4375.16748,4523.944824,4489.210938,2796,0,14,0,0,,,,0,4,4,4,4,4,4,4,4,4,4,4,4,4,4,4,4,4,4,4,4,4,4,4,4,4,4,4,4,4,4,4,4,100,,,,,,,,,,,,,,,,,,,,,,,,,,,,,,,,,,,,,,,,,,,,,,,,,,,,,,,,,,,,,,,,,,,,,,,,,,,,,,,,,,,,,,,,,,,,,,,,,,,,,,,,,,,,,,,,,,,,,,,,,,,,,,,,,,,,,,,,,,,,,,,,,,,,,,,,,,,,,,,,,,,,,,,,,,,,,,,,,,,,,,,,,,,,,,,,,,,,,,,,,,,,,,
1764667392.964931,7681,1,4387.929199,4386.04541,4482.810547,4520.079102,4381.962402,4515.700195,4533.708008,4376.193359,4565.157715,4393.510742,4492.741699,4503.066895,4561.370605,4392.869629,4387.899414,4504.674316,4530.946777,4530.779297,4509.595703,4383.293945,4395.759277,4567.120117,4511.419922,4497.633301,4399.102539,4566.873535,4394.487305,4555.749512,4504.970215,4377.130371,4523.787109,4489.191406,2911,0,14,0,0,,,,0,4,4,4,4,4,4,4,4,4,4,4,4,4,4,4,4,4,4,4,4,4,4,4,4,4,4,4,4,4,4,4,4,100,,,,,,,,,,,,,,,,,,,,,,,,,,,,,,,,,,,,,,,,,,,,,,,,,,,,,,,,,,,,,,,,,,,,,,,,,,,,,,,,,,,,,,,,,,,,,,,,,,,,,,,,,,,,,,,,,,,,,,,,,,,,,,,,,,,,,,,,,,,,,,,,,,,,,,,,,,,,,,,,,,,,,,,,,,,,,,,,,,,,,,,,,,,,,,,,,,,,,,,,,,,,,,
1764667392.968837,7682,1,4388.688477,4387.208984,4485.049316,4520.759277,4382.23877,4516.242676,4534.151855,4377.110352,4566.262207,4394.112305,4491.933105,4504.151855,4561.86377,4392.958496,4387.938965,4505.216797,4532.189453,4531.873535,4510.35498,4383.402344,4395.818359,4567.859863,4512.643066,4497.859863,4400.256348,4567.810547,4395.512695,4556.508789,4505.660645,4379.092773,4523.629395,4489.171387,2647,0,14,0,0,,,,0,4,4,4,4,4,4,4,4,4,4,4,4,4,4,4,4,4,4,4,4,4,4,4,4,4,4,4,4,4,4,4,4,100,,,,,,,,,,,,,,,,,,,,,,,,,,,,,,,,,,,,,,,,,,,,,,,,,,,,,,,,,,,,,,,,,,,,,,,,,,,,,,,,,,,,,,,,,,,,,,,,,,,,,,,,,,,,,,,,,,,,,,,,,,,,,,,,,,,,,,,,,,,,,,,,,,,,,,,,,,,,,,,,,,,,,,,,,,,,,,,,,,,,,,,,,,,,,,,,,,,,,,,,,,,,,,
1764667392.972743,7683,1,4389.447754,4388.372559,4487.288086,4521.439941,4382.514648,4516.785156,4534.595703,4378.027832,4567.366699,4394.713867,4491.124023,4505.236816,4562.356934,4393.047363,4387.978516,4505.759277,4533.432129,4532.968262,4511.114258,4383.510742,4395.87793,4568.599609,4513.865723,4498.086914,4401.410156,4568.747559,4396.538574,4557.268066,4506.351074,4381.055176,4523.471191,4489.151855,2870,0,14,0,0,,,,0,4,4,4,4,4,4,4,4,4,4,4,4,4,4,4,4,4,4,4,4,4,4,4,4,4,4,4,4,4,4,4,4,100,,,,,,,,,,,,,,,,,,,,,,,,,,,,,,,,,,,,,,,,,,,,,,,,,,,,,,,,,,,,,,,,,,,,,,,,,,,,,,,,,,,,,,,,,,,,,,,,,,,,,,,,,,,,,,,,,,,,,,,,,,,,,,,,,,,,,,,,,,,,,,,,,,,,,,,,,,,,,,,,,,,,,,,,,,,,,,,,,,,,,,,,,,,,,,,,,,,,,,,,,,,,,,
1764667392.976649,7684,1,4390.207031,4389.536621,4489.526855,4522.120117,4382.791016,4517.327637,4535.039551,4378.944824,4568.471191,4395.31543,4490.31543,4506.321289,4562.850098,4393.13623,4388.017578,4506.301758,4534.674316,4534.062988,4511.873535,4383.619141,4395.937012,4569.339355,4515.088867,4498.313477,4402.563965,4569.68457,4397.563965,4558.027832,4507.041504,4383.017578,4523.313477,4489.132324,2745,0,14,0,0,,,,0,4,4,4,4,4,4,4,4,4,4,4,4,4,4,4,4,4,4,4,4,4,4,4,4,4,4,4,4,4,4,4,4,100,0.421875,58.333332,4,4,3,4,4,4,4,4,4,4,4,4,4,4,4,1,4,4,4,4,4,4,4,4,4,4,4,4,4,4,4,3,,,,,,,,,,,,,1.532743,0.713765,0.342491,0.093288,0.031644,1.534676,1.336346,0.483305,0.140147,0.056811,19.441658,7.755762,1.909267,0.712437,0.128671,2.761677,1.230196,0.368088,0.202025,0.123687,1.882077,2.744672,0.728038,0.556632,0.149608,0.802383,0.609258,0.321842,0.109298,0.028965,1.203264,0.631735,0.279556,0.123179,0.034166,0.414547,1.0691,0.384102,0.177229,0.074186,0.598371,0.567891,0.185281,0.179604,0.071459,2.450539,2.519681,1.136363,0.608714,0.154563,0.577721,0.315585,0.117964,0.060185,0.028122,2.599705,0.466536,0.214818,0.103656,0.030304,1.799253,0.417201,0.196826,0.059703,0.025961,0.693224,0.257173,0.145554,0.057793,0.018713,2.247816,0.487731,0.3091,0.074054,0.055958,0.398438,0.124412,0.086817,0.023296,0.010624,2.345296,0.737807,0.373803,0.092642,0.043573,4.05394,1.539167,0.515047,0.176093,0.089995,3.562663,1.009474,0.367612,0.132631,0.092707,2.487843,0.309738,0.244359,0.075073,0.066758,2.850721,0.957337,0.36565,0.146075,0.058986,2.678416,0.94455,0.390934,0.132497,0.046659,1.991652,0.350834,0.311256,0.069996,0.038333,1.368902,0.73617,0.552495,0.129806,0.050919,3.958024,3.237914,1.147543,1.147685,0.409643,0.527524,0.235846,0.097827,0.09373,0.040339,2.643223,1.039808,0.523369,0.249929,0.104295,1.466896,1.089337,0.447731,0.146197,0.04856,0.542428,0.368018,0.223242,0.06525,0.023254,2.03105,1.454485,0.591116,0.199868,0.117842,3.978087,2.391165,1.211734,0.688721,0.324002,23.878397,7.465795,2.533087,0.933764,0.237434
1764667392.980555,7685,1,4390.966309,4390.700195,4491.765137,4522.800781,4383.066895,4517.869629,4535.483398,4379.861816,4569.576172,4395.916992,4489.506836,4507.40625,4563.343262,4393.224609,4388.057129,4506.844238,4535.916992,4535.157715,4512.633301,4383.728027,4395.996094,4570.079102,4516.311523,4498.540527,4403.717773,4570.621094,4398.589844,4558.787109,4507.731934,4384.980469,4523.155762,4489.112305,2804,0,14,0,0,,,,0,4,4,4,4,4,4,4,4,4,4,4,4,4,4,4,4,4,4,4,4,4,4,4,4,4,4,4,4,4,4,4,4,100,,,,,,,,,,,,,,,,,,,,,,,,,,,,,,,,,,,,,,,,,,,,,,,,,,,,,,,,,,,,,,,,,,,,,,,,,,,,,,,,,,,,,,,,,,,,,,,,,,,,,,,,,,,,,,,,,,,,,,,,,,,,,,,,,,,,,,,,,,,,,,,,,,,,,,,,,,,,,,,,,,,,,,,,,,,,,,,,,,,,,,,,,,,,,,,,,,,,,,,,,,,,,,
1764667392.984461,7686,1,4391.726074,4391.86377,4494.003906,4523.481445,4383.343262,4518.412109,4535.927246,4380.779297,4570.680664,4396.518555,4488.698242,4508.491211,4563.836426,4393.313477,4388.09668,4507.386719,4537.159668,4536.252441,4513.392578,4383.836426,4396.055176,4570.818359,4517.534668,4498.76709,4404.871582,4571.558105,4399.615234,4559.546387,4508.421875,4386.942871,4522.998047,4489.092773,2827,0,14,0,0,,,,0,4,4,4,4,4,4,4,4,4,4,4,4,4,4,4,4,4,4,4,4,4,4,4,4,4,4,4,4,4,4,4,4,100,,,,,,,,,,,,,,,,,,,,,,,,,,,,,,,,,,,,,,,,,,,,,,,,,,,,,,,,,,,,,,,,,,,,,,,,,,,,,,,,,,,,,,,,,,,,,,,,,,,,,,,,,,,,,,,,,,,,,,,,,,,,,,,,,,,,,,,,,,,,,,,,,,,,,,,,,,,,,,,,,,,,,,,,,,,,,,,,,,,,,,,,,,,,,,,,,,,,,,,,,,,,,,
1764667392.988367,7687,1,4392.485352,4393.027832,4496.242676,4524.161621,4383.619141,4518.95459,4536.370605,4381.696289,4571.785156,4397.120117,4487.889648,4509.576172,4564.32959,4393.402344,4388.13623,4507.929199,4538.402344,4537.347168,4514.151855,4383.944824,4396.114258,4571.558105,4518.757324,4498.994141,4406.025879,4572.495117,4400.641113,4560.305664,4509.112305,4388.905273,4522.840332,4489.072754,3014,0,14,0,0,,,,0,4,4,4,4,4,4,4,4,4,4,4,4,4,4,4,4,4,4,4,4,4,4,4,4,4,4,4,4,4,4,4,4,100,,,,,,,,,,,,,,,,,,,,,,,,,,,,,,,,,,,34688,1,0.490409,-0.496368,-0.369431,0.613708,0.968868,-0.24417,0.042852,6.5,47.791668,-7.75,,,,,,,,,,,,,,,,,,,,,,,,,,,,,,,,,,,,,,,,,,,,,,,,,,,,,,,,,,,,,,,,,,,,,,,,,,,,,,,,,,,,,,,,,,,,,,,,,,,,,,,,,,,,,,,,,,,,,,,,,,,,,,,,,,,,,,,,,,,,,,,,,,,,,,,,,,,,,,,,
1764667392.992273,7688,1,4393.244629,4394.191406,4498.481445,4524.842285,4383.895508,4519.49707,4536.814453,4382.613281,4572.889648,4397.72168,4487.081055,4510.660645,4564.822266,4393.491211,4388.175781,4508.471191,4539.64502,4538.441895,4514.911133,4384.053223,4396.17334,4572.297852,4519.980469,4499.220703,4407.179688,4573.432129,4401.666504,4561.064941,4509.802734,4390.867676,4522.682617,4489.053223,2905,0,14,0,0,,,,0,4,4,4,4,4,4,4,4,4,4,4,4,4,4,4,4,4,4,4,4,4,4,4,4,4,4,4,4,4,4,4,4,100,,,,,,,,,,,,,,,,,,,,,,,,,,,,,,,,,,,,,,,,,,,,,,,,,,,,,,,,,,,,,,,,,,,,,,,,,,,,,,,,,,,,,,,,,,,,,,,,,,,,,,,,,,,,,,,,,,,,,,,,,,,,,,,,,,,,,,,,,,,,,,,,,,,,,,,,,,,,,,,,,,,,,,,,,,,,,,,,,,,,,,,,,,,,,,,,,,,,,,,,,,,,,,
1764667392.996179,7689,1,4394.003906,4395.35498,4500.719727,4525.522461,4384.171387,4520.039551,4537.258301,4383.530762,4573.994141,4398.323242,4486.271973,4511.745605,4565.31543,4393.580078,4388.214844,4509.013672,4540.887695,4539.536621,4515.67041,4384.161621,4396.23291,4573.037598,4521.203125,4499.447754,4408.333496,4574.368652,4402.692383,4561.824219,4510.493164,4392.830566,4522.524414,4489.033691,2753,0,14,0,0,,,,0,4,4,4,4,4,4,4,4,4,4,4,4,4,4,4,4,4,4,4,4,4,4,4,4,4,4,4,4,4,4,4,4,100,,,,,,,,,,,,,,,,,,,,,,,,,,,,,,,,,,,34689,1,0.490359,-0.49646,-0.369476,0.613647,0.967892,-0.244659,0.042241,6.5,47.916668,-7.666667,,,,,,,,,,,,,,,,,,,,,,,,,,,,,,,,,,,,,,,,,,,,,,,,,,,,,,,,,,,,,,,,,,,,,,,,,,,,,,,,,,,,,,,,,,,,,,,,,,,,,,,,,,,,,,,,,,,,,,,,,,,,,,,,,,,,,,,,,,,,,,,,,,,,,,,,,,,,,,,,
1764667393.000085,7690,1,4394.763184,4396.518555,4502.958496,4526.203125,4384.447754,4520.582031,4537.702148,4384.447754,4575.098633,4398.925293,4485.463379,4512.830566,4565.808594,4393.668457,4388.254395,4509.556152,4542.130371,4540.631348,4516.430176,4384.27002,4396.291992,4573.777344,4522.42627,4499.674316,4409.487305,4575.305664,4403.717773,4562.583984,4511.183594,4394.792969,4522.366699,4489.013672,621,0,14,0,0,,,,0,4,4,4,4,4,4,4,4,4,4,4,4,4,4,4,4,4,4,4,4,4,4,4,4,4,4,4,4,4,4,4,4,100,,,,,,,,,,,,,,,,,,,,,,,,,,,,,,,,,,,,,,,,,,,,,,,,,,,,,,,,,,,,,,,,,,,,,,,,,,,,,,,,,,,,,,,,,,,,,,,,,,,,,,,,,,,,,,,,,,,,,,,,,,,,,,,,,,,,,,,,,,,,,,,,,,,,,,,,,,,,,,,,,,,,,,,,,,,,,,,,,,,,,,,,,,,,,,,,,,,,,,,,,,,,,,
1764667393.003991,7691,1,4395.522461,4397.682617,4505.197266,4526.883789,4384.723633,4521.124023,4538.145996,4385.364746,4576.203125,4399.526855,4484.654785,4513.915039,4566.301758,4393.757324,4388.293945,4510.098633,4543.372559,4541.726074,4517.189453,4384.378906,4396.351074,4574.516602,4523.648926,4499.901367,4410.641113,4576.242676,4404.743652,4563.343262,4511.873535,4396.755371,4522.208984,4488.994141,2727,0,14,0,0,,,,0,4,4,4,4,4,4,4,4,4,4,4,4,4,4,4,4,4,4,4,4,4,4,4,4,4,4,4,4,4,4,4,4,100,,,,,,,,,,,,,,,,,,,,,,,,,,,,,,,,,,,34690,1,0.490308,-0.496552,-0.369522,0.613586,0.966915,-0.245147,0.041631,6.5,48.041668,-7.583333,,,,,,,,,,,,,,,,,,,,,,,,,,,,,,,,,,,,,,,,,,,,,,,,,,,,,,,,,,,,,,,,,,,,,,,,,,,,,,,,,,,,,,,,,,,,,,,,,,,,,,,,,,,,,,,,,,,,,,,,,,,,,,,,,,,,,,,,,,,,,,,,,,,,,,,,,,,,,,,,
1764667393.007897,7692,0,4396.282227,4398.846191,4507.436035,4527.563965,4385,4521.666504,4538.589844,4386.282227,4577.307617,4400.128418,4483.846191,4515,4566.794922,4393.846191,4388.333496,4510.641113,4544.615234,4542.820313,4517.94873,4384.487305,4396.410156,4575.256348,4524.871582,4500.128418,4411.794922,4577.179688,4405.769043,4564.102539,4512.563965,4398.717773,4522.05127,4488.974121,2519,0,14,2576,41245,,,,0,4,4,4,4,4,4,4,4,4,4,4,4,4,4,4,4,4,4,4,4,4,4,4,4,4,4,4,4,4,4,4,4,100,,,,,,,,,,,,,,,,,,,,,,,,,,,,,,,,,,,,,,,,,,,,,,,,,,,,,,,,,,,,,,,,,,,,,,,,,,,,,,,,,,,,,,,,,,,,,,,,,,,,,,,,,,,,,,,,,,,,,,,,,,,,,,,,,,,,,,,,,,,,,,,,,,,,,,,,,,,,,,,,,,,,,,,,,,,,,,,,,,,,,,,,,,,,,,,,,,,,,,,,,,,,,,
1764667393.011803,7693,0,4396.666504,4398.333496,4505.384766,4532.820313,4381.153809,4519.743652,4537.05127,4388.461426,4574.871582,4405.897461,4482.307617,4516.410156,4566.410156,4392.94873,4387.436035,4510.769043,4544.871582,4541.794922,4514.358887,4382.820313,4392.307617,4571.922852,4525,4498.717773,4404.743652,4577.94873,4400.384766,4564.230957,4510.641113,4394.358887,4527.05127,4484.102539,2276,0,14,2576,41245,,,,0,4,4,4,4,4,4,4,4,4,4,4,4,4,4,4,4,4,4,4,4,4,4,4,4,4,4,4,4,4,4,4,4,100,,,,,,,,,,,,,,,,,,,,,,,,,,,,,,,,,,,34691,0,0.490257,-0.496643,-0.369568,0.613525,0.965938,-0.245635,0.041021,6.5,48.166668,-7.5,,,,,,,,,,,,,,,,,,,,,,,,,,,,,,,,,,,,,,,,,,,,,,,,,,,,,,,,,,,,,,,,,,,,,,,,,,,,,,,,,,,,,,,,,,,,,,,,,,,,,,,,,,,,,,,,,,,,,,,,,,,,,,,,,,,,,,,,,,,,,,,,,,,,,,,,,,,,,,,,
1764667393.015709,7694,1,4393.769043,4395.461426,4498.846191,4526.512695,4381.666504,4519.333496,4537.487305,4383.128418,4573.230957,4403.538574,4482.179688,4515.102539,4565.820313,4392.666504,4386.384766,4510.410156,4542.820313,4539.05127,4513.230957,4381.436035,4391.692383,4568.922852,4522.487305,4495.922852,4402.820313,4575.538574,4396.743652,4561,4509.410156,4393.794922,4524.05127,4481.128418,2735,0,14,0,0,,,,0,4,4,4,4,4,4,4,4,4,4,4,4,4,4,4,4,4,4,4,4,4,4,4,4,4,4,4,4,4,4,4,4,100,,,,,,,,,,,,,,,,,,,,,,,,,,,,,,,,,,,,,,,,,,,,,,,,,,,,,,,,,,,,,,,,,,,,,,,,,,,,,,,,,,,,,,,,,,,,,,,,,,,,,,,,,,,,,,,,,,,,,,,,,,,,,,,,,,,,,,,,,,,,,,,,,,,,,,,,,,,,,,,,,,,,,,,,,,,,,,,,,,,,,,,,,,,,,,,,,,,,,,,,,,,,,,
1764667393.019615,7695,1,4390.871582,4392.589844,4492.307617,4520.205078,4382.179688,4518.922852,4537.922852,4377.794922,4571.589844,4401.179688,4482.05127,4513.794922,4565.230957,4392.384766,4385.333496,4510.05127,4540.769043,4536.307617,4512.102539,4380.05127,4391.077148,4565.922852,4519.974121,4493.128418,4400.897461,4573.128418,4393.102539,4557.769043,4508.179688,4393.230957,4521.05127,4478.153809,2506,0,14,0,0,,,,0,4,4,4,4,4,4,4,4,4,4,4,4,4,4,4,4,4,4,4,4,4,4,4,4,4,4,4,4,4,4,4,4,100,,,,,,,,,,,,,,,,,,,,,,,,,,,,,,,,,,,,,,,,,,,,,,,,,,,,,,,,,,,,,,,,,,,,,,,,,,,,,,,,,,,,,,,,,,,,,,,,,,,,,,,,,,,,,,,,,,,,,,,,,,,,,,,,,,,,,,,,,,,,,,,,,,,,,,,,,,,,,,,,,,,,,,,,,,,,,,,,,,,,,,,,,,,,,,,,,,,,,,,,,,,,,,
1764667393.023521,7696,1,4387.974121,4389.717773,4485.769043,4513.897461,4382.692383,4518.512695,4538.358887,4372.461426,4569.94873,4398.820313,4481.922852,4512.487305,4564.641113,4392.102539,4384.282227,4509.692383,4538.717773,4533.563965,4510.974121,4378.666504,4390.461426,4562.922852,4517.461426,4490.333496,4398.974121,4570.717773,4389.461426,4554.538574,4506.94873,4392.666504,4518.05127,4475.179688,2881,0,14,0,0,,,,0,4,4,4,4,4,4,4,4,4,4,4,4,4,4,4,4,4,4,4,4,4,4,4,4,4,4,4,4,4,4,4,4,100,,,,,,,,,,,,,,,,,,,,,,,,,,,,,,,,,,,,,,,,,,,,,,,,,,,,,,,,,,,,,,,,,,,,,,,,,,,,,,,,,,,,,,,,,,,,,,,,,,,,,,,,,,,,,,,,,,,,,,,,,,,,,,,,,,,,,,,,,,,,,,,,,,,,,,,,,,,,,,,,,,,,,,,,,,,,,,,,,,,,,,,,,,,,,,,,,,,,,,,,,,,,,,
1764667393.027428,7697,1,4385.077148,4386.846191,4479.230957,4507.589844,4383.205078,4518.102539,4538.794922,4367.128418,4568.307617,4396.461426,4481.794922,4511.179688,4564.05127,4391.820313,4383.230957,4509.333496,4536.666504,4530.820313,4509.846191,4377.282227,4389.846191,4559.922852,4514.94873,4487.538574,4397.05127,4568.307617,4385.820313,4551.307617,4505.717773,4392.102539,4515.05127,4472.205078,2935,0,14,0,0,,,,0,4,4,4,4,4,4,4,4,4,4,4,4,4,4,4,4,4,4,4,4,4,4,4,4,4,4,4,4,4,4,4,4,100,,,,,,,,,,,,,,,,,,,,,,,,,,,,,,,,,,,,,,,,,,,,,,,,,,,,,,,,,,,,,,,,,,,,,,,,,,,,,,,,,,,,,,,,,,,,,,,,,,,,,,,,,,,,,,,,,,,,,,,,,,,,,,,,,,,,,,,,,,,,,,,,,,,,,,,,,,,,,,,,,,,,,,,,,,,,,,,,,,,,,,,,,,,,,,,,,,,,,,,,,,,,,,
1764667393.031334,7698,0,4382.179688,4383.974121,4472.692383,4501.282227,4383.717773,4517.692383,4539.230957,4361.794922,4566.666504,4394.102539,4481.666504,4509.871582,4563.461426,4391.538574,4382.179688,4508.974121,4534.615234,4528.077148,4508.717773,4375.897461,4389.230957,4556.922852,4512.436035,4484.743652,4395.128418,4565.897461,4382.179688,4548.077148,4504.487305,4391.538574,4512.05127,4469.230957,1782,0,14,2574,41269,,,,0,4,4,4,4,4,4,4,4,4,4,4,4,4,4,4,4,4,4,4,4,4,4,4,4,4,4,4,4,4,4,4,4,100,,,,,,,,,,,,,,,,,,,,,,,,,,,,,,,,,,,,,,,,,,,,,,,,,,,,,,,,,,,,,,,,,,,,,,,,,,,,,,,,,,,,,,,,,,,,,,,,,,,,,,,,,,,,,,,,,,,,,,,,,,,,,,,,,,,,,,,,,,,,,,,,,,,,,,,,,,,,,,,,,,,,,,,,,,,,,,,,,,,,,,,,,,,,,,,,,,,,,,,,,,,,,,
1764667393.035240,7699,0,4381.922852,4381.922852,4479.230957,4503.077148,4385.769043,4515.384766,4536.794922,4362.05127,4565.641113,4395.256348,4482.05127,4508.205078,4562.563965,4392.94873,4386.794922,4510.512695,4534.358887,4531.794922,4511.538574,4377.179688,4391.538574,4558.333496,4513.974121,4481.794922,4388.461426,4566.666504,4382.436035,4545.512695,4502.563965,4392.307617,4505.769043,4470.128418,2797,0,14,2574,41269,,,,0,4,4,4,4,4,4,4,4,4,4,4,4,4,4,4,4,4,4,4,4,4,4,4,4,4,4,4,4,4,4,4,4,100,,,,,,,,,,,,,,,,,,,,,,,,,,,,,,,,,,,,,,,,,,,,,,,,,,,,,,,,,,,,,,,,,,,,,,,,,,,,,,,,,,,,,,,,,,,,,,,,,,,,,,,,,,,,,,,,,,,,,,,,,,,,,,,,,,,,,,,,,,,,,,,,,,,,,,,,,,,,,,,,,,,,,,,,,,,,,,,,,,,,,,,,,,,,,,,,,,,,,,,,,,,,,,
1764667393.039146,7700,0,4381.922852,4383.974121,4486.153809,4512.307617,4390,4516.410156,4536.794922,4369.230957,4565.769043,4386.282227,4481.538574,4507.563965,4563.333496,4393.717773,4390.256348,4511.922852,4535.512695,4534.102539,4510.897461,4376.538574,4391.538574,4560.512695,4517.692383,4481.922852,4376.282227,4569.487305,4380.384766,4545.384766,4501.538574,4387.179688,4498.461426,4471.666504,2578,0,14,2574,41277,,,,0,4,4,4,4,4,4,4,4,4,4,4,4,4,4,4,4,4,4,4,4,4,4,4,4,4,4,4,4,4,4,4,4,100,,,,,,,,,,,,,,,,,,,,,,,,,,,,,,,,,,,,,,,,,,,,,,,,,,,,,,,,,,,,,,,,,,,,,,,,,,,,,,,,,,,,,,,,,,,,,,,,,,,,,,,,,,,,,,,,,,,,,,,,,,,,,,,,,,,,,,,,,,,,,,,,,,,,,,,,,,,,,,,,,,,,,,,,,,,,,,,,,,,,,,,,,,,,,,,,,,,,,,,,,,,,,,
1764667393.043052,7701,0,4382.820313,4389.358887,4491.282227,4523.974121,4393.589844,4519.871582,4539.615234,4379.871582,4569.743652,4373.717773,4480.256348,4508.205078,4566.410156,4393.846191,4392.05127,4512.307617,4538.846191,4535.769043,4509.487305,4376.794922,4390.897461,4564.230957,4523.205078,4486.666504,4371.282227,4572.94873,4378.589844,4549.358887,4502.05127,4381.153809,4494.102539,4472.179688,2825,0,14,2574,41277,,,,0,4,4,4,4,4,4,4,4,4,4,4,4,4,4,4,4,4,4,4,4,4,4,4,4,4,4,4,4,4,4,4,4,100,,,,,,,,,,,,,,,,,,,,,,,,,,,,,,,,,,,34693,0,0.490147,-0.496887,-0.36969,0.613342,0.966427,-0.249542,0.038091,5.666667,49,-7.5,,,,,,,,,,,,,,,,,,,,,,,,,,,,,,,,,,,,,,,,,,,,,,,,,,,,,,,,,,,,,,,,,,,,,,,,,,,,,,,,,,,,,,,,,,,,,,,,,,,,,,,,,,,,,,,,,,,,,,,,,,,,,,,,,,,,,,,,,,,,,,,,,,,,,,,,,,,,,,,,
1764667393.046958,7702,0,4385.641113,4395.256348,4493.974121,4531.922852,4393.717773,4523.589844,4543.461426,4388.717773,4578.205078,4368.589844,4479.358887,4509.487305,4570.897461,4394.230957,4393.461426,4511.794922,4543.333496,4537.692383,4509.743652,4380.512695,4391.538574,4569.358887,4528.846191,4495.128418,4382.94873,4575.641113,4380,4557.05127,4504.230957,4380.641113,4496.922852,4471.025879,2948,0,14,2571,41284,,,,0,4,4,4,4,4,4,4,4,4,4,4,4,4,4,4,4,4,4,4,4,4,4,4,4,4,4,4,4,4,4,4,4,100,,,,,,,,,,,,,,,,,,,,,,,,,,,,,,,,,,,,,,,,,,,,,,,,,,,,,,,,,,,,,,,,,,,,,,,,,,,,,,,,,,,,,,,,,,,,,,,,,,,,,,,,,,,,,,,,,,,,,,,,,,,,,,,,,,,,,,,,,,,,,,,,,,,,,,,,,,,,,,,,,,,,,,,,,,,,,,,,,,,,,,,,,,,,,,,,,,,,,,,,,,,,,,
1764667393.050864,7703,0,4389.743652,4399.358887,4494.615234,4533.461426,4390.897461,4525.384766,4546.025879,4392.692383,4587.307617,4376.153809,4479.871582,4510,4574.487305,4395.641113,4395.641113,4511.538574,4547.436035,4539.358887,4510.897461,4386.538574,4394.230957,4573.717773,4532.179688,4503.717773,4407.05127,4577.05127,4385.256348,4564.615234,4507.05127,4387.436035,4508.077148,4469.871582,2856,0,14,2571,41284,,,,0,4,4,4,4,4,4,4,4,4,4,4,4,4,4,4,4,4,4,4,4,4,4,4,4,4,4,4,4,4,4,4,4,100,,,,,,,,,,,,,,,,,,,,,,,,,,,,,,,,,,,,,,,,,,,,,,,,,,,,,,,,,,,,,,,,,,,,,,,,,,,,,,,,,,,,,,,,,,,,,,,,,,,,,,,,,,,,,,,,,,,,,,,,,,,,,,,,,,,,,,,,,,,,,,,,,,,,,,,,,,,,,,,,,,,,,,,,,,,,,,,,,,,,,,,,,,,,,,,,,,,,,,,,,,,,,,
1764667393.054770,7704,1,4389.700684,4399.350586,4495.461426,4533.991211,4391.418945,4525.410156,4546.589844,4393.358887,4587.436035,4377.914551,4480.700684,4510.111328,4574.812012,4396.008789,4395.119629,4511.094238,4547.546875,4538.98291,4511.401855,4387.299316,4394.991211,4573.700684,4531.205078,4503.299316,4406.538574,4577.606934,4385.692383,4564.427246,4507.316406,4388.410156,4509.136719,4470.812012,2737,0,14,0,0,,,,0,4,4,4,4,4,4,4,4,4,4,4,4,4,4,4,4,4,4,4,4,4,4,4,4,4,4,4,4,4,4,4,4,100,,,,,,,,,,,,,,,,,,,,,,,,,,,,,,,,,,,,,,,,,,,,,,,,,,,,,,,,,,,,,,,,,,,,,,,,,,,,,,,,,,,,,,,,,,,,,,,,,,,,,,,,,,,,,,,,,,,,,,,,,,,,,,,,,,,,,,,,,,,,,,,,,,,,,,,,,,,,,,,,,,,,,,,,,,,,,,,,,,,,,,,,,,,,,,,,,,,,,,,,,,,,,,
1764667393.058676,7705,1,4389.658203,4399.341797,4496.307617,4534.521484,4391.939941,4525.436035,4547.153809,4394.025879,4587.563965,4379.675293,4481.529785,4510.222168,4575.136719,4396.375977,4394.598145,4510.649414,4547.658203,4538.606934,4511.905762,4388.060059,4395.751953,4573.683594,4530.230957,4502.880371,4406.025879,4578.162598,4386.128418,4564.239258,4507.581055,4389.384766,4510.196777,4471.751953,2882,0,14,0,0,,,,0,4,4,4,4,4,4,4,4,4,4,4,4,4,4,4,4,4,4,4,4,4,4,4,4,4,4,4,4,4,4,4,4,100,,,,,,,,,,,,,,,,,,,,,,,,,,,,,,,,,,,,,,,,,,,,,,,,,,,,,,,,,,,,,,,,,,,,,,,,,,,,,,,,,,,,,,,,,,,,,,,,,,,,,,,,,,,,,,,,,,,,,,,,,,,,,,,,,,,,,,,,,,,,,,,,,,,,,,,,,,,,,,,,,,,,,,,,,,,,,,,,,,,,,,,,,,,,,,,,,,,,,,,,,,,,,,
1764667393.062582,7706,1,4389.615234,4399.333496,4497.153809,4535.05127,4392.461426,4525.461426,4547.717773,4394.692383,4587.692383,4381.436035,4482.358887,4510.333496,4575.461426,4396.743652,4394.077148,4510.205078,4547.769043,4538.230957,4512.410156,4388.820313,4396.512695,4573.666504,4529.256348,4502.461426,4405.512695,4578.717773,4386.563965,4564.05127,4507.846191,4390.358887,4511.256348,4472.692383,1920,0,14,0,0,,,,0,4,4,4,4,4,4,4,4,4,4,4,4,4,4,4,4,4,4,4,4,4,4,4,4,4,4,4,4,4,4,4,4,100,,,,,,,,,,,,,,,,,,,,,,,,,,,,,,,,,,,,,,,,,,,,,,,,,,,,,,,,,,,,,,,,,,,,,,,,,,,,,,,,,,,,,,,,,,,,,,,,,,,,,,,,,,,,,,,,,,,,,,,,,,,,,,,,,,,,,,,,,,,,,,,,,,,,,,,,,,,,,,,,,,,,,,,,,,,,,,,,,,,,,,,,,,,,,,,,,,,,,,,,,,,,,,
1764667393.066488,7707,1,4389.572754,4399.324707,4498,4535.581055,4392.98291,4525.487305,4548.282227,4395.358887,4587.820313,4383.196777,4483.187988,4510.444336,4575.786133,4397.111328,4393.555664,4509.760742,4547.880371,4537.854492,4512.914551,4389.581055,4397.273438,4573.649414,4528.282227,4502.042969,4405,4579.273438,4387,4563.863281,4508.111328,4391.333496,4512.316406,4473.632324,2566,0,14,0,0,,,,0,4,4,4,4,4,4,4,4,4,4,4,4,4,4,4,4,4,4,4,4,4,4,4,4,4,4,4,4,4,4,4,4,100,,,,,,,,,,,,,,,,,,,,,,,,,,,,,,,,,,,,,,,,,,,,,,,,,,,,,,,,,,,,,,,,,,,,,,,,,,,,,,,,,,,,,,,,,,,,,,,,,,,,,,,,,,,,,,,,,,,,,,,,,,,,,,,,,,,,,,,,,,,,,,,,,,,,,,,,,,,,,,,,,,,,,,,,,,,,,,,,,,,,,,,,,,,,,,,,,,,,,,,,,,,,,,
1764667393.070394,7708,1,4389.529785,4399.316406,4498.846191,4536.111328,4393.504395,4525.512695,4548.846191,4396.025879,4587.94873,4384.957031,4484.01709,4510.555664,4576.111328,4397.478516,4393.03418,4509.316406,4547.991211,4537.478516,4513.418945,4390.341797,4398.03418,4573.632324,4527.307617,4501.624023,4404.487305,4579.829102,4387.436035,4563.675293,4508.375977,4392.307617,4513.375977,4474.572754,2728,0,14,0,0,,,,0,4,4,4,4,4,4,4,4,4,4,4,4,4,4,4,4,4,4,4,4,4,4,4,4,4,4,4,4,4,4,4,4,100,,,,,,,,,,,,,,,,,,,,,,,,,,,,,,,,,,,,,,,,,,,,,,,,,,,,,,,,,,,,,,,,,,,,,,,,,,,,,,,,,,,,,,,,,,,,,,,,,,,,,,,,,,,,,,,,,,,,,,,,,,,,,,,,,,,,,,,,,,,,,,,,,,,,,,,,,,,,,,,,,,,,,,,,,,,,,,,,,,,,,,,,,,,,,,,,,,,,,,,,,,,,,,
1764667393.074300,7709,1,4389.487305,4399.307617,4499.692383,4536.641113,4394.025879,4525.538574,4549.410156,4396.692383,4588.077148,4386.717773,4484.846191,4510.666504,4576.436035,4397.846191,4392.512695,4508.871582,4548.102539,4537.102539,4513.922852,4391.102539,4398.794922,4573.615234,4526.333496,4501.205078,4403.974121,4580.384766,4387.871582,4563.487305,4508.641113,4393.282227,4514.436035,4475.512695,2536,0,14,0,0,,,,0,4,4,4,4,4,4,4,4,4,4,4,4,4,4,4,4,4,4,4,4,4,4,4,4,4,4,4,4,4,4,4,4,100,,,,,,,,,,,,,,,,,,,,,,,,,,,,,,,,,,,,,,,,,,,,,,,,,,,,,,,,,,,,,,,,,,,,,,,,,,,,,,,,,,,,,,,,,,,,,,,,,,,,,,,,,,,,,,,,,,,,,,,,,,,,,,,,,,,,,,,,,,,,,,,,,,,,,,,,,,,,,,,,,,,,,,,,,,,,,,,,,,,,,,,,,,,,,,,,,,,,,,,,,,,,,,
1764667393.078206,7710,1,4389.444336,4399.299316,4500.538574,4537.170898,4394.546875,4525.563965,4549.974121,4397.358887,4588.205078,4388.478516,4485.675293,4510.777832,4576.760742,4398.213867,4391.991211,4508.427246,4548.213867,4536.726563,4514.427246,4391.863281,4399.555664,4573.598145,4525.358887,4500.786133,4403.461426,4580.939941,4388.307617,4563.299316,4508.905762,4394.256348,4515.495605,4476.453125,2714,0,14,0,0,,,,0,4,4,4,4,4,4,4,4,4,4,4,4,4,4,4,4,4,4,4,4,4,4,4,4,4,4,4,4,4,4,4,4,100,,,,,,,,,,,,,,,,,,,,,,,,,,,,,,,,,,,,,,,,,,,,,,,,,,,,,,,,,,,,,,,,,,,,,,,,,,,,,,,,,,,,,,,,,,,,,,,,,,,,,,,,,,,,,,,,,,,,,,,,,,,,,,,,,,,,,,,,,,,,,,,,,,,,,,,,,,,,,,,,,,,,,,,,,,,,,,,,,,,,,,,,,,,,,,,,,,,,,,,,,,,,,,
1764667393.082112,7711,1,4389.401855,4399.290527,4501.384766,4537.700684,4395.068359,4525.589844,4550.538574,4398.025879,4588.333496,4390.239258,4486.504395,4510.888672,4577.085449,4398.581055,4391.470215,4507.98291,4548.324707,4536.350586,4514.931641,4392.624023,4400.316406,4573.581055,4524.384766,4500.367676,4402.94873,4581.495605,4388.743652,4563.111328,4509.170898,4395.230957,4516.555664,4477.393066,2826,0,14,0,0,,,,0,4,4,4,4,4,4,4,4,4,4,4,4,4,4,4,4,4,4,4,4,4,4,4,4,4,4,4,4,4,4,4,4,100,,,,,,,,,,,,,,,,,,,,,,,,,,,,,,,,,,,,,,,,,,,,,,,,,,,,,,,,,,,,,,,,,,,,,,,,,,,,,,,,,,,,,,,,,,,,,,,,,,,,,,,,,,,,,,,,,,,,,,,,,,,,,,,,,,,,,,,,,,,,,,,,,,,,,,,,,,,,,,,,,,,,,,,,,,,,,,,,,,,,,,,,,,,,,,,,,,,,,,,,,,,,,,
1764667393.086018,7712,1,4389.358887,4399.282227,4502.230957,4538.230957,4395.589844,4525.615234,4551.102539,4398.692383,4588.461426,4392,4487.333496,4511,4577.410156,4398.94873,4390.94873,4507.538574,4548.436035,4535.974121,4515.436035,4393.384766,4401.077148,4573.563965,4523.410156,4499.94873,4402.436035,4582.05127,4389.179688,4562.922852,4509.436035,4396.205078,4517.615234,4478.333496,0,0,14,0,0,,,,0,4,4,4,4,4,4,4,4,4,4,4,4,4,4,4,4,4,4,4,4,4,4,4,4,4,4,4,4,4,4,4,4,100,,,,,,,,,,,,,,,,,,,,,,,,,,,,,,,,,,,,,,,,,,,,,,,,,,,,,,,,,,,,,,,,,,,,,,,,,,,,,,,,,,,,,,,,,,,,,,,,,,,,,,,,,,,,,,,,,,,,,,,,,,,,,,,,,,,,,,,,,,,,,,,,,,,,,,,,,,,,,,,,,,,,,,,,,,,,,,,,,,,,,,,,,,,,,,,,,,,,,,,,,,,,,,
1764667393.089924,7713,1,4389.316406,4399.273438,4503.077148,4538.760742,4396.111328,4525.641113,4551.666504,4399.358887,4588.589844,4393.760742,4488.162598,4511.111328,4577.734863,4399.316406,4390.427246,4507.094238,4548.546875,4535.598145,4515.939941,4394.145508,4401.837402,4573.546875,4522.436035,4499.529785,4401.922852,4582.606934,4389.615234,4562.734863,4509.700684,4397.179688,4518.675293,4479.273438,0,0,14,0,0,,,,0,4,4,4,4,4,4,4,4,4,4,4,4,4,4,4,4,4,4,4,4,4,4,4,4,4,4,4,4,4,4,4,4,100,,,,,,,,,,,,,,,,,,,,,,,,,,,,,,,,,,,,,,,,,,,,,,,,,,,,,,,,,,,,,,,,,,,,,,,,,,,,,,,,,,,,,,,,,,,,,,,,,,,,,,,,,,,,,,,,,,,,,,,,,,,,,,,,,,,,,,,,,,,,,,,,,,,,,,,,,,,,,,,,,,,,,,,,,,,,,,,,,,,,,,,,,,,,,,,,,,,,,,,,,,,,,,
1764667393.093830,7714,1,4389.273438,4399.265137,4503.922852,4539.290527,4396.632324,4525.666504,4552.230957,4400.025879,4588.717773,4395.521484,4488.991211,4511.222168,4578.060059,4399.683594,4389.905762,4506.649414,4548.658203,4535.222168,4516.444336,4394.905762,4402.598145,4573.529785,4521.461426,4499.111328,4401.410156,4583.162598,4390.05127,4562.546875,4509.96582,4398.153809,4519.734863,4480.213867,0,0,14,0,0,,,,0,4,4,4,4,4,4,4,4,4,4,4,4,4,4,4,4,4,4,4,4,4,4,4,4,4,4,4,4,4,4,4,4,100,,,,,,,,,,,,,,,,,,,,,,,,,,,,,,,,,,,,,,,,,,,,,,,,,,,,,,,,,,,,,,,,,,,,,,,,,,,,,,,,,,,,,,,,,,,,,,,,,,,,,,,,,,,,,,,,,,,,,,,,,,,,,,,,,,,,,,,,,,,,,,,,,,,,,,,,,,,,,,,,,,,,,,,,,,,,,,,,,,,,,,,,,,,,,,,,,,,,,,,,,,,,,,
1764667393.097736,7715,1,4389.230957,4399.256348,4504.769043,4539.820313,4397.153809,4525.692383,4552.794922,4400.692383,4588.846191,4397.282227,4489.820313,4511.333496,4578.384766,4400.05127,4389.384766,4506.205078,4548.769043,4534.846191,4516.94873,4395.666504,4403.358887,4573.512695,4520.487305,4498.692383,4400.897461,4583.717773,4390.487305,4562.358887,4510.230957,4399.128418,4520.794922,4481.153809,0,0,14,0,0,,,,0,4,4,4,4,4,4,4,4,4,4,4,4,4,4,4,4,4,4,4,4,4,4,4,4,4,4,4,4,4,4,4,4,100,,,,,,,,,,,,,,,,,,,,,,,,,,,,,,,,,,,,,,,,,,,,,,,,,,,,,,,,,,,,,,,,,,,,,,,,,,,,,,,,,,,,,,,,,,,,,,,,,,,,,,,,,,,,,,,,,,,,,,,,,,,,,,,,,,,,,,,,,,,,,,,,,,,,,,,,,,,,,,,,,,,,,,,,,,,,,,,,,,,,,,,,,,,,,,,,,,,,,,,,,,,,,,
1764667393.101642,7716,1,4389.187988,4399.248047,4505.615234,4540.350586,4397.675293,4525.717773,4553.358887,4401.358887,4588.974121,4399.042969,4490.649414,4511.444336,4578.709473,4400.418945,4388.863281,4505.760742,4548.880371,4534.470215,4517.453125,4396.427246,4404.119629,4573.495605,4519.512695,4498.273438,4400.384766,4584.273438,4390.922852,4562.170898,4510.495605,4400.102539,4521.854492,4482.094238,0,0,14,0,0,,,,0,4,4,4,4,4,4,4,4,4,4,4,4,4,4,4,4,4,4,4,4,4,4,4,4,4,4,4,4,4,4,4,4,100,,,,,,,,,,,,,,,,,,,,,,,,,,,,,,,,,,,,,,,,,,,,,,,1.954521,0.84279,0.431324,0.110977,0.034258,1.696414,1.518081,0.620777,0.157812,0.054396,23.190882,9.450878,2.46434,0.850515,0.141995,3.061589,1.372819,0.471945,0.2187,0.117628,2.055598,2.383672,0.758017,0.441184,0.189921,1.010005,0.663648,0.381161,0.124278,0.030753,1.443731,0.69633,0.374878,0.131067,0.036235,0.566691,1.066695,0.400894,0.173155,0.069405,0.640125,0.692406,0.201316,0.182615,0.090628,2.877715,2.933004,1.151999,0.808352,0.184842,0.595781,0.25818,0.096437,0.06315,0.024301,3.085438,0.492043,0.287623,0.128951,0.040748,2.099348,0.43742,0.239679,0.068245,0.02778,0.869746,0.254138,0.169044,0.057164,0.020629,2.243813,0.517335,0.323958,0.086792,0.049328,0.396669,0.119689,0.088805,0.027478,0.013348,2.746293,0.876024,0.548851,0.104081,0.051529,4.197493,1.781563,0.622468,0.201371,0.097819,3.819609,1.269204,0.383044,0.153314,0.097616,2.964615,0.423897,0.338214,0.096216,0.078241,3.644819,1.325133,0.474847,0.160578,0.06018,3.356368,1.310192,0.530379,0.151418,0.053223,2.28829,0.471505,0.409217,0.092562,0.041653,1.846414,1.031011,0.691823,0.146977,0.049085,4.030924,3.775029,0.868087,1.137711,0.357952,0.822181,0.304542,0.123001,0.119064,0.04032,3.086299,1.160666,0.625368,0.268697,0.123268,1.817014,1.433019,0.602649,0.172177,0.055539,0.644418,0.463501,0.300862,0.08333,0.026137,2.243496,1.62306,0.614772,0.197628,0.092064,5.001229,3.048606,1.551598,0.560745,0.274942,27.445936,8.813738,2.849303,0.955894,0.239776
1764667393.105548,7717,1,4389.145508,4399.239258,4506.461426,4540.880371,4398.196777,4525.743652,4553.922852,4402.025879,4589.102539,4400.803223,4491.478516,4511.555664,4579.03418,4400.786133,4388.341797,4505.316406,4548.991211,4534.094238,4517.957031,4397.187988,4404.880371,4573.478516,4518.538574,4497.854492,4399.871582,4584.829102,4391.358887,4561.98291,4510.760742,4401.077148,4522.914551,4483.03418,0,0,14,0,0,,,,0,4,4,4,4,4,4,4,4,4,4,4,4,4,4,4,4,4,4,4,4,4,4,4,4,4,4,4,4,4,4,4,4,100,,,,,,,,,,,,,,,,,,,,,,,,,,,,,,,,,,,,,,,,,,,,,,,,,,,,,,,,,,,,,,,,,,,,,,,,,,,,,,,,,,,,,,,,,,,,,,,,,,,,,,,,,,,,,,,,,,,,,,,,,,,,,,,,,,,,,,,,,,,,,,,,,,,,,,,,,,,,,,,,,,,,,,,,,,,,,,,,,,,,,,,,,,,,,,,,,,,,,,,,,,,,,,
1764667393.109454,7718,0,4389.102539,4399.230957,4507.307617,4541.410156,4398.717773,4525.769043,4554.487305,4402.692383,4589.230957,4402.563965,4492.307617,4511.666504,4579.358887,4401.153809,4387.820313,4504.871582,4549.102539,4533.717773,4518.461426,4397.94873,4405.641113,4573.461426,4517.563965,4497.436035,4399.358887,4585.384766,4391.794922,4561.794922,4511.025879,4402.05127,4523.974121,4483.974121,2837,0,14,2576,41347,,,,0,4,4,4,4,4,4,4,4,4,4,4,4,4,4,4,4,4,4,4,4,4,4,4,4,4,4,4,4,4,4,4,4,100,,,,,,,,,,,,,,,,,,,,,,,,,,,,,,,,,,,,,,,,,,,,,,,,,,,,,,,,,,,,,,,,,,,,,,,,,,,,,,,,,,,,,,,,,,,,,,,,,,,,,,,,,,,,,,,,,,,,,,,,,,,,,,,,,,,,,,,,,,,,,,,,,,,,,,,,,,,,,,,,,,,,,,,,,,,,,,,,,,,,,,,,,,,,,,,,,,,,,,,,,,,,,,
1764667393.113360,7719,0,4391.410156,4399.487305,4508.205078,4550.256348,4402.563965,4528.333496,4553.461426,4407.05127,4590,4403.589844,4494.743652,4512.563965,4578.077148,4404.230957,4395.384766,4510.769043,4550.897461,4537.94873,4519.230957,4397.820313,4408.974121,4579.230957,4522.692383,4506.282227,4393.717773,4587.820313,4394.230957,4566.153809,4513.717773,4400.256348,4504.615234,4472.436035,3004,0,14,2576,41347,,,,0,4,4,4,4,4,4,4,4,4,4,4,4,4,4,4,4,4,4,4,4,4,4,4,4,4,4,4,4,4,4,4,4,100,,,,,,,,,,,,,,,,,,,,,,,,,,,,,,,,,,,,,,,,,,,,,,,,,,,,,,,,,,,,,,,,,,,,,,,,,,,,,,,,,,,,,,,,,,,,,,,,,,,,,,,,,,,,,,,,,,,,,,,,,,,,,,,,,,,,,,,,,,,,,,,,,,,,,,,,,,,,,,,,,,,,,,,,,,,,,,,,,,,,,,,,,,,,,,,,,,,,,,,,,,,,,,
1764667393.117266,7720,0,4393.461426,4399.102539,4496.794922,4553.846191,4409.487305,4528.333496,4550.641113,4406.538574,4590.384766,4406.025879,4494.230957,4513.589844,4572.692383,4403.974121,4396.282227,4515.256348,4550.512695,4541.666504,4516.922852,4393.205078,4409.487305,4581.538574,4527.436035,4512.563965,4389.230957,4589.358887,4399.615234,4570.512695,4516.538574,4400.256348,4495,4468.717773,2904,0,14,2576,41355,,,,0,4,4,4,4,4,4,4,4,4,4,4,4,4,4,4,4,4,4,4,4,4,4,4,4,4,4,4,4,4,4,4,4,100,,,,,,,,,,,,,,,,,,,,,,,,,,,,,,,,,,,,,,,,,,,,,,,,,,,,,,,,,,,,,,,,,,,,,,,,,,,,,,,,,,,,,,,,,,,,,,,,,,,,,,,,,,,,,,,,,,,,,,,,,,,,,,,,,,,,,,,,,,,,,,,,,,,,,,,,,,,,,,,,,,,,,,,,,,,,,,,,,,,,,,,,,,,,,,,,,,,,,,,,,,,,,,
1764667393.121172,7721,0,4395.769043,4399.487305,4481.922852,4551.153809,4415.256348,4526.538574,4548.589844,4401.666504,4590.384766,4408.333496,4490.641113,4514.230957,4568.461426,4401.153809,4391.666504,4516.410156,4548.974121,4543.333496,4514.871582,4388.333496,4409.358887,4581.153809,4531.025879,4513.717773,4391.282227,4590,4405.384766,4573.717773,4519.102539,4403.205078,4504.230957,4475.641113,2742,0,14,2576,41355,,,,0,4,4,4,4,4,4,4,4,4,4,4,4,4,4,4,4,4,4,4,4,4,4,4,4,4,4,4,4,4,4,4,4,100,,,,,,,,,,,,,,,,,,,,,,,,,,,,,,,,,,,34698,0,0.490149,-0.496704,-0.369629,0.613525,0.95373,-0.253449,0.031254,4.666667,47.5,-9.333333,,,,,,,,,,,,,,,,,,,,,,,,,,,,,,,,,,,,,,,,,,,,,,,,,,,,,,,,,,,,,,,,,,,,,,,,,,,,,,,,,,,,,,,,,,,,,,,,,,,,,,,,,,,,,,,,,,,,,,,,,,,,,,,,,,,,,,,,,,,,,,,,,,,,,,,,,,,,,,,,
1764667393.125078,7722,0,4397.563965,4401.025879,4476.410156,4543.846191,4415.769043,4524.871582,4548.717773,4395,4589.487305,4407.563965,4485.512695,4514.487305,4568.461426,4397.94873,4385.897461,4514.358887,4547.692383,4542.692383,4514.743652,4385.769043,4409.487305,4578.717773,4532.307617,4510.384766,4401.025879,4590.384766,4409.230957,4574.743652,4520.769043,4406.538574,4529.102539,4490.256348,627,0,14,2576,41363,,,,0,4,4,4,4,4,4,4,4,4,4,4,4,4,4,4,4,4,4,4,4,4,4,4,4,4,4,4,4,4,4,4,4,100,,,,,,,,,,,,,,,,,,,,,,,,,,,,,,,,,,,,,,,,,,,,,,,,,,,,,,,,,,,,,,,,,,,,,,,,,,,,,,,,,,,,,,,,,,,,,,,,,,,,,,,,,,,,,,,,,,,,,,,,,,,,,,,,,,,,,,,,,,,,,,,,,,,,,,,,,,,,,,,,,,,,,,,,,,,,,,,,,,,,,,,,,,,,,,,,,,,,,,,,,,,,,,
