title:Sad2, start timestamp:1764667407.784339, stop timestamp:1764667421.369448, headset type:FLEX2, headset serial:F30002B4, headset firmware:2f10, channels:283, sampling rate:eeg_256;mot_64;pow_8, samples:3479      , version:2.2, ,,,,,,,,,,,,,,,,,,,,,,,,,,,,,,,,,,,,,,,,,,,,,,,,,,,,,,,,,,,,,,,,,,,,,,,,,,,,,,,,,,,,,,,,,,,,,,,,,,,,,,,,,,,,,,,,,,,,,,,,,,,,,,,,,,,,,,,,,,,,,,,,,,,,,,,,,,,,,,,,,,,,,,,,,,,,,,,,,,,,,,,,,,,,,,,,,,,,,,,,,,,,,,,,,,,,,,,,,,,,,,,,,,,,,,,,,,,,,,,,,,,,,,,,,,,,,,,,,,,,,,,,,,,,,,,,
Timestamp,EEG.Counter,EEG.Interpolated,EEG.Cz,EEG.Fz,EEG.Fp1,EEG.F7,EEG.F3,EEG.FC1,EEG.C3,EEG.FC5,EEG.FT9,EEG.T7,EEG.CP5,EEG.CP1,EEG.P3,EEG.P7,EEG.PO9,EEG.O1,EEG.Pz,EEG.Oz,EEG.O2,EEG.PO10,EEG.P8,EEG.P4,EEG.CP2,EEG.CP6,EEG.T8,EEG.FT10,EEG.FC6,EEG.C4,EEG.FC2,EEG.F4,EEG.F8,EEG.Fp2,EEG.RawCq,EEG.Battery,EEG.BatteryPercent,EEG.FwBufferSize,EEG.FwClockTime,MarkerIndex,MarkerType,MarkerValueInt,EEG.MarkerHardware,CQ.Cz,CQ.Fz,CQ.Fp1,CQ.F7,CQ.F3,CQ.FC1,CQ.C3,CQ.FC5,CQ.FT9,CQ.T7,CQ.CP5,CQ.CP1,CQ.P3,CQ.P7,CQ.PO9,CQ.O1,CQ.Pz,CQ.Oz,CQ.O2,CQ.PO10,CQ.P8,CQ.P4,CQ.CP2,CQ.CP6,CQ.T8,CQ.FT10,CQ.FC6,CQ.C4,CQ.FC2,CQ.F4,CQ.F8,CQ.Fp2,CQ.Overall,EQ.SampleRateQuality,EQ.OVERALL,EQ.Cz,EQ.Fz,EQ.Fp1,EQ.F7,EQ.F3,EQ.FC1,EQ.C3,EQ.FC5,EQ.FT9,EQ.T7,EQ.CP5,EQ.CP1,EQ.P3,EQ.P7,EQ.PO9,EQ.O1,EQ.Pz,EQ.Oz,EQ.O2,EQ.PO10,EQ.P8,EQ.P4,EQ.CP2,EQ.CP6,EQ.T8,EQ.FT10,EQ.FC6,EQ.C4,EQ.FC2,EQ.F4,EQ.F8,EQ.Fp2,MOT.CounterMems,MOT.InterpolatedMems,MOT.Q0,MOT.Q1,MOT.Q2,MOT.Q3,MOT.AccX,MOT.AccY,MOT.AccZ,MOT.MagX,MOT.MagY,MOT.MagZ,POW.Cz.Theta,POW.Cz.Alpha,POW.Cz.BetaL,POW.Cz.BetaH,POW.Cz.Gamma,POW.Fz.Theta,POW.Fz.Alpha,POW.Fz.BetaL,POW.Fz.BetaH,POW.Fz.Gamma,POW.Fp1.Theta,POW.Fp1.Alpha,POW.Fp1.BetaL,POW.Fp1.BetaH,POW.Fp1.Gamma,POW.F7.Theta,POW.F7.Alpha,POW.F7.BetaL,POW.F7.BetaH,POW.F7.Gamma,POW.F3.Theta,POW.F3.Alpha,POW.F3.BetaL,POW.F3.BetaH,POW.F3.Gamma,POW.FC1.Theta,POW.FC1.Alpha,POW.FC1.BetaL,POW.FC1.BetaH,POW.FC1.Gamma,POW.C3.Theta,POW.C3.Alpha,POW.C3.BetaL,POW.C3.BetaH,POW.C3.Gamma,POW.FC5.Theta,POW.FC5.Alpha,POW.FC5.BetaL,POW.FC5.BetaH,POW.FC5.Gamma,POW.FT9.Theta,POW.FT9.Alpha,POW.FT9.BetaL,POW.FT9.BetaH,POW.FT9.Gamma,POW.T7.Theta,POW.T7.Alpha,POW.T7.BetaL,POW.T7.BetaH,POW.T7.Gamma,POW.CP5.Theta,POW.CP5.Alpha,POW.CP5.BetaL,POW.CP5.BetaH,POW.CP5.Gamma,POW.CP1.Theta,POW.CP1.Alpha,POW.CP1.BetaL,POW.CP1.BetaH,POW.CP1.Gamma,POW.P3.Theta,POW.P3.Alpha,POW.P3.BetaL,POW.P3.BetaH,POW.P3.Gamma,POW.P7.Theta,POW.P7.Alpha,POW.P7.BetaL,POW.P7.BetaH,POW.P7.Gamma,POW.PO9.Theta,POW.PO9.Alpha,POW.PO9.BetaL,POW.PO9.BetaH,POW.PO9.Gamma,POW.O1.Theta,POW.O1.Alpha,POW.O1.BetaL,POW.O1.BetaH,POW.O1.Gamma,POW.Pz.Theta,POW.Pz.Alpha,POW.Pz.BetaL,POW.Pz.BetaH,POW.Pz.Gamma,POW.Oz.Theta,POW.Oz.Alpha,POW.Oz.BetaL,POW.Oz.BetaH,POW.Oz.Gamma,POW.O2.Theta,POW.O2.Alpha,POW.O2.BetaL,POW.O2.BetaH,POW.O2.Gamma,POW.PO10.Theta,POW.PO10.Alpha,POW.PO10.BetaL,POW.PO10.BetaH,POW.PO10.Gamma,POW.P8.Theta,POW.P8.Alpha,POW.P8.BetaL,POW.P8.BetaH,POW.P8.Gamma,POW.P4.Theta,POW.P4.Alpha,POW.P4.BetaL,POW.P4.BetaH,POW.P4.Gamma,POW.CP2.Theta,POW.CP2.Alpha,POW.CP2.BetaL,POW.CP2.BetaH,POW.CP2.Gamma,POW.CP6.Theta,POW.CP6.Alpha,POW.CP6.BetaL,POW.CP6.BetaH,POW.CP6.Gamma,POW.T8.Theta,POW.T8.Alpha,POW.T8.BetaL,POW.T8.BetaH,POW.T8.Gamma,POW.FT10.Theta,POW.FT10.Alpha,POW.FT10.BetaL,POW.FT10.BetaH,POW.FT10.Gamma,POW.FC6.Theta,POW.FC6.Alpha,POW.FC6.BetaL,POW.FC6.BetaH,POW.FC6.Gamma,POW.C4.Theta,POW.C4.Alpha,POW.C4.BetaL,POW.C4.BetaH,POW.C4.Gamma,POW.FC2.Theta,POW.FC2.Alpha,POW.FC2.BetaL,POW.FC2.BetaH,POW.FC2.Gamma,POW.F4.Theta,POW.F4.Alpha,POW.F4.BetaL,POW.F4.BetaH,POW.F4.Gamma,POW.F8.Theta,POW.F8.Alpha,POW.F8.BetaL,POW.F8.BetaH,POW.F8.Gamma,POW.Fp2.Theta,POW.Fp2.Alpha,POW.Fp2.BetaL,POW.Fp2.BetaH,POW.Fp2.Gamma
1764667410,12024,0,4383.333496,4377.436035,4494.230957,4516.538574,4369.615234,4501.666504,4531.025879,4381.025879,4565.641113,4397.820313,4509.487305,4507.307617,4577.94873,4415.769043,4402.94873,4519.487305,4547.307617,4547.436035,4525.641113,4400.128418,4416.153809,4585.897461,4522.179688,4506.922852,4403.589844,4559.743652,4384.102539,4556.794922,4501.410156,4381.538574,4502.94873,4477.820313,2724,0,14,2576,58165,1,1,5,0,4,4,4,4,4,4,4,4,4,4,4,4,4,4,4,4,4,4,4,4,4,4,4,4,4,4,4,4,4,4,4,4,100,,,,,,,,,,,,,,,,,,,,,,,,,,,,,,,,,,,,,,,,,,,,,,,,,,,,,,,,,,,,,,,,,,,,,,,,,,,,,,,,,,,,,,,,,,,,,,,,,,,,,,,,,,,,,,,,,,,,,,,,,,,,,,,,,,,,,,,,,,,,,,,,,,,,,,,,,,,,,,,,,,,,,,,,,,,,,,,,,,,,,,,,,,,,,,,,,,,,,,,,,,,,,,
1764667410,12025,0,4380.512695,4370.897461,4493.205078,4515.769043,4363.717773,4499.230957,4528.333496,4374.358887,4570,4395,4507.05127,4508.205078,4577.307617,4414.615234,4398.333496,4515.769043,4545.128418,4540.641113,4518.461426,4396.538574,4412.94873,4583.846191,4519.615234,4506.153809,4397.436035,4561.666504,4384.102539,4557.692383,4500.128418,4380.384766,4508.205078,4466.538574,2878,0,14,2576,58165,,,,0,4,4,4,4,4,4,4,4,4,4,4,4,4,4,4,4,4,4,4,4,4,4,4,4,4,4,4,4,4,4,4,4,100,,,,,,,,,,,,,,,,,,,,,,,,,,,,,,,,,,,35774,0,0.481703,-0.501648,-0.3703,0.615784,0.949823,-0.270541,0.027347,4.333333,49.333332,-7.5,,,,,,,,,,,,,,,,,,,,,,,,,,,,,,,,,,,,,,,,,,,,,,,,,,,,,,,,,,,,,,,,,,,,,,,,,,,,,,,,,,,,,,,,,,,,,,,,,,,,,,,,,,,,,,,,,,,,,,,,,,,,,,,,,,,,,,,,,,,,,,,,,,,,,,,,,,,,,,,,
1764667410,12026,0,4376.538574,4363.846191,4482.563965,4507.436035,4359.743652,4497.692383,4528.846191,4366.153809,4573.205078,4386.794922,4503.589844,4507.820313,4573.333496,4412.94873,4394.743652,4512.820313,4540.897461,4534.358887,4510.897461,4393.205078,4407.05127,4576.153809,4514.358887,4503.077148,4391.922852,4560.769043,4382.820313,4554.358887,4496.666504,4375.897461,4515.128418,4455.256348,1919,0,14,2576,58173,,,,0,4,4,4,4,4,4,4,4,4,4,4,4,4,4,4,4,4,4,4,4,4,4,4,4,4,4,4,4,4,4,4,4,100,,,,,,,,,,,,,,,,,,,,,,,,,,,,,,,,,,,,,,,,,,,,,,,,,,,,,,,,,,,,,,,,,,,,,,,,,,,,,,,,,,,,,,,,,,,,,,,,,,,,,,,,,,,,,,,,,,,,,,,,,,,,,,,,,,,,,,,,,,,,,,,,,,,,,,,,,,,,,,,,,,,,,,,,,,,,,,,,,,,,,,,,,,,,,,,,,,,,,,,,,,,,,,
1764667410,12027,0,4373.205078,4358.846191,4468.205078,4496.922852,4359.487305,4497.563965,4531.025879,4360.512695,4574.743652,4381.025879,4500.897461,4506.922852,4568.846191,4410.641113,4391.794922,4512.436035,4536.410156,4531.922852,4507.05127,4390.641113,4402.05127,4568.333496,4508.205078,4499.743652,4392.94873,4556.538574,4379.743652,4548.589844,4492.692383,4369.615234,4520,4447.820313,2571,0,14,2576,58173,,,,0,4,4,4,4,4,4,4,4,4,4,4,4,4,4,4,4,4,4,4,4,4,4,4,4,4,4,4,4,4,4,4,4,100,,,,,,,,,,,,,,,,,,,,,,,,,,,,,,,,,,,,,,,,,,,,,,,,,,,,,,,,,,,,,,,,,,,,,,,,,,,,,,,,,,,,,,,,,,,,,,,,,,,,,,,,,,,,,,,,,,,,,,,,,,,,,,,,,,,,,,,,,,,,,,,,,,,,,,,,,,,,,,,,,,,,,,,,,,,,,,,,,,,,,,,,,,,,,,,,,,,,,,,,,,,,,,
1764667410,12028,0,4371.025879,4357.179688,4455,4488.974121,4362.820313,4498.589844,4531.153809,4359.358887,4574.230957,4383.077148,4499.743652,4506.282227,4565.769043,4407.563965,4388.717773,4514.871582,4533.205078,4534.102539,4508.333496,4387.436035,4398.717773,4564.871582,4502.94873,4497.307617,4398.846191,4550.256348,4373.461426,4542.307617,4489.871582,4363.333496,4517.436035,4444.743652,2720,0,14,2576,58181,,,,0,4,4,4,4,4,4,4,4,4,4,4,4,4,4,4,4,4,4,4,4,4,4,4,4,4,4,4,4,4,4,4,4,100,,,,,,,,,,,,,,,,,,,,,,,,,,,,,,,,,,,,,,,,,,,,,,,,,,,,,,,,,,,,,,,,,,,,,,,,,,,,,,,,,,,,,,,,,,,,,,,,,,,,,,,,,,,,,,,,,,,,,,,,,,,,,,,,,,,,,,,,,,,,,,,,,,,,,,,,,,,,,,,,,,,,,,,,,,,,,,,,,,,,,,,,,,,,,,,,,,,,,,,,,,,,,,
1764667410,12029,0,4369.743652,4357.692383,4444.230957,4484.487305,4365.769043,4498.846191,4526.922852,4361.025879,4571.025879,4391.025879,4499.102539,4505.769043,4564.102539,4403.461426,4385.512695,4518.717773,4531.410156,4538.589844,4512.436035,4383.077148,4395.384766,4566.025879,4499.358887,4495.128418,4401.025879,4543.974121,4363.589844,4536.666504,4487.94873,4358.077148,4504.487305,4442.436035,2533,0,14,2576,58181,,,,0,4,4,4,4,4,4,4,4,4,4,4,4,4,4,4,4,4,4,4,4,4,4,4,4,4,4,4,4,4,4,4,4,100,,,,,,,,,,,,,,,,,,,,,,,,,,,,,,,,,,,35775,0,0.48167,-0.501709,-0.370361,0.615723,0.974728,-0.255891,0.013674,5.5,49.5,-7.166667,,,,,,,,,,,,,,,,,,,,,,,,,,,,,,,,,,,,,,,,,,,,,,,,,,,,,,,,,,,,,,,,,,,,,,,,,,,,,,,,,,,,,,,,,,,,,,,,,,,,,,,,,,,,,,,,,,,,,,,,,,,,,,,,,,,,,,,,,,,,,,,,,,,,,,,,,,,,,,,,
1764667410,12030,1,4369.102539,4357.692383,4438.632324,4480.256348,4361.880371,4496.794922,4522.436035,4361.410156,4564.358887,4387.094238,4496.709473,4504.871582,4565,4401.196777,4386.324707,4519.615234,4532.136719,4542.05127,4516.624023,4384.230957,4394.060059,4568.375977,4499.615234,4493.717773,4387.649414,4544.145508,4359.615234,4537.350586,4486.751953,4358.803223,4491.111328,4436.837402,0,0,14,0,0,,,,0,4,4,4,4,4,4,4,4,4,4,4,4,4,4,4,4,4,4,4,4,4,4,4,4,4,4,4,4,4,4,4,4,100,,,,,,,,,,,,,,,,,,,,,,,,,,,,,,,,,,,,,,,,,,,,,,,,,,,,,,,,,,,,,,,,,,,,,,,,,,,,,,,,,,,,,,,,,,,,,,,,,,,,,,,,,,,,,,,,,,,,,,,,,,,,,,,,,,,,,,,,,,,,,,,,,,,,,,,,,,,,,,,,,,,,,,,,,,,,,,,,,,,,,,,,,,,,,,,,,,,,,,,,,,,,,,
1764667410,12031,1,4368.461426,4357.692383,4433.03418,4476.025879,4357.991211,4494.743652,4517.94873,4361.794922,4557.692383,4383.162598,4494.316406,4503.974121,4565.897461,4398.931641,4387.136719,4520.512695,4532.863281,4545.512695,4520.812012,4385.384766,4392.734863,4570.726563,4499.871582,4492.307617,4374.273438,4544.316406,4355.641113,4538.03418,4485.555664,4359.529785,4477.734863,4431.239258,0,0,14,0,0,,,,0,4,4,4,4,4,4,4,4,4,4,4,4,4,4,4,4,4,4,4,4,4,4,4,4,4,4,4,4,4,4,4,4,100,,,,,,,,,,,,,,,,,,,,,,,,,,,,,,,,,,,,,,,,,,,,,,,,,,,,,,,,,,,,,,,,,,,,,,,,,,,,,,,,,,,,,,,,,,,,,,,,,,,,,,,,,,,,,,,,,,,,,,,,,,,,,,,,,,,,,,,,,,,,,,,,,,,,,,,,,,,,,,,,,,,,,,,,,,,,,,,,,,,,,,,,,,,,,,,,,,,,,,,,,,,,,,
1764667410,12032,0,4367.820313,4357.692383,4427.436035,4471.794922,4354.102539,4492.692383,4513.461426,4362.179688,4551.025879,4379.230957,4491.922852,4503.077148,4566.794922,4396.666504,4387.94873,4521.410156,4533.589844,4548.974121,4525,4386.538574,4391.410156,4573.077148,4500.128418,4490.897461,4360.897461,4544.487305,4351.666504,4538.717773,4484.358887,4360.256348,4464.358887,4425.641113,2797,0,14,2574,58196,,,,0,4,4,4,4,4,4,4,4,4,4,4,4,4,4,4,4,4,4,4,4,4,4,4,4,4,4,4,4,4,4,4,4,100,,,,,,,,,,,,,,,,,,,,,,,,,,,,,,,,,,,,,,,,,,,,,,,,,,,,,,,,,,,,,,,,,,,,,,,,,,,,,,,,,,,,,,,,,,,,,,,,,,,,,,,,,,,,,,,,,,,,,,,,,,,,,,,,,,,,,,,,,,,,,,,,,,,,,,,,,,,,,,,,,,,,,,,,,,,,,,,,,,,,,,,,,,,,,,,,,,,,,,,,,,,,,,
1764667410,12033,0,4369.743652,4361.410156,4432.307617,4473.974121,4350.641113,4494.230957,4518.589844,4363.077148,4549.871582,4366.025879,4491.153809,4504.615234,4570.256348,4399.743652,4392.692383,4522.179688,4537.563965,4553.846191,4529.615234,4395.641113,4400.512695,4574.487305,4503.846191,4495,4360.641113,4551.410156,4364.743652,4547.307617,4487.05127,4368.846191,4477.820313,4426.538574,2923,0,14,2574,58196,,,,0,4,4,4,4,4,4,4,4,4,4,4,4,4,4,4,4,4,4,4,4,4,4,4,4,4,4,4,4,4,4,4,4,100,,,,,,,,,,,,,,,,,,,,,,,,,,,,,,,,,,,35776,0,0.4817,-0.50177,-0.370544,0.61554,0.974728,-0.255891,0.013674,5.5,49.166668,-6.333333,,,,,,,,,,,,,,,,,,,,,,,,,,,,,,,,,,,,,,,,,,,,,,,,,,,,,,,,,,,,,,,,,,,,,,,,,,,,,,,,,,,,,,,,,,,,,,,,,,,,,,,,,,,,,,,,,,,,,,,,,,,,,,,,,,,,,,,,,,,,,,,,,,,,,,,,,,,,,,,,
1764667410,12034,0,4372.94873,4368.333496,4442.94873,4482.307617,4350.769043,4498.461426,4524.230957,4365.769043,4553.717773,4363.077148,4492.05127,4507.563965,4572.820313,4403.974121,4396.282227,4524.230957,4541.153809,4559.358887,4533.974121,4402.179688,4411.153809,4576.282227,4506.922852,4501.410156,4374.871582,4557.563965,4379.743652,4554.615234,4491.666504,4378.846191,4502.563965,4434.230957,2640,0,14,2574,58204,,,,0,4,4,4,4,4,4,4,4,4,4,4,4,4,4,4,4,4,4,4,4,4,4,4,4,4,4,4,4,4,4,4,4,100,,,,,,,,,,,,,,,,,,,,,,,,,,,,,,,,,,,,,,,,,,,,,,,,,,,,,,,,,,,,,,,,,,,,,,,,,,,,,,,,,,,,,,,,,,,,,,,,,,,,,,,,,,,,,,,,,,,,,,,,,,,,,,,,,,,,,,,,,,,,,,,,,,,,,,,,,,,,,,,,,,,,,,,,,,,,,,,,,,,,,,,,,,,,,,,,,,,,,,,,,,,,,,
1764667410,12035,0,4376.025879,4375.897461,4455,4491.666504,4353.077148,4503.077148,4525.512695,4368.974121,4559.102539,4372.692383,4493.333496,4510.512695,4572.820313,4406.538574,4396.922852,4525.769043,4542.820313,4562.820313,4536.410156,4403.077148,4417.436035,4577.436035,4507.94873,4506.410156,4394.358887,4560.128418,4388.846191,4557.307617,4496.282227,4386.153809,4525.512695,4446.922852,2872,0,14,2574,58204,,,,0,4,4,4,4,4,4,4,4,4,4,4,4,4,4,4,4,4,4,4,4,4,4,4,4,4,4,4,4,4,4,4,4,100,,,,,,,,,,,,,,,,,,,,,,,,,,,,,,,,,,,,,,,,,,,,,,,,,,,,,,,,,,,,,,,,,,,,,,,,,,,,,,,,,,,,,,,,,,,,,,,,,,,,,,,,,,,,,,,,,,,,,,,,,,,,,,,,,,,,,,,,,,,,,,,,,,,,,,,,,,,,,,,,,,,,,,,,,,,,,,,,,,,,,,,,,,,,,,,,,,,,,,,,,,,,,,
1764667410,12036,0,4378.205078,4381.025879,4464.358887,4495.641113,4356.666504,4506.410156,4521.666504,4370.641113,4561.922852,4387.307617,4493.461426,4512.563965,4569.743652,4406.666504,4394.358887,4525,4542.307617,4562.436035,4535.384766,4398.846191,4417.05127,4577.94873,4507.05127,4507.94873,4407.179688,4558.846191,4388.974121,4555.641113,4499.743652,4388.846191,4535.641113,4462.436035,2760,0,14,2568,58212,,,,0,4,4,4,4,4,4,4,4,4,4,4,4,4,4,4,4,4,4,4,4,4,4,4,4,4,4,4,4,4,4,4,4,100,0.632813,58.333332,4,4,4,4,4,4,4,4,4,4,4,4,4,4,4,0,4,4,4,4,4,4,4,4,3,4,4,4,4,4,4,4,,,,,,,,,,,,,3.021348,0.648043,0.530144,0.331075,0.122234,5.084409,1.221683,0.846409,0.499925,0.202845,28.86545,2.359014,1.331918,1.774098,0.790302,4.868718,1.539878,1.07906,0.909784,0.299374,5.261847,1.324301,1.587324,0.869346,0.511571,2.516256,0.560124,0.576397,0.297197,0.118084,1.281625,0.392995,0.619119,0.346822,0.209254,3.04535,0.615865,0.88416,0.581782,0.245958,2.364654,0.780946,0.688648,0.292809,0.209907,1.065444,1.122121,0.675889,1.363999,1.197177,0.425805,0.224777,0.217441,0.265433,0.09329,1.892051,0.367779,0.743978,0.394339,0.159514,1.258304,0.394056,0.798402,0.194236,0.083879,0.876362,0.512691,0.158759,0.125568,0.061467,1.006632,0.45784,0.58127,0.174604,0.125469,0.227871,0.128127,0.208412,0.06694,0.047004,1.789186,0.579045,0.795887,0.396412,0.184442,1.402525,0.837351,1.529677,0.435387,0.457018,1.438506,1.08829,1.834416,0.65722,0.529446,2.085075,0.900059,1.049998,0.385017,0.210858,2.038952,1.70683,1.211939,0.516049,0.233855,2.207137,0.761401,1.078097,0.441682,0.242244,1.745007,0.503052,0.735262,0.360837,0.19071,2.17773,1.049885,1.312918,0.493842,0.213372,3.947952,3.084113,3.135708,2.272241,2.562025,3.429416,0.899872,0.666704,0.393358,0.206173,4.253273,0.99931,1.223139,0.913242,0.381824,3.915197,0.893342,1.067858,0.392916,0.210626,1.175552,0.338423,0.415508,0.198917,0.113377,4.904221,1.860759,0.760127,0.359825,0.185527,4.503661,1.17074,1.055513,1.321473,1.596684,27.943764,3.291004,1.396078,1.3464,0.803805
1764667410,12037,0,4379.358887,4382.563965,4469.230957,4492.94873,4361.666504,4508.589844,4516.794922,4370.256348,4560.897461,4395.384766,4492.436035,4513.461426,4565.256348,4405.384766,4390.128418,4522.307617,4540.384766,4558.333496,4530.769043,4393.333496,4411.282227,4578.077148,4505.384766,4506.666504,4407.820313,4555.897461,4383.589844,4552.94873,4501.666504,4387.563965,4531.282227,4478.717773,2817,0,14,2568,58212,,,,0,4,4,4,4,4,4,4,4,4,4,4,4,4,4,4,4,4,4,4,4,4,4,4,4,4,4,4,4,4,4,4,4,100,,,,,,,,,,,,,,,,,,,,,,,,,,,,,,,,,,,35777,0,0.481682,-0.501892,-0.370605,0.615417,0.958613,-0.264192,0.013185,6.333333,50,-8.5,,,,,,,,,,,,,,,,,,,,,,,,,,,,,,,,,,,,,,,,,,,,,,,,,,,,,,,,,,,,,,,,,,,,,,,,,,,,,,,,,,,,,,,,,,,,,,,,,,,,,,,,,,,,,,,,,,,,,,,,,,,,,,,,,,,,,,,,,,,,,,,,,,,,,,,,,,,,,,,,
1764667410,12038,0,4380.384766,4382.179688,4470.512695,4487.94873,4368.333496,4510.641113,4515.897461,4368.717773,4557.436035,4390.769043,4491.025879,4512.94873,4561.794922,4404.358887,4387.179688,4519.487305,4538.461426,4551.922852,4523.205078,4390,4403.846191,4578.077148,4503.974121,4505,4399.871582,4553.846191,4378.846191,4552.05127,4502.692383,4385.128418,4520.641113,4492.307617,2837,0,14,2568,58220,,,,0,4,4,4,4,4,4,4,4,4,4,4,4,4,4,4,4,4,4,4,4,4,4,4,4,4,4,4,4,4,4,4,4,100,,,,,,,,,,,,,,,,,,,,,,,,,,,,,,,,,,,,,,,,,,,,,,,,,,,,,,,,,,,,,,,,,,,,,,,,,,,,,,,,,,,,,,,,,,,,,,,,,,,,,,,,,,,,,,,,,,,,,,,,,,,,,,,,,,,,,,,,,,,,,,,,,,,,,,,,,,,,,,,,,,,,,,,,,,,,,,,,,,,,,,,,,,,,,,,,,,,,,,,,,,,,,,
1764667410,12039,0,4381.538574,4382.179688,4471.025879,4487.179688,4375.128418,4512.94873,4520.128418,4367.436035,4553.974121,4378.333496,4490.512695,4510.256348,4560.256348,4404.871582,4387.563965,4518.077148,4537.05127,4545,4514.743652,4390,4398.077148,4577.436035,4502.820313,4505,4393.461426,4553.974121,4378.205078,4553.461426,4502.94873,4383.717773,4513.974121,4498.846191,3026,0,14,2568,58220,,,,0,4,4,4,4,4,4,4,4,4,4,4,4,4,4,4,4,4,4,4,4,4,4,4,4,4,4,4,4,4,4,4,4,100,,,,,,,,,,,,,,,,,,,,,,,,,,,,,,,,,,,,,,,,,,,,,,,,,,,,,,,,,,,,,,,,,,,,,,,,,,,,,,,,,,,,,,,,,,,,,,,,,,,,,,,,,,,,,,,,,,,,,,,,,,,,,,,,,,,,,,,,,,,,,,,,,,,,,,,,,,,,,,,,,,,,,,,,,,,,,,,,,,,,,,,,,,,,,,,,,,,,,,,,,,,,,,
1764667410,12040,0,4382.436035,4384.358887,4474.358887,4493.589844,4379.487305,4514.487305,4525.641113,4367.692383,4552.94873,4368.717773,4491.153809,4506.025879,4560.512695,4406.410156,4391.666504,4518.333496,4535.641113,4538.589844,4507.563965,4391.538574,4395.384766,4575.128418,4501.666504,4506.282227,4395.897461,4556.025879,4380.769043,4555.128418,4502.436035,4383.077148,4515.256348,4497.436035,2902,0,14,2567,58228,,,,0,4,4,4,4,4,4,4,4,4,4,4,4,4,4,4,4,4,4,4,4,4,4,4,4,4,4,4,4,4,4,4,4,100,,,,,,,,,,,,,,,,,,,,,,,,,,,,,,,,,,,,,,,,,,,,,,,,,,,,,,,,,,,,,,,,,,,,,,,,,,,,,,,,,,,,,,,,,,,,,,,,,,,,,,,,,,,,,,,,,,,,,,,,,,,,,,,,,,,,,,,,,,,,,,,,,,,,,,,,,,,,,,,,,,,,,,,,,,,,,,,,,,,,,,,,,,,,,,,,,,,,,,,,,,,,,,
1764667410,12041,0,4382.05127,4387.436035,4483.077148,4504.358887,4378.974121,4513.846191,4527.436035,4369.615234,4555.256348,4369.358887,4492.179688,4502.563965,4560.641113,4407.692383,4397.179688,4519.358887,4533.589844,4533.461426,4504.358887,4392.94873,4395.512695,4571.538574,4501.025879,4506.922852,4405.256348,4558.974121,4382.94873,4555,4501.282227,4381.538574,4520.512695,4492.563965,2748,0,14,2567,58228,,,,0,4,4,4,4,4,4,4,4,4,4,4,4,4,4,4,4,4,4,4,4,4,4,4,4,4,4,4,4,4,4,4,4,100,,,,,,,,,,,,,,,,,,,,,,,,,,,,,,,,,,,35778,0,0.481917,-0.501831,-0.370483,0.615356,0.964473,-0.257844,0.03223,6.333333,48.333332,-7.666667,,,,,,,,,,,,,,,,,,,,,,,,,,,,,,,,,,,,,,,,,,,,,,,,,,,,,,,,,,,,,,,,,,,,,,,,,,,,,,,,,,,,,,,,,,,,,,,,,,,,,,,,,,,,,,,,,,,,,,,,,,,,,,,,,,,,,,,,,,,,,,,,,,,,,,,,,,,,,,,,
1764667410,12042,0,4380.769043,4390.128418,4497.179688,4514.487305,4374.871582,4512.307617,4524.487305,4372.436035,4560.897461,4378.205078,4493.077148,4502.94873,4560,4407.436035,4401.538574,4520.256348,4531.153809,4530.641113,4506.410156,4393.846191,4398.333496,4568.333496,4502.436035,4506.282227,4412.692383,4562.307617,4382.563965,4552.436035,4500.256348,4378.717773,4523.205078,4489.871582,628,0,14,2566,58236,,,,0,4,4,4,4,4,4,4,4,4,4,4,4,4,4,4,4,4,4,4,4,4,4,4,4,4,4,4,4,4,4,4,4,100,,,,,,,,,,,,,,,,,,,,,,,,,,,,,,,,,,,,,,,,,,,,,,,,,,,,,,,,,,,,,,,,,,,,,,,,,,,,,,,,,,,,,,,,,,,,,,,,,,,,,,,,,,,,,,,,,,,,,,,,,,,,,,,,,,,,,,,,,,,,,,,,,,,,,,,,,,,,,,,,,,,,,,,,,,,,,,,,,,,,,,,,,,,,,,,,,,,,,,,,,,,,,,
1764667410,12043,0,4380.256348,4392.307617,4512.179688,4520.128418,4370.769043,4512.820313,4521.282227,4375.897461,4569.358887,4388.589844,4494.230957,4508.205078,4559.743652,4405.384766,4402.563965,4520.256348,4530,4531.153809,4512.692383,4394.871582,4403.589844,4567.563965,4507.179688,4505.512695,4412.179688,4566.153809,4381.153809,4550,4501.025879,4377.436035,4521.025879,4491.025879,2731,0,14,2566,58236,,,,0,4,4,4,4,4,4,4,4,4,4,4,4,4,4,4,4,4,4,4,4,4,4,4,4,4,4,4,4,4,4,4,4,100,,,,,,,,,,,,,,,,,,,,,,,,,,,,,,,,,,,,,,,,,,,,,,,,,,,,,,,,,,,,,,,,,,,,,,,,,,,,,,,,,,,,,,,,,,,,,,,,,,,,,,,,,,,,,,,,,,,,,,,,,,,,,,,,,,,,,,,,,,,,,,,,,,,,,,,,,,,,,,,,,,,,,,,,,,,,,,,,,,,,,,,,,,,,,,,,,,,,,,,,,,,,,,
1764667410,12044,0,4382.563965,4395.512695,4520.512695,4521.538574,4371.025879,4517.94873,4524.358887,4379.743652,4578.846191,4396.538574,4496.538574,4516.282227,4562.179688,4402.820313,4400.256348,4519.102539,4532.179688,4534.615234,4520,4396.666504,4410.256348,4570.512695,4515,4506.410156,4405.897461,4570.512695,4381.922852,4551.153809,4504.615234,4381.282227,4516.666504,4491.538574,2516,0,14,2567,58243,,,,0,4,4,4,4,4,4,4,4,4,4,4,4,4,4,4,4,4,4,4,4,4,4,4,4,4,4,4,4,4,4,4,4,100,,,,,,,,,,,,,,,,,,,,,,,,,,,,,,,,,,,,,,,,,,,,,,,,,,,,,,,,,,,,,,,,,,,,,,,,,,,,,,,,,,,,,,,,,,,,,,,,,,,,,,,,,,,,,,,,,,,,,,,,,,,,,,,,,,,,,,,,,,,,,,,,,,,,,,,,,,,,,,,,,,,,,,,,,,,,,,,,,,,,,,,,,,,,,,,,,,,,,,,,,,,,,,
1764667410,12045,0,4388.077148,4400.769043,4516.666504,4521.153809,4376.922852,4526.666504,4535.897461,4384.230957,4586.410156,4402.94873,4500.256348,4523.205078,4567.94873,4400.897461,4395.384766,4516.794922,4538.333496,4538.077148,4524.102539,4398.205078,4415.512695,4575.769043,4522.94873,4509.102539,4401.282227,4574.102539,4386.025879,4557.179688,4510.256348,4390.897461,4514.487305,4485.769043,2270,0,14,2567,58243,,,,0,4,4,4,4,4,4,4,4,4,4,4,4,4,4,4,4,4,4,4,4,4,4,4,4,4,4,4,4,4,4,4,4,100,,,,,,,,,,,,,,,,,,,,,,,,,,,,,,,,,,,35779,0,0.482076,-0.501709,-0.370239,0.615479,0.979123,-0.271518,0.034184,5.666667,48.5,-8.333333,,,,,,,,,,,,,,,,,,,,,,,,,,,,,,,,,,,,,,,,,,,,,,,,,,,,,,,,,,,,,,,,,,,,,,,,,,,,,,,,,,,,,,,,,,,,,,,,,,,,,,,,,,,,,,,,,,,,,,,,,,,,,,,,,,,,,,,,,,,,,,,,,,,,,,,,,,,,,,,,
1764667410,12046,0,4394.487305,4406.666504,4502.05127,4522.563965,4387.05127,4534.743652,4550.512695,4389.615234,4589.487305,4409.358887,4504.230957,4525.897461,4574.487305,4400.512695,4389.230957,4514.102539,4546.025879,4537.692383,4522.05127,4397.179688,4415.769043,4579.358887,4527.179688,4511.666504,4400.641113,4574.615234,4390.128418,4565.128418,4515.512695,4402.179688,4515.256348,4472.563965,2738,0,14,2568,58251,,,,0,4,4,4,4,4,4,4,4,4,4,4,4,4,4,4,4,4,4,4,4,4,4,4,4,4,4,4,4,4,4,4,4,100,,,,,,,,,,,,,,,,,,,,,,,,,,,,,,,,,,,,,,,,,,,,,,,,,,,,,,,,,,,,,,,,,,,,,,,,,,,,,,,,,,,,,,,,,,,,,,,,,,,,,,,,,,,,,,,,,,,,,,,,,,,,,,,,,,,,,,,,,,,,,,,,,,,,,,,,,,,,,,,,,,,,,,,,,,,,,,,,,,,,,,,,,,,,,,,,,,,,,,,,,,,,,,
1764667410,12047,0,4398.333496,4410.256348,4485.897461,4527.692383,4398.205078,4537.94873,4560.256348,4395.128418,4587.179688,4413.846191,4507.05127,4523.974121,4578.333496,4401.282227,4383.205078,4511.794922,4551.666504,4531.282227,4514.615234,4392.179688,4409.230957,4577.820313,4525.641113,4511.282227,4398.333496,4570.769043,4390.384766,4569.615234,4517.436035,4409.615234,4514.871582,4458.077148,2508,0,14,2568,58251,,,,0,4,4,4,4,4,4,4,4,4,4,4,4,4,4,4,4,4,4,4,4,4,4,4,4,4,4,4,4,4,4,4,4,100,,,,,,,,,,,,,,,,,,,,,,,,,,,,,,,,,,,,,,,,,,,,,,,,,,,,,,,,,,,,,,,,,,,,,,,,,,,,,,,,,,,,,,,,,,,,,,,,,,,,,,,,,,,,,,,,,,,,,,,,,,,,,,,,,,,,,,,,,,,,,,,,,,,,,,,,,,,,,,,,,,,,,,,,,,,,,,,,,,,,,,,,,,,,,,,,,,,,,,,,,,,,,,
1764667410,12048,1,4397.41748,4408.150391,4489.414063,4527.600586,4396.080566,4536.355469,4558.791016,4394.560547,4586.904785,4414.212402,4507.399414,4522.326172,4578.058594,4401.72168,4383.900879,4512.802246,4551.794922,4535.109863,4517.234375,4392.802246,4410.549316,4579.029297,4525.549316,4511.629883,4400.824219,4570.567871,4389.194336,4569.230957,4516.172363,4405.897461,4513.443359,4462.289551,2897,0,14,0,0,,,,0,4,4,4,4,4,4,4,4,4,4,4,4,4,4,4,4,4,4,4,4,4,4,4,4,4,4,4,4,4,4,4,4,100,,,,,,,,,,,,,,,,,,,,,,,,,,,,,,,,,,,,,,,,,,,,,,,,,,,,,,,,,,,,,,,,,,,,,,,,,,,,,,,,,,,,,,,,,,,,,,,,,,,,,,,,,,,,,,,,,,,,,,,,,,,,,,,,,,,,,,,,,,,,,,,,,,,,,,,,,,,,,,,,,,,,,,,,,,,,,,,,,,,,,,,,,,,,,,,,,,,,,,,,,,,,,,
1764667410,12049,1,4396.501953,4406.043945,4492.930176,4527.509277,4393.956055,4534.761719,4557.326172,4393.992676,4586.629883,4414.578613,4507.74707,4520.677734,4577.783691,4402.161133,4384.597168,4513.80957,4551.922852,4538.9375,4519.853516,4393.424805,4411.868164,4580.238281,4525.458008,4511.978027,4403.314941,4570.366211,4388.003906,4568.846191,4514.908203,4402.179688,4512.014648,4466.501953,2931,0,14,0,0,,,,0,4,4,4,4,4,4,4,4,4,4,4,4,4,4,4,4,4,4,4,4,4,4,4,4,4,4,4,4,4,4,4,4,100,,,,,,,,,,,,,,,,,,,,,,,,,,,,,,,,,,,,,,,,,,,,,,,,,,,,,,,,,,,,,,,,,,,,,,,,,,,,,,,,,,,,,,,,,,,,,,,,,,,,,,,,,,,,,,,,,,,,,,,,,,,,,,,,,,,,,,,,,,,,,,,,,,,,,,,,,,,,,,,,,,,,,,,,,,,,,,,,,,,,,,,,,,,,,,,,,,,,,,,,,,,,,,
1764667410,12050,1,4395.585938,4403.9375,4496.446777,4527.41748,4391.831543,4533.168457,4555.86084,4393.424805,4586.355469,4414.944824,4508.095215,4519.029297,4577.509277,4402.600586,4385.292969,4514.816895,4552.05127,4542.765625,4522.472656,4394.047852,4413.187012,4581.446777,4525.366211,4512.326172,4405.805664,4570.165039,4386.812988,4568.461426,4513.644531,4398.461426,4510.585938,4470.714355,1778,0,14,0,0,,,,0,4,4,4,4,4,4,4,4,4,4,4,4,4,4,4,4,4,4,4,4,4,4,4,4,4,4,4,4,4,4,4,4,100,,,,,,,,,,,,,,,,,,,,,,,,,,,,,,,,,,,,,,,,,,,,,,,,,,,,,,,,,,,,,,,,,,,,,,,,,,,,,,,,,,,,,,,,,,,,,,,,,,,,,,,,,,,,,,,,,,,,,,,,,,,,,,,,,,,,,,,,,,,,,,,,,,,,,,,,,,,,,,,,,,,,,,,,,,,,,,,,,,,,,,,,,,,,,,,,,,,,,,,,,,,,,,
1764667410,12051,1,4394.67041,4401.831543,4499.963379,4527.326172,4389.707031,4531.575195,4554.395508,4392.856934,4586.080566,4415.311523,4508.443359,4517.380859,4577.234375,4403.040527,4385.98877,4515.824219,4552.179688,4546.593262,4525.091797,4394.67041,4414.505371,4582.655762,4525.274902,4512.673828,4408.296875,4569.963379,4385.622559,4568.077148,4512.380859,4394.743652,4509.157715,4474.926758,2799,0,14,0,0,,,,0,4,4,4,4,4,4,4,4,4,4,4,4,4,4,4,4,4,4,4,4,4,4,4,4,4,4,4,4,4,4,4,4,100,,,,,,,,,,,,,,,,,,,,,,,,,,,,,,,,,,,,,,,,,,,,,,,,,,,,,,,,,,,,,,,,,,,,,,,,,,,,,,,,,,,,,,,,,,,,,,,,,,,,,,,,,,,,,,,,,,,,,,,,,,,,,,,,,,,,,,,,,,,,,,,,,,,,,,,,,,,,,,,,,,,,,,,,,,,,,,,,,,,,,,,,,,,,,,,,,,,,,,,,,,,,,,
1764667410,12052,1,4393.754395,4399.725098,4503.47998,4527.234375,4387.58252,4529.981445,4552.930176,4392.289551,4585.805664,4415.677734,4508.791016,4515.732422,4576.959473,4403.47998,4386.685059,4516.831543,4552.307617,4550.421387,4527.710449,4395.292969,4415.824219,4583.864258,4525.183105,4513.021973,4410.787598,4569.761719,4384.432129,4567.692383,4511.117188,4391.025879,4507.729004,4479.13916,2577,0,14,0,0,,,,0,4,4,4,4,4,4,4,4,4,4,4,4,4,4,4,4,4,4,4,4,4,4,4,4,4,4,4,4,4,4,4,4,100,,,,,,,,,,,,,,,,,,,,,,,,,,,,,,,,,,,,,,,,,,,,,,,,,,,,,,,,,,,,,,,,,,,,,,,,,,,,,,,,,,,,,,,,,,,,,,,,,,,,,,,,,,,,,,,,,,,,,,,,,,,,,,,,,,,,,,,,,,,,,,,,,,,,,,,,,,,,,,,,,,,,,,,,,,,,,,,,,,,,,,,,,,,,,,,,,,,,,,,,,,,,,,
1764667410,12053,1,4392.838867,4397.619141,4506.996094,4527.143066,4385.458008,4528.388184,4551.465332,4391.72168,4585.53125,4416.043945,4509.13916,4514.084473,4576.685059,4403.919434,4387.380859,4517.838867,4552.436035,4554.249023,4530.32959,4395.915527,4417.143066,4585.073242,4525.091797,4513.370117,4413.27832,4569.560547,4383.241699,4567.307617,4509.853516,4387.307617,4506.300293,4483.351563,2846,0,14,0,0,,,,0,4,4,4,4,4,4,4,4,4,4,4,4,4,4,4,4,4,4,4,4,4,4,4,4,4,4,4,4,4,4,4,4,100,,,,,,,,,,,,,,,,,,,,,,,,,,,,,,,,,,,,,,,,,,,,,,,,,,,,,,,,,,,,,,,,,,,,,,,,,,,,,,,,,,,,,,,,,,,,,,,,,,,,,,,,,,,,,,,,,,,,,,,,,,,,,,,,,,,,,,,,,,,,,,,,,,,,,,,,,,,,,,,,,,,,,,,,,,,,,,,,,,,,,,,,,,,,,,,,,,,,,,,,,,,,,,
1764667410,12054,0,4391.922852,4395.512695,4510.512695,4527.05127,4383.333496,4526.794922,4550,4391.153809,4585.256348,4416.410156,4509.487305,4512.436035,4576.410156,4404.358887,4388.077148,4518.846191,4552.563965,4558.077148,4532.94873,4396.538574,4418.461426,4586.282227,4525,4513.717773,4415.769043,4569.358887,4382.05127,4566.922852,4508.589844,4383.589844,4504.871582,4487.563965,2965,0,14,2572,58282,,,,0,4,4,4,4,4,4,4,4,4,4,4,4,4,4,4,4,4,4,4,4,4,4,4,4,4,4,4,4,4,4,4,4,100,,,,,,,,,,,,,,,,,,,,,,,,,,,,,,,,,,,,,,,,,,,,,,,,,,,,,,,,,,,,,,,,,,,,,,,,,,,,,,,,,,,,,,,,,,,,,,,,,,,,,,,,,,,,,,,,,,,,,,,,,,,,,,,,,,,,,,,,,,,,,,,,,,,,,,,,,,,,,,,,,,,,,,,,,,,,,,,,,,,,,,,,,,,,,,,,,,,,,,,,,,,,,,
1764667410,12055,0,4389.358887,4393.846191,4502.05127,4532.692383,4388.589844,4524.230957,4548.205078,4398.461426,4582.94873,4421.666504,4508.077148,4510.128418,4572.692383,4403.077148,4385.769043,4517.692383,4550.384766,4545.769043,4524.743652,4390.641113,4411.282227,4581.025879,4520.641113,4509.230957,4422.179688,4565.769043,4370.769043,4560.128418,4505.641113,4385.512695,4508.717773,4475.769043,2868,0,14,2572,58282,,,,0,4,4,4,4,4,4,4,4,4,4,4,4,4,4,4,4,4,4,4,4,4,4,4,4,4,4,4,4,4,4,4,4,100,,,,,,,,,,,,,,,,,,,,,,,,,,,,,,,,,,,,,,,,,,,,,,,,,,,,,,,,,,,,,,,,,,,,,,,,,,,,,,,,,,,,,,,,,,,,,,,,,,,,,,,,,,,,,,,,,,,,,,,,,,,,,,,,,,,,,,,,,,,,,,,,,,,,,,,,,,,,,,,,,,,,,,,,,,,,,,,,,,,,,,,,,,,,,,,,,,,,,,,,,,,,,,
1764667410,12056,1,4388.040527,4391.428711,4499.743652,4528.846191,4386.153809,4523.534668,4546.812988,4394.230957,4581.556641,4417.143066,4507.436035,4509.304199,4571.501953,4402.326172,4386.685059,4516.703125,4548.827637,4544.175781,4523.406738,4389.633789,4408.589844,4580.036621,4518.443359,4507.74707,4416.483398,4564.688477,4369.981445,4558.370117,4504.578613,4384.175781,4506.263672,4473.681152,2737,0,14,0,0,,,,0,4,4,4,4,4,4,4,4,4,4,4,4,4,4,4,4,4,4,4,4,4,4,4,4,4,4,4,4,4,4,4,4,100,,,,,,,,,,,,,,,,,,,,,,,,,,,,,,,,,,,,,,,,,,,,,,,,,,,,,,,,,,,,,,,,,,,,,,,,,,,,,,,,,,,,,,,,,,,,,,,,,,,,,,,,,,,,,,,,,,,,,,,,,,,,,,,,,,,,,,,,,,,,,,,,,,,,,,,,,,,,,,,,,,,,,,,,,,,,,,,,,,,,,,,,,,,,,,,,,,,,,,,,,,,,,,
1764667410,12057,1,4386.72168,4389.01123,4497.436035,4525,4383.717773,4522.838867,4545.421387,4390,4580.165039,4412.619141,4506.794922,4508.47998,4570.311523,4401.575195,4387.600586,4515.714355,4547.270996,4542.58252,4522.069824,4388.626465,4405.897461,4579.047852,4516.245605,4506.263672,4410.787598,4563.60791,4369.194336,4556.611816,4503.516602,4382.838867,4503.80957,4471.593262,2880,0,14,0,0,,,,0,4,4,4,4,4,4,4,4,4,4,4,4,4,4,4,4,4,4,4,4,4,4,4,4,4,4,4,4,4,4,4,4,100,,,,,,,,,,,,,,,,,,,,,,,,,,,,,,,,,,,,,,,,,,,,,,,,,,,,,,,,,,,,,,,,,,,,,,,,,,,,,,,,,,,,,,,,,,,,,,,,,,,,,,,,,,,,,,,,,,,,,,,,,,,,,,,,,,,,,,,,,,,,,,,,,,,,,,,,,,,,,,,,,,,,,,,,,,,,,,,,,,,,,,,,,,,,,,,,,,,,,,,,,,,,,,
1764667410,12058,1,4385.402832,4386.593262,4495.128418,4521.153809,4381.282227,4522.143066,4544.029297,4385.769043,4578.772949,4408.095215,4506.153809,4507.655762,4569.121094,4400.824219,4388.516602,4514.725098,4545.714355,4540.98877,4520.732422,4387.619141,4403.205078,4578.058594,4514.047852,4504.780273,4405.091797,4562.527344,4368.406738,4554.853516,4502.454102,4381.501953,4501.355469,4469.505371,1931,0,14,0,0,,,,0,4,4,4,4,4,4,4,4,4,4,4,4,4,4,4,4,4,4,4,4,4,4,4,4,4,4,4,4,4,4,4,4,100,,,,,,,,,,,,,,,,,,,,,,,,,,,,,,,,,,,,,,,,,,,,,,,,,,,,,,,,,,,,,,,,,,,,,,,,,,,,,,,,,,,,,,,,,,,,,,,,,,,,,,,,,,,,,,,,,,,,,,,,,,,,,,,,,,,,,,,,,,,,,,,,,,,,,,,,,,,,,,,,,,,,,,,,,,,,,,,,,,,,,,,,,,,,,,,,,,,,,,,,,,,,,,
1764667410,12059,1,4384.084473,4384.175781,4492.820313,4517.307617,4378.846191,4521.446777,4542.637207,4381.538574,4577.380859,4403.571289,4505.512695,4506.831543,4567.930176,4400.073242,4389.432129,4513.736328,4544.157715,4539.395508,4519.395508,4386.611816,4400.512695,4577.069824,4511.849609,4503.296875,4399.395508,4561.446777,4367.619141,4553.095215,4501.39209,4380.165039,4498.900879,4467.41748,2576,0,14,0,0,,,,0,4,4,4,4,4,4,4,4,4,4,4,4,4,4,4,4,4,4,4,4,4,4,4,4,4,4,4,4,4,4,4,4,100,,,,,,,,,,,,,,,,,,,,,,,,,,,,,,,,,,,,,,,,,,,,,,,,,,,,,,,,,,,,,,,,,,,,,,,,,,,,,,,,,,,,,,,,,,,,,,,,,,,,,,,,,,,,,,,,,,,,,,,,,,,,,,,,,,,,,,,,,,,,,,,,,,,,,,,,,,,,,,,,,,,,,,,,,,,,,,,,,,,,,,,,,,,,,,,,,,,,,,,,,,,,,,
1764667410,12060,1,4382.765625,4381.758301,4490.512695,4513.461426,4376.410156,4520.750977,4541.245605,4377.307617,4575.98877,4399.047852,4504.871582,4506.007324,4566.739746,4399.322266,4390.348145,4512.74707,4542.600586,4537.802246,4518.058594,4385.604492,4397.820313,4576.080566,4509.651855,4501.812988,4393.699707,4560.366211,4366.831543,4551.336914,4500.32959,4378.827637,4496.446777,4465.32959,2730,0,14,0,0,,,,0,4,4,4,4,4,4,4,4,4,4,4,4,4,4,4,4,4,4,4,4,4,4,4,4,4,4,4,4,4,4,4,4,100,,,,,,,,,,,,,,,,,,,,,,,,,,,,,,,,,,,,,,,,,,,,,,,,,,,,,,,,,,,,,,,,,,,,,,,,,,,,,,,,,,,,,,,,,,,,,,,,,,,,,,,,,,,,,,,,,,,,,,,,,,,,,,,,,,,,,,,,,,,,,,,,,,,,,,,,,,,,,,,,,,,,,,,,,,,,,,,,,,,,,,,,,,,,,,,,,,,,,,,,,,,,,,
1764667410,12061,1,4381.446777,4379.34082,4488.205078,4509.615234,4373.974121,4520.055176,4539.853516,4373.077148,4574.597168,4394.523926,4504.230957,4505.183105,4565.549316,4398.571289,4391.263672,4511.758301,4541.043945,4536.208984,4516.72168,4384.597168,4395.128418,4575.091797,4507.454102,4500.32959,4388.003906,4559.285645,4366.043945,4549.578613,4499.267578,4377.490723,4493.992676,4463.241699,2539,0,14,0,0,,,,0,4,4,4,4,4,4,4,4,4,4,4,4,4,4,4,4,4,4,4,4,4,4,4,4,4,4,4,4,4,4,4,4,100,,,,,,,,,,,,,,,,,,,,,,,,,,,,,,,,,,,,,,,,,,,,,,,,,,,,,,,,,,,,,,,,,,,,,,,,,,,,,,,,,,,,,,,,,,,,,,,,,,,,,,,,,,,,,,,,,,,,,,,,,,,,,,,,,,,,,,,,,,,,,,,,,,,,,,,,,,,,,,,,,,,,,,,,,,,,,,,,,,,,,,,,,,,,,,,,,,,,,,,,,,,,,,
1764667410,12062,0,4380.128418,4376.922852,4485.897461,4505.769043,4371.538574,4519.358887,4538.461426,4368.846191,4573.205078,4390,4503.589844,4504.358887,4564.358887,4397.820313,4392.179688,4510.769043,4539.487305,4534.615234,4515.384766,4383.589844,4392.436035,4574.102539,4505.256348,4498.846191,4382.307617,4558.205078,4365.256348,4547.820313,4498.205078,4376.153809,4491.538574,4461.153809,2717,0,14,2576,58314,,,,0,4,4,4,4,4,4,4,4,4,4,4,4,4,4,4,4,4,4,4,4,4,4,4,4,4,4,4,4,4,4,4,4,100,,,,,,,,,,,,,,,,,,,,,,,,,,,,,,,,,,,,,,,,,,,,,,,,,,,,,,,,,,,,,,,,,,,,,,,,,,,,,,,,,,,,,,,,,,,,,,,,,,,,,,,,,,,,,,,,,,,,,,,,,,,,,,,,,,,,,,,,,,,,,,,,,,,,,,,,,,,,,,,,,,,,,,,,,,,,,,,,,,,,,,,,,,,,,,,,,,,,,,,,,,,,,,
1764667410,12063,0,4375.641113,4374.230957,4488.077148,4506.153809,4379.230957,4515.512695,4535.384766,4372.94873,4569.487305,4379.487305,4505.384766,4505,4565,4396.666504,4390.128418,4508.717773,4536.922852,4531.410156,4511.666504,4380.256348,4390.769043,4569.615234,4503.461426,4495.897461,4388.333496,4556.410156,4357.563965,4542.563965,4493.717773,4375.641113,4495.641113,4451.666504,2825,0,14,2576,58314,,,,0,4,4,4,4,4,4,4,4,4,4,4,4,4,4,4,4,4,4,4,4,4,4,4,4,4,4,4,4,4,4,4,4,100,,,,,,,,,,,,,,,,,,,,,,,,,,,,,,,,,,,,,,,,,,,,,,,,,,,,,,,,,,,,,,,,,,,,,,,,,,,,,,,,,,,,,,,,,,,,,,,,,,,,,,,,,,,,,,,,,,,,,,,,,,,,,,,,,,,,,,,,,,,,,,,,,,,,,,,,,,,,,,,,,,,,,,,,,,,,,,,,,,,,,,,,,,,,,,,,,,,,,,,,,,,,,,
1764667410,12064,0,4374.487305,4376.282227,4488.846191,4507.436035,4385.256348,4514.230957,4533.846191,4377.94873,4564.871582,4377.436035,4507.820313,4505.256348,4567.307617,4398.589844,4388.461426,4508.077148,4535,4529.871582,4508.461426,4379.102539,4391.282227,4566.282227,4503.077148,4492.692383,4385.384766,4553.077148,4357.94873,4540.256348,4492.563965,4373.846191,4498.589844,4448.589844,2802,0,14,2571,58321,,,,0,4,4,4,4,4,4,4,4,4,4,4,4,4,4,4,4,4,4,4,4,4,4,4,4,4,4,4,4,4,4,4,4,100,,,,,,,,,,,,,,,,,,,,,,,,,,,,,,,,,,,,,,,,,,,,,,,,,,,,,,,,,,,,,,,,,,,,,,,,,,,,,,,,,,,,,,,,,,,,,,,,,,,,,,,,,,,,,,,,,,,,,,,,,,,,,,,,,,,,,,,,,,,,,,,,,,,,,,,,,,,,,,,,,,,,,,,,,,,,,,,,,,,,,,,,,,,,,,,,,,,,,,,,,,,,,,
1764667410,12065,0,4377.307617,4381.922852,4485.897461,4509.230957,4386.794922,4515.897461,4535.641113,4381.666504,4561.538574,4385.128418,4511.282227,4505.512695,4571.025879,4402.820313,4387.179688,4510,4535.897461,4530.897461,4508.077148,4381.153809,4393.333496,4566.666504,4505.769043,4491.153809,4372.692383,4548.974121,4365.256348,4542.94873,4495.641113,4372.94873,4498.461426,4454.102539,2929,0,14,2571,58321,,,,0,4,4,4,4,4,4,4,4,4,4,4,4,4,4,4,4,4,4,4,4,4,4,4,4,4,4,4,4,4,4,4,4,100,,,,,,,,,,,,,,,,,,,,,,,,,,,,,,,,,,,35784,0,0.482077,-0.501648,-0.370117,0.615601,0.969845,-0.257844,0.020999,4.666667,49.166668,-7.166667,,,,,,,,,,,,,,,,,,,,,,,,,,,,,,,,,,,,,,,,,,,,,,,,,,,,,,,,,,,,,,,,,,,,,,,,,,,,,,,,,,,,,,,,,,,,,,,,,,,,,,,,,,,,,,,,,,,,,,,,,,,,,,,,,,,,,,,,,,,,,,,,,,,,,,,,,,,,,,,,
1764667410,12066,0,4381.794922,4387.692383,4480,4511.025879,4383.205078,4518.589844,4540,4382.436035,4560.384766,4394.102539,4514.615234,4505.897461,4574.358887,4405.769043,4386.025879,4513.589844,4539.487305,4533.846191,4510.897461,4384.615234,4393.974121,4570.256348,4510.641113,4492.307617,4356.410156,4545.897461,4373.846191,4548.846191,4500.384766,4374.358887,4495,4465.128418,2646,0,14,2569,58329,,,,0,4,4,4,4,4,4,4,4,4,4,4,4,4,4,4,4,4,4,4,4,4,4,4,4,4,4,4,4,4,4,4,4,100,,,,,,,,,,,,,,,,,,,,,,,,,,,,,,,,,,,,,,,,,,,,,,,,,,,,,,,,,,,,,,,,,,,,,,,,,,,,,,,,,,,,,,,,,,,,,,,,,,,,,,,,,,,,,,,,,,,,,,,,,,,,,,,,,,,,,,,,,,,,,,,,,,,,,,,,,,,,,,,,,,,,,,,,,,,,,,,,,,,,,,,,,,,,,,,,,,,,,,,,,,,,,,
1764667410,12067,0,4384.230957,4390.256348,4475.128418,4511.282227,4377.179688,4519.487305,4543.974121,4379.871582,4560,4395.512695,4515.512695,4505.256348,4575.384766,4404.230957,4385,4516.922852,4543.461426,4536.538574,4514.487305,4386.282227,4390.641113,4573.717773,4514.358887,4494.615234,4347.05127,4545.128418,4377.94873,4554.358887,4503.205078,4377.436035,4489.743652,4475.128418,2867,0,14,2569,58329,,,,0,4,4,4,4,4,4,4,4,4,4,4,4,4,4,4,4,4,4,4,4,4,4,4,4,4,4,4,4,4,4,4,4,100,,,,,,,,,,,,,,,,,,,,,,,,,,,,,,,,,,,,,,,,,,,,,,,,,,,,,,,,,,,,,,,,,,,,,,,,,,,,,,,,,,,,,,,,,,,,,,,,,,,,,,,,,,,,,,,,,,,,,,,,,,,,,,,,,,,,,,,,,,,,,,,,,,,,,,,,,,,,,,,,,,,,,,,,,,,,,,,,,,,,,,,,,,,,,,,,,,,,,,,,,,,,,,
1764667410,12068,0,4382.563965,4388.717773,4474.743652,4509.102539,4372.820313,4517.307617,4544.871582,4375.128418,4558.589844,4390,4512.179688,4502.820313,4573.333496,4398.205078,4384.615234,4518.589844,4545.256348,4536.794922,4515.641113,4384.230957,4383.333496,4573.589844,4514.487305,4495.256348,4351.794922,4546.282227,4375,4555.641113,4502.05127,4379.358887,4486.282227,4477.436035,2760,0,14,2570,58337,,,,0,4,4,4,4,4,4,4,4,4,4,4,4,4,4,4,4,4,4,4,4,4,4,4,4,4,4,4,4,4,4,4,4,100,,,,,,,,,,,,,,,,,,,,,,,,,,,,,,,,,,,,,,,,,,,,,,,2.714664,0.561156,0.520202,0.35104,0.119302,6.313931,1.107719,0.669126,0.522854,0.189621,42.088898,2.66821,1.613795,2.012381,0.80839,7.019667,1.78931,1.241207,0.933759,0.340471,7.351419,1.692047,1.357421,0.867861,0.524742,2.864674,0.446187,0.555735,0.305264,0.116802,1.475229,0.358696,0.527763,0.326461,0.193095,3.347542,0.765328,0.780141,0.601814,0.273423,2.770897,0.737076,0.719727,0.27963,0.213502,1.348437,1.290225,0.559826,1.422163,1.156558,0.420875,0.182109,0.172011,0.251454,0.08847,1.751922,0.37659,0.660671,0.401595,0.156306,0.983528,0.461063,0.810663,0.194621,0.084995,0.727898,0.455995,0.151827,0.118637,0.06738,0.935619,0.454532,0.551996,0.166574,0.120863,0.200843,0.139034,0.225624,0.058207,0.048181,1.433027,0.521006,0.727724,0.390005,0.183514,1.100283,0.975571,1.715559,0.457352,0.518183,1.196283,1.328891,1.9169,0.647206,0.596681,1.62554,1.007248,0.975179,0.335159,0.22727,1.650056,1.983118,1.133953,0.472513,0.219252,1.866667,0.765945,1.073221,0.436083,0.269693,1.576343,0.491033,0.744297,0.361039,0.201423,1.794595,0.987893,1.287135,0.479273,0.24041,4.202431,3.959791,3.452542,2.377492,2.439718,2.91816,0.804626,0.56439,0.343467,0.202705,3.627371,0.849203,1.221387,0.918007,0.402384,3.268502,0.826336,0.952863,0.420409,0.22084,1.090772,0.29231,0.328773,0.219053,0.118062,5.459897,2.006538,0.600493,0.38267,0.192272,4.427145,1.29093,1.387254,1.246979,1.625089,40.169437,4.333158,2.014917,1.601114,0.881662
1764667410,12069,0,4377.820313,4384.358887,4478.846191,4504.487305,4372.436035,4512.307617,4541.282227,4370.641113,4555.769043,4385.641113,4504.871582,4498.846191,4568.846191,4391.410156,4385,4517.94873,4543.461426,4533.717773,4512.179688,4378.717773,4375.256348,4568.589844,4510.897461,4492.307617,4367.94873,4547.692383,4367.05127,4551.410156,4497.820313,4377.307617,4487.179688,4471.025879,2821,0,14,2570,58337,,,,0,4,4,4,4,4,4,4,4,4,4,4,4,4,4,4,4,4,4,4,4,4,4,4,4,4,4,4,4,4,4,4,4,100,,,,,,,,,,,,,,,,,,,,,,,,,,,,,,,,,,,35785,0,0.482028,-0.50177,-0.370117,0.61554,0.969845,-0.257844,0.020999,4.666667,49.166668,-7.166667,,,,,,,,,,,,,,,,,,,,,,,,,,,,,,,,,,,,,,,,,,,,,,,,,,,,,,,,,,,,,,,,,,,,,,,,,,,,,,,,,,,,,,,,,,,,,,,,,,,,,,,,,,,,,,,,,,,,,,,,,,,,,,,,,,,,,,,,,,,,,,,,,,,,,,,,,,,,,,,,
1764667410,12070,0,4372.820313,4379.102539,4483.589844,4499.358887,4375.769043,4506.282227,4533.974121,4367.563965,4553.461426,4388.846191,4496.666504,4494.487305,4564.230957,4387.94873,4384.615234,4515.384766,4539.358887,4529.102539,4506.025879,4372.820313,4370,4560.769043,4505.897461,4486.538574,4383.205078,4547.179688,4357.436035,4542.94873,4492.563965,4371.025879,4490.769043,4459.743652,2843,0,14,2571,58345,,,,0,4,4,4,4,4,4,4,4,4,4,4,4,4,4,4,4,4,4,4,4,4,4,4,4,4,4,4,4,4,4,4,4,100,,,,,,,,,,,,,,,,,,,,,,,,,,,,,,,,,,,,,,,,,,,,,,,,,,,,,,,,,,,,,,,,,,,,,,,,,,,,,,,,,,,,,,,,,,,,,,,,,,,,,,,,,,,,,,,,,,,,,,,,,,,,,,,,,,,,,,,,,,,,,,,,,,,,,,,,,,,,,,,,,,,,,,,,,,,,,,,,,,,,,,,,,,,,,,,,,,,,,,,,,,,,,,
1764667410,12071,0,4370,4374.743652,4484.358887,4495.512695,4379.615234,4500.769043,4525.641113,4365.641113,4553.205078,4397.05127,4491.025879,4491.794922,4562.179688,4389.615234,4382.179688,4512.563965,4535.641113,4526.410156,4501.666504,4370.641113,4370.384766,4554.871582,4501.922852,4480.512695,4386.538574,4544.358887,4350,4533.461426,4488.205078,4363.333496,4491.538574,4449.871582,3026,0,14,2571,58345,,,,0,4,4,4,4,4,4,4,4,4,4,4,4,4,4,4,4,4,4,4,4,4,4,4,4,4,4,4,4,4,4,4,4,100,,,,,,,,,,,,,,,,,,,,,,,,,,,,,,,,,,,,,,,,,,,,,,,,,,,,,,,,,,,,,,,,,,,,,,,,,,,,,,,,,,,,,,,,,,,,,,,,,,,,,,,,,,,,,,,,,,,,,,,,,,,,,,,,,,,,,,,,,,,,,,,,,,,,,,,,,,,,,,,,,,,,,,,,,,,,,,,,,,,,,,,,,,,,,,,,,,,,,,,,,,,,,,
1764667410,12072,0,4370.128418,4372.307617,4479.615234,4493.205078,4381.282227,4497.436035,4519.871582,4364.102539,4554.615234,4400.897461,4489.743652,4492.179688,4563.717773,4395.128418,4377.94873,4511.666504,4534.871582,4529.358887,4504.358887,4374.102539,4376.538574,4554.743652,4500.641113,4477.692383,4378.333496,4541.153809,4347.307617,4527.820313,4486.794922,4359.102539,4486.282227,4445.384766,2905,0,14,2572,58353,,,,0,4,4,4,4,4,4,4,4,4,4,4,4,4,4,4,4,4,4,4,4,4,4,4,4,4,4,4,4,4,4,4,4,100,,,,,,,,,,,,,,,,,,,,,,,,,,,,,,,,,,,,,,,,,,,,,,,,,,,,,,,,,,,,,,,,,,,,,,,,,,,,,,,,,,,,,,,,,,,,,,,,,,,,,,,,,,,,,,,,,,,,,,,,,,,,,,,,,,,,,,,,,,,,,,,,,,,,,,,,,,,,,,,,,,,,,,,,,,,,,,,,,,,,,,,,,,,,,,,,,,,,,,,,,,,,,,
1764667410,12073,0,4372.436035,4372.820313,4472.94873,4492.692383,4379.743652,4497.436035,4519.487305,4363.333496,4555.641113,4393.589844,4491.922852,4495.769043,4568.589844,4400.897461,4374.487305,4513.589844,4537.820313,4537.94873,4514.743652,4381.410156,4385.769043,4561.410156,4502.307617,4480.128418,4369.743652,4540.512695,4349.871582,4528.717773,4488.589844,4361.538574,4477.692383,4446.410156,2756,0,14,2572,58353,,,,0,4,4,4,4,4,4,4,4,4,4,4,4,4,4,4,4,4,4,4,4,4,4,4,4,4,4,4,4,4,4,4,4,100,,,,,,,,,,,,,,,,,,,,,,,,,,,,,,,,,,,35786,0,0.481836,-0.502014,-0.370239,0.615417,0.965938,-0.252961,0.033696,5.5,48.333332,-5.166667,,,,,,,,,,,,,,,,,,,,,,,,,,,,,,,,,,,,,,,,,,,,,,,,,,,,,,,,,,,,,,,,,,,,,,,,,,,,,,,,,,,,,,,,,,,,,,,,,,,,,,,,,,,,,,,,,,,,,,,,,,,,,,,,,,,,,,,,,,,,,,,,,,,,,,,,,,,,,,,,
1764667410,12074,0,4376.153809,4376.794922,4469.615234,4494.871582,4376.538574,4501.025879,4523.846191,4364.487305,4555.512695,4378.461426,4495.384766,4500,4573.974121,4403.974121,4374.358887,4517.563965,4542.563965,4548.077148,4527.05127,4387.563965,4393.717773,4570.897461,4505.769043,4486.666504,4370.641113,4543.974121,4356.025879,4535,4492.563965,4369.487305,4473.333496,4451.538574,634,0,14,2573,58361,,,,0,4,4,4,4,4,4,4,4,4,4,4,4,4,4,4,4,4,4,4,4,4,4,4,4,4,4,4,4,4,4,4,4,100,,,,,,,,,,,,,,,,,,,,,,,,,,,,,,,,,,,,,,,,,,,,,,,,,,,,,,,,,,,,,,,,,,,,,,,,,,,,,,,,,,,,,,,,,,,,,,,,,,,,,,,,,,,,,,,,,,,,,,,,,,,,,,,,,,,,,,,,,,,,,,,,,,,,,,,,,,,,,,,,,,,,,,,,,,,,,,,,,,,,,,,,,,,,,,,,,,,,,,,,,,,,,,
1764667410,12075,0,4380.128418,4383.077148,4472.05127,4500.128418,4374.743652,4506.666504,4530.256348,4368.461426,4555.128418,4367.820313,4497.820313,4502.307617,4577.307617,4404.230957,4379.358887,4520.897461,4546.153809,4553.589844,4533.077148,4388.589844,4397.436035,4578.205078,4510,4493.461426,4380.128418,4550.384766,4362.692383,4543.077148,4496.922852,4378.589844,4479.230957,4460,2734,0,14,2573,58361,,,,0,4,4,4,4,4,4,4,4,4,4,4,4,4,4,4,4,4,4,4,4,4,4,4,4,4,4,4,4,4,4,4,4,100,,,,,,,,,,,,,,,,,,,,,,,,,,,,,,,,,,,,,,,,,,,,,,,,,,,,,,,,,,,,,,,,,,,,,,,,,,,,,,,,,,,,,,,,,,,,,,,,,,,,,,,,,,,,,,,,,,,,,,,,,,,,,,,,,,,,,,,,,,,,,,,,,,,,,,,,,,,,,,,,,,,,,,,,,,,,,,,,,,,,,,,,,,,,,,,,,,,,,,,,,,,,,,
1764667410,12076,1,4382.930176,4387.912109,4476.593262,4503.864258,4378.168457,4510.732422,4534.157715,4373.498047,4558.864258,4372.545898,4500.274902,4504.34082,4578.314941,4405.146484,4379.79834,4520.622559,4547.802246,4552.783691,4531.318848,4389.908203,4399.029297,4579.194336,4512.802246,4495.842285,4378.461426,4553.681152,4365.238281,4547.106445,4499.505371,4382.399414,4481.501953,4461.812988,0,0,14,0,0,,,,0,4,4,4,4,4,4,4,4,4,4,4,4,4,4,4,4,4,4,4,4,4,4,4,4,4,4,4,4,4,4,4,4,100,,,,,,,,,,,,,,,,,,,,,,,,,,,,,,,,,,,,,,,,,,,,,,,,,,,,,,,,,,,,,,,,,,,,,,,,,,,,,,,,,,,,,,,,,,,,,,,,,,,,,,,,,,,,,,,,,,,,,,,,,,,,,,,,,,,,,,,,,,,,,,,,,,,,,,,,,,,,,,,,,,,,,,,,,,,,,,,,,,,,,,,,,,,,,,,,,,,,,,,,,,,,,,
1764667410,12077,1,4385.732422,4392.74707,4481.135742,4507.600586,4381.593262,4514.79834,4538.058594,4378.534668,4562.600586,4377.270996,4502.729004,4506.373535,4579.322266,4406.0625,4380.238281,4520.348145,4549.450684,4551.978027,4529.560547,4391.227051,4400.622559,4580.183105,4515.604492,4498.223633,4376.794922,4556.978027,4367.783691,4551.135742,4502.087891,4386.208984,4483.772949,4463.626465,0,0,14,0,0,,,,0,4,4,4,4,4,4,4,4,4,4,4,4,4,4,4,4,4,4,4,4,4,4,4,4,4,4,4,4,4,4,4,4,100,,,,,,,,,,,,,,,,,,,,,,,,,,,,,,,,,,,,,,,,,,,,,,,,,,,,,,,,,,,,,,,,,,,,,,,,,,,,,,,,,,,,,,,,,,,,,,,,,,,,,,,,,,,,,,,,,,,,,,,,,,,,,,,,,,,,,,,,,,,,,,,,,,,,,,,,,,,,,,,,,,,,,,,,,,,,,,,,,,,,,,,,,,,,,,,,,,,,,,,,,,,,,,
1764667410,12078,1,4388.534668,4397.58252,4485.677734,4511.336914,4385.018555,4518.864258,4541.959473,4383.571289,4566.336914,4381.996094,4505.183105,4508.406738,4580.32959,4406.978027,4380.677734,4520.073242,4551.099121,4551.172363,4527.802246,4392.545898,4402.216309,4581.172363,4518.406738,4500.604492,4375.128418,4560.274902,4370.32959,4555.165039,4504.67041,4390.018555,4486.043945,4465.439453,0,0,14,0,0,,,,0,4,4,4,4,4,4,4,4,4,4,4,4,4,4,4,4,4,4,4,4,4,4,4,4,4,4,4,4,4,4,4,4,100,,,,,,,,,,,,,,,,,,,,,,,,,,,,,,,,,,,,,,,,,,,,,,,,,,,,,,,,,,,,,,,,,,,,,,,,,,,,,,,,,,,,,,,,,,,,,,,,,,,,,,,,,,,,,,,,,,,,,,,,,,,,,,,,,,,,,,,,,,,,,,,,,,,,,,,,,,,,,,,,,,,,,,,,,,,,,,,,,,,,,,,,,,,,,,,,,,,,,,,,,,,,,,
1764667410,12079,1,4391.336914,4402.41748,4490.219727,4515.073242,4388.443359,4522.930176,4545.86084,4388.60791,4570.073242,4386.72168,4507.637207,4510.439453,4581.336914,4407.893555,4381.117188,4519.79834,4552.74707,4550.366211,4526.043945,4393.864258,4403.80957,4582.161133,4521.208984,4502.985352,4373.461426,4563.571289,4372.875488,4559.194336,4507.25293,4393.827637,4488.314941,4467.25293,0,0,14,0,0,,,,0,4,4,4,4,4,4,4,4,4,4,4,4,4,4,4,4,4,4,4,4,4,4,4,4,4,4,4,4,4,4,4,4,100,,,,,,,,,,,,,,,,,,,,,,,,,,,,,,,,,,,,,,,,,,,,,,,,,,,,,,,,,,,,,,,,,,,,,,,,,,,,,,,,,,,,,,,,,,,,,,,,,,,,,,,,,,,,,,,,,,,,,,,,,,,,,,,,,,,,,,,,,,,,,,,,,,,,,,,,,,,,,,,,,,,,,,,,,,,,,,,,,,,,,,,,,,,,,,,,,,,,,,,,,,,,,,
1764667410,12080,1,4394.13916,4407.25293,4494.761719,4518.80957,4391.868164,4526.996094,4549.761719,4393.644531,4573.80957,4391.446777,4510.091797,4512.472656,4582.344238,4408.80957,4381.556641,4519.523926,4554.395508,4549.560547,4524.285645,4395.183105,4405.402832,4583.150391,4524.01123,4505.366211,4371.794922,4566.868164,4375.421387,4563.223633,4509.834961,4397.637207,4490.585938,4469.065918,0,0,14,0,0,,,,0,4,4,4,4,4,4,4,4,4,4,4,4,4,4,4,4,4,4,4,4,4,4,4,4,4,4,4,4,4,4,4,4,100,,,,,,,,,,,,,,,,,,,,,,,,,,,,,,,,,,,,,,,,,,,,,,,,,,,,,,,,,,,,,,,,,,,,,,,,,,,,,,,,,,,,,,,,,,,,,,,,,,,,,,,,,,,,,,,,,,,,,,,,,,,,,,,,,,,,,,,,,,,,,,,,,,,,,,,,,,,,,,,,,,,,,,,,,,,,,,,,,,,,,,,,,,,,,,,,,,,,,,,,,,,,,,
1764667410,12081,1,4396.941406,4412.087891,4499.304199,4522.545898,4395.292969,4531.0625,4553.663086,4398.681152,4577.545898,4396.172363,4512.545898,4514.505371,4583.351563,4409.725098,4381.996094,4519.249023,4556.043945,4548.754395,4522.527344,4396.501953,4406.996094,4584.13916,4526.812988,4507.74707,4370.128418,4570.165039,4377.966797,4567.25293,4512.41748,4401.446777,4492.856934,4470.878906,0,0,14,0,0,,,,0,4,4,4,4,4,4,4,4,4,4,4,4,4,4,4,4,4,4,4,4,4,4,4,4,4,4,4,4,4,4,4,4,100,,,,,,,,,,,,,,,,,,,,,,,,,,,,,,,,,,,,,,,,,,,,,,,,,,,,,,,,,,,,,,,,,,,,,,,,,,,,,,,,,,,,,,,,,,,,,,,,,,,,,,,,,,,,,,,,,,,,,,,,,,,,,,,,,,,,,,,,,,,,,,,,,,,,,,,,,,,,,,,,,,,,,,,,,,,,,,,,,,,,,,,,,,,,,,,,,,,,,,,,,,,,,,
1764667410,12082,0,4399.743652,4416.922852,4503.846191,4526.282227,4398.717773,4535.128418,4557.563965,4403.717773,4581.282227,4400.897461,4515,4516.538574,4584.358887,4410.641113,4382.436035,4518.974121,4557.692383,4547.94873,4520.769043,4397.820313,4408.589844,4585.128418,4529.615234,4510.128418,4368.461426,4573.461426,4380.512695,4571.282227,4515,4405.256348,4495.128418,4472.692383,1782,0,14,2576,58392,,,,0,4,4,4,4,4,4,4,4,4,4,4,4,4,4,4,4,4,4,4,4,4,4,4,4,4,4,4,4,4,4,4,4,100,,,,,,,,,,,,,,,,,,,,,,,,,,,,,,,,,,,,,,,,,,,,,,,,,,,,,,,,,,,,,,,,,,,,,,,,,,,,,,,,,,,,,,,,,,,,,,,,,,,,,,,,,,,,,,,,,,,,,,,,,,,,,,,,,,,,,,,,,,,,,,,,,,,,,,,,,,,,,,,,,,,,,,,,,,,,,,,,,,,,,,,,,,,,,,,,,,,,,,,,,,,,,,
1764667410,12083,0,4405.641113,4419.358887,4509.871582,4530,4410.128418,4539.487305,4560,4404.615234,4585.512695,4409.615234,4510.128418,4518.333496,4583.717773,4413.717773,4385.512695,4517.692383,4557.179688,4540.128418,4510.641113,4392.820313,4402.307617,4582.94873,4532.692383,4507.692383,4370.128418,4572.307617,4386.410156,4572.307617,4517.94873,4412.820313,4510,4475.897461,2793,0,14,2576,58392,,,,0,4,4,4,4,4,4,4,4,4,4,4,4,4,4,4,4,4,4,4,4,4,4,4,4,4,4,4,4,4,4,4,4,100,,,,,,,,,,,,,,,,,,,,,,,,,,,,,,,,,,,,,,,,,,,,,,,,,,,,,,,,,,,,,,,,,,,,,,,,,,,,,,,,,,,,,,,,,,,,,,,,,,,,,,,,,,,,,,,,,,,,,,,,,,,,,,,,,,,,,,,,,,,,,,,,,,,,,,,,,,,,,,,,,,,,,,,,,,,,,,,,,,,,,,,,,,,,,,,,,,,,,,,,,,,,,,
1764667410,12084,0,4411.410156,4420.384766,4509.487305,4528.974121,4417.692383,4542.563965,4561.025879,4402.436035,4588.974121,4418.461426,4507.563965,4519.230957,4583.077148,4414.871582,4387.692383,4515.897461,4556.025879,4534.358887,4504.743652,4387.307617,4396.538574,4581.153809,4535.384766,4506.025879,4376.922852,4570,4391.153809,4573.205078,4520.384766,4418.461426,4523.846191,4479.743652,2603,0,14,2576,58400,,,,0,4,4,4,4,4,4,4,4,4,4,4,4,4,4,4,4,4,4,4,4,4,4,4,4,4,4,4,4,4,4,4,4,100,,,,,,,,,,,,,,,,,,,,,,,,,,,,,,,,,,,,,,,,,,,,,,,,,,,,,,,,,,,,,,,,,,,,,,,,,,,,,,,,,,,,,,,,,,,,,,,,,,,,,,,,,,,,,,,,,,,,,,,,,,,,,,,,,,,,,,,,,,,,,,,,,,,,,,,,,,,,,,,,,,,,,,,,,,,,,,,,,,,,,,,,,,,,,,,,,,,,,,,,,,,,,,
1764667410,12085,0,4413.974121,4419.358887,4501.922852,4522.436035,4413.077148,4542.307617,4559.615234,4397.692383,4589.102539,4417.692383,4507.820313,4519.230957,4582.563965,4412.436035,4385.897461,4514.743652,4555.256348,4534.871582,4508.333496,4385,4394.230957,4580.512695,4537.436035,4506.282227,4389.230957,4567.307617,4392.307617,4573.717773,4520.641113,4418.205078,4528.846191,4483.461426,2837,0,14,2576,58400,,,,0,4,4,4,4,4,4,4,4,4,4,4,4,4,4,4,4,4,4,4,4,4,4,4,4,4,4,4,4,4,4,4,4,100,,,,,,,,,,,,,,,,,,,,,,,,,,,,,,,,,,,35789,0,0.481838,-0.501953,-0.370117,0.61554,0.976682,-0.269076,0.037114,6.666667,48,-8,,,,,,,,,,,,,,,,,,,,,,,,,,,,,,,,,,,,,,,,,,,,,,,,,,,,,,,,,,,,,,,,,,,,,,,,,,,,,,,,,,,,,,,,,,,,,,,,,,,,,,,,,,,,,,,,,,,,,,,,,,,,,,,,,,,,,,,,,,,,,,,,,,,,,,,,,,,,,,,,
1764667410,12086,0,4412.179688,4417.05127,4491.922852,4514.102539,4396.794922,4538.974121,4556.794922,4393.333496,4585,4406.410156,4509.487305,4518.717773,4581.538574,4407.820313,4380.641113,4515,4555.512695,4540.897461,4518.974121,4387.94873,4396.410156,4581.025879,4538.461426,4507.692383,4405.128418,4565.641113,4390.128418,4573.589844,4518.333496,4411.025879,4524.871582,4488.205078,2952,0,14,2575,58407,,,,0,4,4,4,4,4,4,4,4,4,4,4,4,4,4,4,4,4,4,4,4,4,4,4,4,4,4,4,4,4,4,4,4,100,,,,,,,,,,,,,,,,,,,,,,,,,,,,,,,,,,,,,,,,,,,,,,,,,,,,,,,,,,,,,,,,,,,,,,,,,,,,,,,,,,,,,,,,,,,,,,,,,,,,,,,,,,,,,,,,,,,,,,,,,,,,,,,,,,,,,,,,,,,,,,,,,,,,,,,,,,,,,,,,,,,,,,,,,,,,,,,,,,,,,,,,,,,,,,,,,,,,,,,,,,,,,,
1764667410,12087,0,4408.461426,4415.256348,4487.307617,4509.102539,4378.717773,4535,4554.358887,4392.436035,4578.589844,4393.333496,4510,4518.461426,4580.128418,4403.846191,4375.384766,4515.512695,4556.538574,4547.179688,4529.230957,4394.102539,4401.410156,4582.436035,4538.077148,4509.102539,4420.256348,4566.282227,4388.077148,4572.436035,4514.743652,4399.871582,4518.077148,4495.128418,2866,0,14,2575,58407,,,,0,4,4,4,4,4,4,4,4,4,4,4,4,4,4,4,4,4,4,4,4,4,4,4,4,4,4,4,4,4,4,4,4,100,,,,,,,,,,,,,,,,,,,,,,,,,,,,,,,,,,,,,,,,,,,,,,,,,,,,,,,,,,,,,,,,,,,,,,,,,,,,,,,,,,,,,,,,,,,,,,,,,,,,,,,,,,,,,,,,,,,,,,,,,,,,,,,,,,,,,,,,,,,,,,,,,,,,,,,,,,,,,,,,,,,,,,,,,,,,,,,,,,,,,,,,,,,,,,,,,,,,,,,,,,,,,,
1764667410,12088,0,4405.384766,4413.974121,4492.05127,4510.384766,4369.743652,4532.692383,4552.563965,4395.769043,4572.94873,4388.205078,4508.461426,4519.102539,4578.589844,4402.820313,4372.692383,4515.128418,4556.922852,4548.589844,4532.436035,4399.230957,4405.769043,4583.461426,4536.282227,4509.487305,4429.615234,4569.102539,4388.461426,4569.871582,4511.794922,4389.358887,4514.358887,4502.563965,2750,0,14,2576,58415,,,,0,4,4,4,4,4,4,4,4,4,4,4,4,4,4,4,4,4,4,4,4,4,4,4,4,4,4,4,4,4,4,4,4,100,,,,,,,,,,,,,,,,,,,,,,,,,,,,,,,,,,,,,,,,,,,,,,,,,,,,,,,,,,,,,,,,,,,,,,,,,,,,,,,,,,,,,,,,,,,,,,,,,,,,,,,,,,,,,,,,,,,,,,,,,,,,,,,,,,,,,,,,,,,,,,,,,,,,,,,,,,,,,,,,,,,,,,,,,,,,,,,,,,,,,,,,,,,,,,,,,,,,,,,,,,,,,,
1764667410,12089,0,4404.358887,4411.538574,4503.846191,4515.897461,4373.333496,4531.666504,4550.256348,4400,4570.641113,4393.205078,4505.128418,4520.384766,4576.538574,4404.102539,4372.436035,4513.205078,4555.512695,4543.205078,4526.538574,4399.487305,4406.025879,4582.436035,4533.077148,4508.589844,4429.358887,4572.563965,4390.641113,4565.897461,4509.871582,4382.563965,4515.256348,4506.538574,2881,0,14,2576,58415,,,,0,4,4,4,4,4,4,4,4,4,4,4,4,4,4,4,4,4,4,4,4,4,4,4,4,4,4,4,4,4,4,4,4,100,,,,,,,,,,,,,,,,,,,,,,,,,,,,,,,,,,,35790,0,0.481901,-0.501892,-0.370117,0.61554,0.97131,-0.264681,0.027347,6,48.166668,-7.833333,,,,,,,,,,,,,,,,,,,,,,,,,,,,,,,,,,,,,,,,,,,,,,,,,,,,,,,,,,,,,,,,,,,,,,,,,,,,,,,,,,,,,,,,,,,,,,,,,,,,,,,,,,,,,,,,,,,,,,,,,,,,,,,,,,,,,,,,,,,,,,,,,,,,,,,,,,,,,,,,
1764667410,12090,0,4404.487305,4406.538574,4514.743652,4521.410156,4383.717773,4530.384766,4546.538574,4400.897461,4571.538574,4400.897461,4501.666504,4521.153809,4573.717773,4405.641113,4372.692383,4510.641113,4552.436035,4533.717773,4515,4393.974121,4401.025879,4579.615234,4529.615234,4507.05127,4419.615234,4574.230957,4391.282227,4562.05127,4508.461426,4380.769043,4517.436035,4502.05127,1941,0,14,2576,58423,,,,0,4,4,4,4,4,4,4,4,4,4,4,4,4,4,4,4,4,4,4,4,4,4,4,4,4,4,4,4,4,4,4,4,100,,,,,,,,,,,,,,,,,,,,,,,,,,,,,,,,,,,,,,,,,,,,,,,,,,,,,,,,,,,,,,,,,,,,,,,,,,,,,,,,,,,,,,,,,,,,,,,,,,,,,,,,,,,,,,,,,,,,,,,,,,,,,,,,,,,,,,,,,,,,,,,,,,,,,,,,,,,,,,,,,,,,,,,,,,,,,,,,,,,,,,,,,,,,,,,,,,,,,,,,,,,,,,
1764667410,12091,0,4404.487305,4400,4516.794922,4523.333496,4391.410156,4527.179688,4542.692383,4395.897461,4573.846191,4402.05127,4499.871582,4520.384766,4570.256348,4405.256348,4372.179688,4508.205078,4549.102539,4525.128418,4503.974121,4385.769043,4393.077148,4576.538574,4527.563965,4505.641113,4405,4572.563965,4387.94873,4560.512695,4507.05127,4383.461426,4517.820313,4488.077148,2589,0,14,2576,58423,,,,0,4,4,4,4,4,4,4,4,4,4,4,4,4,4,4,4,4,4,4,4,4,4,4,4,4,4,4,4,4,4,4,4,100,,,,,,,,,,,,,,,,,,,,,,,,,,,,,,,,,,,,,,,,,,,,,,,,,,,,,,,,,,,,,,,,,,,,,,,,,,,,,,,,,,,,,,,,,,,,,,,,,,,,,,,,,,,,,,,,,,,,,,,,,,,,,,,,,,,,,,,,,,,,,,,,,,,,,,,,,,,,,,,,,,,,,,,,,,,,,,,,,,,,,,,,,,,,,,,,,,,,,,,,,,,,,,
1764667410,12092,0,4403.589844,4395.384766,4507.307617,4520.512695,4391.153809,4522.820313,4541.538574,4387.307617,4575.128418,4394.230957,4500.128418,4518.333496,4567.820313,4402.563965,4372.179688,4506.666504,4547.179688,4521.538574,4498.846191,4378.717773,4386.025879,4574.743652,4528.077148,4505.641113,4392.179688,4568.461426,4381.410156,4561.794922,4505.897461,4389.230957,4516.025879,4468.717773,2736,0,14,2576,58431,,,,0,4,4,4,4,4,4,4,4,4,4,4,4,4,4,4,4,4,4,4,4,4,4,4,4,4,4,4,4,4,4,4,4,100,,,,,,,,,,,,,,,,,,,,,,,,,,,,,,,,,,,,,,,,,,,,,,,,,,,,,,,,,,,,,,,,,,,,,,,,,,,,,,,,,,,,,,,,,,,,,,,,,,,,,,,,,,,,,,,,,,,,,,,,,,,,,,,,,,,,,,,,,,,,,,,,,,,,,,,,,,,,,,,,,,,,,,,,,,,,,,,,,,,,,,,,,,,,,,,,,,,,,,,,,,,,,,
1764667410,12093,0,4402.179688,4394.358887,4490.641113,4514.743652,4385.128418,4519.358887,4544.487305,4379.102539,4574.230957,4384.487305,4501.282227,4515.897461,4568.205078,4398.717773,4373.717773,4506.025879,4547.820313,4524.230957,4501.794922,4376.153809,4383.846191,4574.871582,4530.641113,4506.666504,4384.487305,4564.230957,4374.358887,4564.487305,4505.769043,4395.128418,4512.05127,4451.922852,2547,0,14,2576,58431,,,,0,4,4,4,4,4,4,4,4,4,4,4,4,4,4,4,4,4,4,4,4,4,4,4,4,4,4,4,4,4,4,4,4,100,,,,,,,,,,,,,,,,,,,,,,,,,,,,,,,,,,,35791,0,0.481852,-0.502014,-0.370117,0.615479,0.969357,-0.272494,0.021487,5.833333,48,-6.833333,,,,,,,,,,,,,,,,,,,,,,,,,,,,,,,,,,,,,,,,,,,,,,,,,,,,,,,,,,,,,,,,,,,,,,,,,,,,,,,,,,,,,,,,,,,,,,,,,,,,,,,,,,,,,,,,,,,,,,,,,,,,,,,,,,,,,,,,,,,,,,,,,,,,,,,,,,,,,,,,
1764667410,12094,0,4400.384766,4396.025879,4475.128418,4508.333496,4380.128418,4518.205078,4549.487305,4375,4570.897461,4382.307617,4501.410156,4514.358887,4571.794922,4395.384766,4376.794922,4506.410156,4550.512695,4531.538574,4511.666504,4378.974121,4387.563965,4576.153809,4532.94873,4506.922852,4380.512695,4561.538574,4369.358887,4565.897461,4506.410156,4396.794922,4506.153809,4444.487305,2722,0,14,2575,58439,,,,0,4,4,4,4,4,4,4,4,4,4,4,4,4,4,4,4,4,4,4,4,4,4,4,4,4,4,4,4,4,4,4,4,100,,,,,,,,,,,,,,,,,,,,,,,,,,,,,,,,,,,,,,,,,,,,,,,,,,,,,,,,,,,,,,,,,,,,,,,,,,,,,,,,,,,,,,,,,,,,,,,,,,,,,,,,,,,,,,,,,,,,,,,,,,,,,,,,,,,,,,,,,,,,,,,,,,,,,,,,,,,,,,,,,,,,,,,,,,,,,,,,,,,,,,,,,,,,,,,,,,,,,,,,,,,,,,
1764667410,12095,0,4398.589844,4397.179688,4467.692383,4502.563965,4380.897461,4518.461426,4552.307617,4375.641113,4565.897461,4390.256348,4499.230957,4514.615234,4576.282227,4393.461426,4379.871582,4507.563965,4553.205078,4539.615234,4523.589844,4385.641113,4395.128418,4577.563965,4533.205078,4505.512695,4377.692383,4561.538574,4367.692383,4564.487305,4506.794922,4392.436035,4498.974121,4448.846191,2829,0,14,2575,58439,,,,0,4,4,4,4,4,4,4,4,4,4,4,4,4,4,4,4,4,4,4,4,4,4,4,4,4,4,4,4,4,4,4,4,100,,,,,,,,,,,,,,,,,,,,,,,,,,,,,,,,,,,,,,,,,,,,,,,,,,,,,,,,,,,,,,,,,,,,,,,,,,,,,,,,,,,,,,,,,,,,,,,,,,,,,,,,,,,,,,,,,,,,,,,,,,,,,,,,,,,,,,,,,,,,,,,,,,,,,,,,,,,,,,,,,,,,,,,,,,,,,,,,,,,,,,,,,,,,,,,,,,,,,,,,,,,,,,
1764667410,12096,0,4396.538574,4396.025879,4469.102539,4497.94873,4385.641113,4518.205078,4550.256348,4379.615234,4560,4401.282227,4495.384766,4516.153809,4578.461426,4392.692383,4381.666504,4508.333496,4553.333496,4543.461426,4530.769043,4392.563965,4401.922852,4577.94873,4531.025879,4502.94873,4374.743652,4564.358887,4369.743652,4561.794922,4506.410156,4383.717773,4493.717773,4461.538574,2800,0,14,2574,58446,,,,0,4,4,4,4,4,4,4,4,4,4,4,4,4,4,4,4,4,4,4,4,4,4,4,4,4,4,4,4,4,4,4,4,100,,,,,,,,,,,,,,,,,,,,,,,,,,,,,,,,,,,,,,,,,,,,,,,,,,,,,,,,,,,,,,,,,,,,,,,,,,,,,,,,,,,,,,,,,,,,,,,,,,,,,,,,,,,,,,,,,,,,,,,,,,,,,,,,,,,,,,,,,,,,,,,,,,,,,,,,,,,,,,,,,,,,,,,,,,,,,,,,,,,,,,,,,,,,,,,,,,,,,,,,,,,,,,
1764667410,12097,0,4393.717773,4392.820313,4473.333496,4495.128418,4387.820313,4515.512695,4543.717773,4383.974121,4554.615234,4403.974121,4491.666504,4516.538574,4575.769043,4392.94873,4381.794922,4507.820313,4550.128418,4539.871582,4527.94873,4396.025879,4403.589844,4576.282227,4528.077148,4500.769043,4373.717773,4568.589844,4375.384766,4560.128418,4505,4375.128418,4494.871582,4474.871582,2935,0,14,2574,58446,,,,0,4,4,4,4,4,4,4,4,4,4,4,4,4,4,4,4,4,4,4,4,4,4,4,4,4,4,4,4,4,4,4,4,100,,,,,,,,,,,,,,,,,,,,,,,,,,,,,,,,,,,35792,0,0.481853,-0.501953,-0.369995,0.615601,0.975705,-0.267122,0.026859,5.5,49.166668,-7.166667,,,,,,,,,,,,,,,,,,,,,,,,,,,,,,,,,,,,,,,,,,,,,,,,,,,,,,,,,,,,,,,,,,,,,,,,,,,,,,,,,,,,,,,,,,,,,,,,,,,,,,,,,,,,,,,,,,,,,,,,,,,,,,,,,,,,,,,,,,,,,,,,,,,,,,,,,,,,,,,,
1764667410,12098,0,4389.871582,4389.487305,4473.589844,4495,4382.692383,4510.641113,4535.641113,4385.384766,4551.794922,4393.205078,4488.974121,4513.846191,4568.846191,4393.589844,4380.512695,4506.025879,4544.358887,4530.256348,4516.025879,4393.974121,4398.846191,4572.307617,4525.897461,4500.128418,4376.794922,4572.179688,4382.94873,4560.512695,4503.461426,4371.410156,4504.358887,4481.410156,2644,0,14,2571,58454,,,,0,4,4,4,4,4,4,4,4,4,4,4,4,4,4,4,4,4,4,4,4,4,4,4,4,4,4,4,4,4,4,4,4,100,,,,,,,,,,,,,,,,,,,,,,,,,,,,,,,,,,,,,,,,,,,,,,,,,,,,,,,,,,,,,,,,,,,,,,,,,,,,,,,,,,,,,,,,,,,,,,,,,,,,,,,,,,,,,,,,,,,,,,,,,,,,,,,,,,,,,,,,,,,,,,,,,,,,,,,,,,,,,,,,,,,,,,,,,,,,,,,,,,,,,,,,,,,,,,,,,,,,,,,,,,,,,,
1764667410,12099,0,4385.641113,4388.333496,4467.820313,4497.436035,4372.307617,4505.641113,4530,4381.794922,4553.333496,4376.153809,4487.692383,4508.461426,4560.897461,4394.615234,4378.846191,4504.487305,4538.333496,4520.384766,4502.307617,4387.94873,4390.641113,4568.077148,4525.384766,4499.871582,4385,4573.077148,4388.974121,4561.666504,4502.94873,4374.487305,4517.820313,4478.589844,2861,0,14,2571,58454,,,,0,4,4,4,4,4,4,4,4,4,4,4,4,4,4,4,4,4,4,4,4,4,4,4,4,4,4,4,4,4,4,4,4,100,,,,,,,,,,,,,,,,,,,,,,,,,,,,,,,,,,,,,,,,,,,,,,,,,,,,,,,,,,,,,,,,,,,,,,,,,,,,,,,,,,,,,,,,,,,,,,,,,,,,,,,,,,,,,,,,,,,,,,,,,,,,,,,,,,,,,,,,,,,,,,,,,,,,,,,,,,,,,,,,,,,,,,,,,,,,,,,,,,,,,,,,,,,,,,,,,,,,,,,,,,,,,,
1764667410,12100,0,4382.436035,4390,4460.641113,4501.025879,4364.743652,4503.077148,4529.487305,4374.358887,4558.717773,4366.666504,4487.436035,4503.333496,4556.153809,4395.769043,4377.436035,4504.743652,4534.358887,4516.153809,4495.512695,4381.410156,4384.358887,4565.897461,4526.153809,4498.846191,4395.897461,4570.512695,4390.128418,4561.538574,4503.717773,4382.94873,4526.794922,4469.230957,2760,0,14,2572,58462,,,,0,4,4,4,4,4,4,4,4,4,4,4,4,4,4,4,4,4,4,4,4,4,4,4,4,4,4,4,4,4,4,4,4,100,,,,,,,,,,,,,,,,,,,,,,,,,,,,,,,,,,,,,,,,,,,,,,,2.317595,0.521687,0.507015,0.362239,0.115581,7.375186,1.080114,0.528903,0.539295,0.174017,53.375668,3.002648,2.124156,2.2376,0.801518,8.945116,1.893705,1.421885,0.903505,0.395038,9.030139,2.008524,1.089945,0.869427,0.508171,3.13417,0.380727,0.552967,0.309221,0.113152,1.750433,0.383189,0.440442,0.301212,0.16987,3.463275,0.929424,0.637967,0.588949,0.286634,3.032337,0.684028,0.714356,0.258587,0.213994,1.664077,1.54832,0.465866,1.375325,1.066583,0.413718,0.159944,0.132931,0.224572,0.082602,1.546148,0.394579,0.550801,0.389682,0.150002,0.691222,0.52977,0.74505,0.198753,0.085172,0.553568,0.39578,0.148157,0.116729,0.073445,0.816126,0.433773,0.502518,0.166321,0.116384,0.186872,0.150683,0.230361,0.054511,0.048935,1.097957,0.489927,0.633032,0.378252,0.173832,0.856048,1.092981,1.766014,0.490367,0.554078,0.989032,1.493577,1.83293,0.615751,0.631421,1.187611,1.077967,0.881311,0.283974,0.233914,1.271867,2.258045,1.052093,0.448867,0.2057,1.449834,0.771361,1.036328,0.413611,0.285907,1.358701,0.510856,0.760312,0.352104,0.20221,1.372737,0.871132,1.228193,0.449728,0.261738,4.301225,4.781536,3.821165,2.59878,2.199334,2.287176,0.703941,0.482914,0.303687,0.194529,2.850057,0.736468,1.223298,0.899963,0.395487,2.541316,0.832793,0.82456,0.446091,0.227374,1.010091,0.286473,0.245317,0.236451,0.118496,5.825216,2.132046,0.479737,0.430422,0.203689,4.200126,1.542791,1.866615,1.182621,1.570693,50.701061,5.458932,2.82563,1.962755,0.961788
1764667410,12101,0,4381.666504,4393.461426,4459.358887,4503.846191,4367.436035,4504.615234,4533.974121,4368.077148,4565.128418,4373.205078,4488.077148,4501.538574,4556.538574,4396.153809,4376.153809,4506.794922,4534.230957,4518.974121,4498.589844,4377.307617,4383.077148,4566.538574,4527.05127,4496.666504,4404.358887,4565.897461,4385.384766,4559.358887,4505.256348,4392.179688,4525.128418,4460,2819,0,14,2572,58462,,,,0,4,4,4,4,4,4,4,4,4,4,4,4,4,4,4,4,4,4,4,4,4,4,4,4,4,4,4,4,4,4,4,4,100,,,,,,,,,,,,,,,,,,,,,,,,,,,,,,,,,,,35793,0,0.481743,-0.502014,-0.370056,0.615601,0.975705,-0.267122,0.026859,5.166667,49.666668,-7.833333,,,,,,,,,,,,,,,,,,,,,,,,,,,,,,,,,,,,,,,,,,,,,,,,,,,,,,,,,,,,,,,,,,,,,,,,,,,,,,,,,,,,,,,,,,,,,,,,,,,,,,,,,,,,,,,,,,,,,,,,,,,,,,,,,,,,,,,,,,,,,,,,,,,,,,,,,,,,,,,,
1764667410,12102,0,4383.205078,4396.282227,4467.692383,4505.769043,4380.384766,4509.487305,4540.512695,4368.205078,4568.846191,4390.512695,4489.615234,4504.102539,4561.025879,4395.897461,4374.743652,4509.102539,4537.179688,4524.487305,4506.282227,4376.282227,4385.256348,4568.461426,4527.05127,4495.256348,4406.153809,4562.179688,4377.436035,4556.666504,4506.282227,4397.820313,4514.615234,4458.461426,2835,0,14,2573,58470,,,,0,4,4,4,4,4,4,4,4,4,4,4,4,4,4,4,4,4,4,4,4,4,4,4,4,4,4,4,4,4,4,4,4,100,,,,,,,,,,,,,,,,,,,,,,,,,,,,,,,,,,,,,,,,,,,,,,,,,,,,,,,,,,,,,,,,,,,,,,,,,,,,,,,,,,,,,,,,,,,,,,,,,,,,,,,,,,,,,,,,,,,,,,,,,,,,,,,,,,,,,,,,,,,,,,,,,,,,,,,,,,,,,,,,,,,,,,,,,,,,,,,,,,,,,,,,,,,,,,,,,,,,,,,,,,,,,,
1764667410,12103,0,4386.025879,4396.538574,4483.461426,4508.077148,4395.897461,4515.256348,4545.512695,4376.282227,4568.589844,4404.487305,4491.666504,4509.230957,4566.666504,4395.897461,4373.974121,4510.512695,4541.410156,4528.077148,4511.282227,4377.307617,4386.538574,4570.641113,4526.410156,4496.410156,4401.922852,4561.922852,4371.538574,4555.769043,4506.410156,4398.077148,4503.077148,4467.820313,3014,0,14,2573,58470,,,,0,4,4,4,4,4,4,4,4,4,4,4,4,4,4,4,4,4,4,4,4,4,4,4,4,4,4,4,4,4,4,4,4,100,,,,,,,,,,,,,,,,,,,,,,,,,,,,,,,,,,,,,,,,,,,,,,,,,,,,,,,,,,,,,,,,,,,,,,,,,,,,,,,,,,,,,,,,,,,,,,,,,,,,,,,,,,,,,,,,,,,,,,,,,,,,,,,,,,,,,,,,,,,,,,,,,,,,,,,,,,,,,,,,,,,,,,,,,,,,,,,,,,,,,,,,,,,,,,,,,,,,,,,,,,,,,,
1764667410,12104,0,4388.717773,4394.871582,4499.743652,4511.794922,4404.487305,4519.358887,4546.922852,4388.333496,4565.769043,4405.256348,4493.974121,4515,4570.256348,4397.436035,4374.871582,4511.025879,4544.487305,4529.102539,4510.512695,4379.230957,4384.487305,4573.077148,4526.153809,4500.384766,4396.410156,4565.769043,4371.666504,4558.205078,4506.410156,4394.230957,4497.820313,4484.230957,2906,0,14,2574,58478,,,,0,4,4,4,4,4,4,4,4,4,4,4,4,4,4,4,4,4,4,4,4,4,4,4,4,4,4,4,4,4,4,4,4,100,,,,,,,,,,,,,,,,,,,,,,,,,,,,,,,,,,,,,,,,,,,,,,,,,,,,,,,,,,,,,,,,,,,,,,,,,,,,,,,,,,,,,,,,,,,,,,,,,,,,,,,,,,,,,,,,,,,,,,,,,,,,,,,,,,,,,,,,,,,,,,,,,,,,,,,,,,,,,,,,,,,,,,,,,,,,,,,,,,,,,,,,,,,,,,,,,,,,,,,,,,,,,,
1764667410,12105,0,4390.512695,4393.333496,4510,4515.769043,4402.05127,4520.512695,4545.384766,4397.820313,4563.461426,4394.743652,4495.897461,4519.102539,4570.769043,4400.897461,4378.461426,4511.410156,4546.025879,4530.641113,4507.820313,4381.538574,4380.769043,4576.538574,4527.05127,4505.256348,4393.717773,4571.666504,4377.179688,4562.94873,4507.05127,4389.743652,4499.230957,4497.94873,2755,0,14,2574,58478,,,,0,4,4,4,4,4,4,4,4,4,4,4,4,4,4,4,4,4,4,4,4,4,4,4,4,4,4,4,4,4,4,4,4,100,,,,,,,,,,,,,,,,,,,,,,,,,,,,,,,,,,,35794,0,0.481679,-0.502075,-0.370056,0.615601,0.952265,-0.270052,0.028324,4.333333,48.5,-7,,,,,,,,,,,,,,,,,,,,,,,,,,,,,,,,,,,,,,,,,,,,,,,,,,,,,,,,,,,,,,,,,,,,,,,,,,,,,,,,,,,,,,,,,,,,,,,,,,,,,,,,,,,,,,,,,,,,,,,,,,,,,,,,,,,,,,,,,,,,,,,,,,,,,,,,,,,,,,,,
1764667410,12106,0,4390.897461,4393.589844,4511.025879,4517.563965,4392.05127,4519.102539,4543.077148,4399.871582,4563.461426,4384.487305,4496.794922,4520.769043,4568.846191,4404.358887,4383.461426,4512.179688,4546.538574,4535.256348,4508.846191,4383.717773,4379.102539,4579.615234,4528.717773,4508.461426,4393.846191,4576.153809,4383.461426,4566.922852,4508.333496,4387.307617,4502.179688,4500.256348,629,0,14,2575,58486,,,,0,4,4,4,4,4,4,4,4,4,4,4,4,4,4,4,4,4,4,4,4,4,4,4,4,4,4,4,4,4,4,4,4,100,,,,,,,,,,,,,,,,,,,,,,,,,,,,,,,,,,,,,,,,,,,,,,,,,,,,,,,,,,,,,,,,,,,,,,,,,,,,,,,,,,,,,,,,,,,,,,,,,,,,,,,,,,,,,,,,,,,,,,,,,,,,,,,,,,,,,,,,,,,,,,,,,,,,,,,,,,,,,,,,,,,,,,,,,,,,,,,,,,,,,,,,,,,,,,,,,,,,,,,,,,,,,,
1764667410,12107,0,4389.743652,4395.512695,4503.461426,4515.256348,4381.410156,4516.282227,4541.410156,4394.102539,4565.384766,4384.358887,4496.153809,4520,4566.025879,4405.897461,4387.05127,4513.077148,4546.538574,4541.794922,4515.256348,4385.256348,4380.769043,4579.358887,4529.615234,4507.563965,4393.461426,4575.769043,4385.128418,4567.307617,4509.102539,4387.179688,4502.179688,4490.128418,2733,0,14,2575,58486,,,,0,4,4,4,4,4,4,4,4,4,4,4,4,4,4,4,4,4,4,4,4,4,4,4,4,4,4,4,4,4,4,4,4,100,,,,,,,,,,,,,,,,,,,,,,,,,,,,,,,,,,,,,,,,,,,,,,,,,,,,,,,,,,,,,,,,,,,,,,,,,,,,,,,,,,,,,,,,,,,,,,,,,,,,,,,,,,,,,,,,,,,,,,,,,,,,,,,,,,,,,,,,,,,,,,,,,,,,,,,,,,,,,,,,,,,,,,,,,,,,,,,,,,,,,,,,,,,,,,,,,,,,,,,,,,,,,,
1764667410,12108,1,4389.060059,4394.957031,4502.834961,4515.98291,4382.834961,4515.769043,4540.783691,4393.190918,4565.712402,4384.843262,4496.153809,4519.173828,4566.025879,4404.487305,4385.427246,4512.649414,4545.498535,4541.524414,4516.153809,4386.253418,4382.820313,4578.318848,4529.401855,4506.225098,4394.729492,4574.771973,4384.358887,4565.583984,4508.205078,4387.279297,4501.894531,4487.05127,0,0,14,0,0,,,,0,4,4,4,4,4,4,4,4,4,4,4,4,4,4,4,4,4,4,4,4,4,4,4,4,4,4,4,4,4,4,4,4,100,,,,,,,,,,,,,,,,,,,,,,,,,,,,,,,,,,,,,,,,,,,,,,,,,,,,,,,,,,,,,,,,,,,,,,,,,,,,,,,,,,,,,,,,,,,,,,,,,,,,,,,,,,,,,,,,,,,,,,,,,,,,,,,,,,,,,,,,,,,,,,,,,,,,,,,,,,,,,,,,,,,,,,,,,,,,,,,,,,,,,,,,,,,,,,,,,,,,,,,,,,,,,,
1764667410,12109,1,4388.375977,4394.401855,4502.208008,4516.709473,4384.259277,4515.256348,4540.156738,4392.279297,4566.040039,4385.327637,4496.153809,4518.347656,4566.025879,4403.077148,4383.803223,4512.222168,4544.458496,4541.253418,4517.05127,4387.250488,4384.871582,4577.279297,4529.187988,4504.88623,4395.99707,4573.774902,4383.589844,4563.860352,4507.307617,4387.378906,4501.609863,4483.974121,0,0,14,0,0,,,,0,4,4,4,4,4,4,4,4,4,4,4,4,4,4,4,4,4,4,4,4,4,4,4,4,4,4,4,4,4,4,4,4,100,,,,,,,,,,,,,,,,,,,,,,,,,,,,,,,,,,,,,,,,,,,,,,,,,,,,,,,,,,,,,,,,,,,,,,,,,,,,,,,,,,,,,,,,,,,,,,,,,,,,,,,,,,,,,,,,,,,,,,,,,,,,,,,,,,,,,,,,,,,,,,,,,,,,,,,,,,,,,,,,,,,,,,,,,,,,,,,,,,,,,,,,,,,,,,,,,,,,,,,,,,,,,,
1764667410,12110,1,4387.692383,4393.846191,4501.581055,4517.436035,4385.683594,4514.743652,4539.529785,4391.367676,4566.367676,4385.812012,4496.153809,4517.521484,4566.025879,4401.666504,4382.179688,4511.794922,4543.418945,4540.98291,4517.94873,4388.248047,4386.922852,4576.239258,4528.974121,4503.546875,4397.265137,4572.777832,4382.820313,4562.136719,4506.410156,4387.478516,4501.324707,4480.897461,0,0,14,0,0,,,,0,4,4,4,4,4,4,4,4,4,4,4,4,4,4,4,4,4,4,4,4,4,4,4,4,4,4,4,4,4,4,4,4,100,,,,,,,,,,,,,,,,,,,,,,,,,,,,,,,,,,,,,,,,,,,,,,,,,,,,,,,,,,,,,,,,,,,,,,,,,,,,,,,,,,,,,,,,,,,,,,,,,,,,,,,,,,,,,,,,,,,,,,,,,,,,,,,,,,,,,,,,,,,,,,,,,,,,,,,,,,,,,,,,,,,,,,,,,,,,,,,,,,,,,,,,,,,,,,,,,,,,,,,,,,,,,,
1764667410,12111,1,4387.008789,4393.290527,4500.95459,4518.162598,4387.108398,4514.230957,4538.90332,4390.456055,4566.695313,4386.296387,4496.153809,4516.695313,4566.025879,4400.256348,4380.555664,4511.367676,4542.378906,4540.712402,4518.846191,4389.245117,4388.974121,4575.199219,4528.760742,4502.208008,4398.532715,4571.780762,4382.05127,4560.413086,4505.512695,4387.578125,4501.040039,4477.820313,0,0,14,0,0,,,,0,4,4,4,4,4,4,4,4,4,4,4,4,4,4,4,4,4,4,4,4,4,4,4,4,4,4,4,4,4,4,4,4,100,,,,,,,,,,,,,,,,,,,,,,,,,,,,,,,,,,,,,,,,,,,,,,,,,,,,,,,,,,,,,,,,,,,,,,,,,,,,,,,,,,,,,,,,,,,,,,,,,,,,,,,,,,,,,,,,,,,,,,,,,,,,,,,,,,,,,,,,,,,,,,,,,,,,,,,,,,,,,,,,,,,,,,,,,,,,,,,,,,,,,,,,,,,,,,,,,,,,,,,,,,,,,,
1764667410,12112,1,4386.324707,4392.734863,4500.327637,4518.888672,4388.532715,4513.717773,4538.276367,4389.543945,4567.022949,4386.780762,4496.153809,4515.869141,4566.025879,4398.846191,4378.931641,4510.939941,4541.338867,4540.441406,4519.743652,4390.242188,4391.025879,4574.159668,4528.546875,4500.869141,4399.800781,4570.783691,4381.282227,4558.689453,4504.615234,4387.678223,4500.754883,4474.743652,0,0,14,0,0,,,,0,4,4,4,4,4,4,4,4,4,4,4,4,4,4,4,4,4,4,4,4,4,4,4,4,4,4,4,4,4,4,4,4,100,,,,,,,,,,,,,,,,,,,,,,,,,,,,,,,,,,,,,,,,,,,,,,,,,,,,,,,,,,,,,,,,,,,,,,,,,,,,,,,,,,,,,,,,,,,,,,,,,,,,,,,,,,,,,,,,,,,,,,,,,,,,,,,,,,,,,,,,,,,,,,,,,,,,,,,,,,,,,,,,,,,,,,,,,,,,,,,,,,,,,,,,,,,,,,,,,,,,,,,,,,,,,,
1764667410,12113,1,4385.641113,4392.179688,4499.700684,4519.615234,4389.957031,4513.205078,4537.649414,4388.632324,4567.350586,4387.265137,4496.153809,4515.042969,4566.025879,4397.436035,4377.307617,4510.512695,4540.299316,4540.170898,4520.641113,4391.239258,4393.077148,4573.119629,4528.333496,4499.529785,4401.068359,4569.786133,4380.512695,4556.96582,4503.717773,4387.777832,4500.470215,4471.666504,0,0,14,0,0,,,,0,4,4,4,4,4,4,4,4,4,4,4,4,4,4,4,4,4,4,4,4,4,4,4,4,4,4,4,4,4,4,4,4,100,,,,,,,,,,,,,,,,,,,,,,,,,,,,,,,,,,,35795,1,0.481631,-0.502157,-0.370077,0.61556,0.956497,-0.267448,0.029463,4.444445,48.555557,-7.222222,,,,,,,,,,,,,,,,,,,,,,,,,,,,,,,,,,,,,,,,,,,,,,,,,,,,,,,,,,,,,,,,,,,,,,,,,,,,,,,,,,,,,,,,,,,,,,,,,,,,,,,,,,,,,,,,,,,,,,,,,,,,,,,,,,,,,,,,,,,,,,,,,,,,,,,,,,,,,,,,
1764667410,12114,1,4384.957031,4391.624023,4499.074219,4520.341797,4391.381836,4512.692383,4537.022949,4387.720703,4567.678223,4387.749512,4496.153809,4514.216309,4566.025879,4396.025879,4375.683594,4510.085449,4539.259277,4539.900391,4521.538574,4392.236328,4395.128418,4572.07959,4528.119629,4498.190918,4402.336426,4568.789063,4379.743652,4555.242188,4502.820313,4387.877441,4500.185059,4468.589844,0,0,14,0,0,,,,0,4,4,4,4,4,4,4,4,4,4,4,4,4,4,4,4,4,4,4,4,4,4,4,4,4,4,4,4,4,4,4,4,100,,,,,,,,,,,,,,,,,,,,,,,,,,,,,,,,,,,,,,,,,,,,,,,,,,,,,,,,,,,,,,,,,,,,,,,,,,,,,,,,,,,,,,,,,,,,,,,,,,,,,,,,,,,,,,,,,,,,,,,,,,,,,,,,,,,,,,,,,,,,,,,,,,,,,,,,,,,,,,,,,,,,,,,,,,,,,,,,,,,,,,,,,,,,,,,,,,,,,,,,,,,,,,
1764667410,12115,1,4384.273438,4391.068359,4498.447266,4521.068359,4392.806152,4512.179688,4536.395996,4386.809082,4568.005859,4388.233398,4496.153809,4513.390137,4566.025879,4394.615234,4374.060059,4509.658203,4538.219238,4539.629395,4522.436035,4393.233398,4397.179688,4571.040039,4527.905762,4496.852051,4403.604004,4567.791992,4378.974121,4553.518555,4501.922852,4387.977051,4499.900391,4465.512695,0,0,14,0,0,,,,0,4,4,4,4,4,4,4,4,4,4,4,4,4,4,4,4,4,4,4,4,4,4,4,4,4,4,4,4,4,4,4,4,100,,,,,,,,,,,,,,,,,,,,,,,,,,,,,,,,,,,35796,1,0.481582,-0.502238,-0.370097,0.615519,0.960729,-0.264844,0.030603,4.555555,48.611111,-7.444445,,,,,,,,,,,,,,,,,,,,,,,,,,,,,,,,,,,,,,,,,,,,,,,,,,,,,,,,,,,,,,,,,,,,,,,,,,,,,,,,,,,,,,,,,,,,,,,,,,,,,,,,,,,,,,,,,,,,,,,,,,,,,,,,,,,,,,,,,,,,,,,,,,,,,,,,,,,,,,,,
1764667410,12116,0,4383.589844,4390.512695,4497.820313,4521.794922,4394.230957,4511.666504,4535.769043,4385.897461,4568.333496,4388.717773,4496.153809,4512.563965,4566.025879,4393.205078,4372.436035,4509.230957,4537.179688,4539.358887,4523.333496,4394.230957,4399.230957,4570,4527.692383,4495.512695,4404.871582,4566.794922,4378.205078,4551.794922,4501.025879,4388.077148,4499.615234,4462.436035,2601,0,14,2573,58525,,,,0,4,4,4,4,4,4,4,4,4,4,4,4,4,4,4,4,4,4,4,4,4,4,4,4,4,4,4,4,4,4,4,4,100,,,,,,,,,,,,,,,,,,,,,,,,,,,,,,,,,,,,,,,,,,,,,,,,,,,,,,,,,,,,,,,,,,,,,,,,,,,,,,,,,,,,,,,,,,,,,,,,,,,,,,,,,,,,,,,,,,,,,,,,,,,,,,,,,,,,,,,,,,,,,,,,,,,,,,,,,,,,,,,,,,,,,,,,,,,,,,,,,,,,,,,,,,,,,,,,,,,,,,,,,,,,,,
1764667410,12117,0,4386.666504,4392.307617,4496.922852,4518.717773,4397.94873,4515.256348,4537.307617,4391.410156,4568.589844,4392.820313,4501.666504,4517.05127,4571.025879,4396.410156,4376.153809,4509.358887,4537.179688,4537.307617,4518.333496,4395.641113,4400.512695,4568.205078,4526.794922,4498.974121,4406.153809,4565.897461,4383.333496,4550.512695,4502.563965,4393.077148,4503.846191,4464.743652,2834,0,14,2573,58525,,,,0,4,4,4,4,4,4,4,4,4,4,4,4,4,4,4,4,4,4,4,4,4,4,4,4,4,4,4,4,4,4,4,4,100,,,,,,,,,,,,,,,,,,,,,,,,,,,,,,,,,,,35797,0,0.481534,-0.502319,-0.370117,0.615479,0.964962,-0.262239,0.031742,4.666667,48.666668,-7.666667,,,,,,,,,,,,,,,,,,,,,,,,,,,,,,,,,,,,,,,,,,,,,,,,,,,,,,,,,,,,,,,,,,,,,,,,,,,,,,,,,,,,,,,,,,,,,,,,,,,,,,,,,,,,,,,,,,,,,,,,,,,,,,,,,,,,,,,,,,,,,,,,,,,,,,,,,,,,,,,,
1764667410,12118,1,4383.897461,4389.641113,4489.307617,4514.846191,4395.102539,4512.897461,4532.153809,4387.077148,4566.615234,4392.282227,4500.179688,4514.128418,4566.563965,4395.025879,4372.94873,4508.820313,4532.487305,4532,4514.436035,4389.769043,4392.769043,4563.282227,4522.307617,4494.717773,4397.077148,4561.974121,4376.692383,4546.307617,4501.205078,4385.589844,4501.333496,4464.102539,0,0,14,0,0,,,,0,4,4,4,4,4,4,4,4,4,4,4,4,4,4,4,4,4,4,4,4,4,4,4,4,4,4,4,4,4,4,4,4,100,,,,,,,,,,,,,,,,,,,,,,,,,,,,,,,,,,,,,,,,,,,,,,,,,,,,,,,,,,,,,,,,,,,,,,,,,,,,,,,,,,,,,,,,,,,,,,,,,,,,,,,,,,,,,,,,,,,,,,,,,,,,,,,,,,,,,,,,,,,,,,,,,,,,,,,,,,,,,,,,,,,,,,,,,,,,,,,,,,,,,,,,,,,,,,,,,,,,,,,,,,,,,,
1764667410,12119,1,4381.128418,4386.974121,4481.692383,4510.974121,4392.256348,4510.538574,4527,4382.743652,4564.641113,4391.743652,4498.692383,4511.205078,4562.102539,4393.641113,4369.743652,4508.282227,4527.794922,4526.692383,4510.538574,4383.897461,4385.025879,4558.358887,4517.820313,4490.461426,4388,4558.05127,4370.05127,4542.102539,4499.846191,4378.102539,4498.820313,4463.461426,0,0,14,0,0,,,,0,4,4,4,4,4,4,4,4,4,4,4,4,4,4,4,4,4,4,4,4,4,4,4,4,4,4,4,4,4,4,4,4,100,,,,,,,,,,,,,,,,,,,,,,,,,,,,,,,,,,,,,,,,,,,,,,,,,,,,,,,,,,,,,,,,,,,,,,,,,,,,,,,,,,,,,,,,,,,,,,,,,,,,,,,,,,,,,,,,,,,,,,,,,,,,,,,,,,,,,,,,,,,,,,,,,,,,,,,,,,,,,,,,,,,,,,,,,,,,,,,,,,,,,,,,,,,,,,,,,,,,,,,,,,,,,,
1764667410,12120,1,4378.358887,4384.307617,4474.077148,4507.102539,4389.410156,4508.179688,4521.846191,4378.410156,4562.666504,4391.205078,4497.205078,4508.282227,4557.641113,4392.256348,4366.538574,4507.743652,4523.102539,4521.384766,4506.641113,4378.025879,4377.282227,4553.436035,4513.333496,4486.205078,4378.922852,4554.128418,4363.410156,4537.897461,4498.487305,4370.615234,4496.307617,4462.820313,0,0,14,0,0,,,,0,4,4,4,4,4,4,4,4,4,4,4,4,4,4,4,4,4,4,4,4,4,4,4,4,4,4,4,4,4,4,4,4,100,,,,,,,,,,,,,,,,,,,,,,,,,,,,,,,,,,,,,,,,,,,,,,,,,,,,,,,,,,,,,,,,,,,,,,,,,,,,,,,,,,,,,,,,,,,,,,,,,,,,,,,,,,,,,,,,,,,,,,,,,,,,,,,,,,,,,,,,,,,,,,,,,,,,,,,,,,,,,,,,,,,,,,,,,,,,,,,,,,,,,,,,,,,,,,,,,,,,,,,,,,,,,,
1764667410,12121,1,4375.589844,4381.641113,4466.461426,4503.230957,4386.563965,4505.820313,4516.692383,4374.077148,4560.692383,4390.666504,4495.717773,4505.358887,4553.179688,4390.871582,4363.333496,4507.205078,4518.410156,4516.077148,4502.743652,4372.153809,4369.538574,4548.512695,4508.846191,4481.94873,4369.846191,4550.205078,4356.769043,4533.692383,4497.128418,4363.128418,4493.794922,4462.179688,0,0,14,0,0,,,,0,4,4,4,4,4,4,4,4,4,4,4,4,4,4,4,4,4,4,4,4,4,4,4,4,4,4,4,4,4,4,4,4,100,,,,,,,,,,,,,,,,,,,,,,,,,,,,,,,,,,,,,,,,,,,,,,,,,,,,,,,,,,,,,,,,,,,,,,,,,,,,,,,,,,,,,,,,,,,,,,,,,,,,,,,,,,,,,,,,,,,,,,,,,,,,,,,,,,,,,,,,,,,,,,,,,,,,,,,,,,,,,,,,,,,,,,,,,,,,,,,,,,,,,,,,,,,,,,,,,,,,,,,,,,,,,,
1764667410,12122,0,4372.820313,4378.974121,4458.846191,4499.358887,4383.717773,4503.461426,4511.538574,4369.743652,4558.717773,4390.128418,4494.230957,4502.436035,4548.717773,4389.487305,4360.128418,4506.666504,4513.717773,4510.769043,4498.846191,4366.282227,4361.794922,4543.589844,4504.358887,4477.692383,4360.769043,4546.282227,4350.128418,4529.487305,4495.769043,4355.641113,4491.282227,4461.538574,1933,0,14,2315,58548,,,,0,4,4,4,4,4,4,4,4,4,4,4,4,4,4,4,4,4,4,4,4,4,4,4,4,4,4,4,4,4,4,4,4,100,,,,,,,,,,,,,,,,,,,,,,,,,,,,,,,,,,,,,,,,,,,,,,,,,,,,,,,,,,,,,,,,,,,,,,,,,,,,,,,,,,,,,,,,,,,,,,,,,,,,,,,,,,,,,,,,,,,,,,,,,,,,,,,,,,,,,,,,,,,,,,,,,,,,,,,,,,,,,,,,,,,,,,,,,,,,,,,,,,,,,,,,,,,,,,,,,,,,,,,,,,,,,,
1764667410,12123,0,4372.05127,4377.692383,4457.692383,4496.282227,4377.05127,4501.794922,4510.128418,4368.846191,4553.974121,4391.794922,4491.794922,4500.384766,4551.025879,4389.615234,4359.615234,4507.94873,4514.358887,4515.128418,4508.333496,4369.487305,4366.153809,4545.769043,4506.410156,4478.461426,4362.179688,4543.333496,4354.487305,4529.230957,4495.769043,4355.256348,4487.563965,4452.94873,2584,0,14,2315,58548,,,,0,4,4,4,4,4,4,4,4,4,4,4,4,4,4,4,4,4,4,4,4,4,4,4,4,4,4,4,4,4,4,4,4,100,,,,,,,,,,,,,,,,,,,,,,,,,,,,,,,,,,,,,,,,,,,,,,,,,,,,,,,,,,,,,,,,,,,,,,,,,,,,,,,,,,,,,,,,,,,,,,,,,,,,,,,,,,,,,,,,,,,,,,,,,,,,,,,,,,,,,,,,,,,,,,,,,,,,,,,,,,,,,,,,,,,,,,,,,,,,,,,,,,,,,,,,,,,,,,,,,,,,,,,,,,,,,,
1764667410,12124,0,4369.358887,4374.615234,4464.102539,4492.692383,4365.128418,4498.077148,4507.94873,4367.563965,4545.641113,4389.102539,4486.666504,4496.282227,4552.94873,4389.871582,4363.077148,4508.461426,4514.102539,4521.922852,4514.487305,4370.769043,4368.205078,4547.692383,4504.615234,4477.820313,4359.487305,4539.615234,4357.692383,4526.538574,4493.846191,4358.205078,4485.128418,4450.512695,2733,0,14,2568,58556,,,,0,4,4,4,4,4,4,4,4,4,4,4,4,4,4,4,4,4,4,4,4,4,4,4,4,4,4,4,4,4,4,4,4,100,,,,,,,,,,,,,,,,,,,,,,,,,,,,,,,,,,,,,,,,,,,,,,,,,,,,,,,,,,,,,,,,,,,,,,,,,,,,,,,,,,,,,,,,,,,,,,,,,,,,,,,,,,,,,,,,,,,,,,,,,,,,,,,,,,,,,,,,,,,,,,,,,,,,,,,,,,,,,,,,,,,,,,,,,,,,,,,,,,,,,,,,,,,,,,,,,,,,,,,,,,,,,,
1764667410,12125,0,4365.128418,4368.974121,4472.436035,4489.230957,4352.179688,4492.179688,4505.384766,4365.512695,4535.641113,4381.025879,4480.128418,4490.641113,4551.922852,4388.717773,4368.333496,4508.077148,4512.05127,4526.153809,4513.461426,4368.333496,4365.641113,4546.282227,4499.102539,4473.333496,4351.922852,4536.025879,4355.384766,4521.410156,4489.743652,4360.128418,4482.179688,4452.436035,2545,0,14,2568,58556,,,,0,4,4,4,4,4,4,4,4,4,4,4,4,4,4,4,4,4,4,4,4,4,4,4,4,4,4,4,4,4,4,4,4,100,,,,,,,,,,,,,,,,,,,,,,,,,,,,,,,,,,,35799,0,0.481711,-0.502075,-0.369812,0.615723,0.977658,-0.271518,0.024417,6,47.666668,-10,,,,,,,,,,,,,,,,,,,,,,,,,,,,,,,,,,,,,,,,,,,,,,,,,,,,,,,,,,,,,,,,,,,,,,,,,,,,,,,,,,,,,,,,,,,,,,,,,,,,,,,,,,,,,,,,,,,,,,,,,,,,,,,,,,,,,,,,,,,,,,,,,,,,,,,,,,,,,,,,
1764667410,12126,0,4361.666504,4361.922852,4475.641113,4487.94873,4344.230957,4486.410156,4503.717773,4363.589844,4527.692383,4370,4475.128418,4486.025879,4548.205078,4385.897461,4371.666504,4507.307617,4508.717773,4523.589844,4504.743652,4362.94873,4360.256348,4540.769043,4493.717773,4466.410156,4345.897461,4534.615234,4348.077148,4515.769043,4484.743652,4358.461426,4478.205078,4453.846191,2719,0,14,2569,58564,,,,0,4,4,4,4,4,4,4,4,4,4,4,4,4,4,4,4,4,4,4,4,4,4,4,4,4,4,4,4,4,4,4,4,100,,,,,,,,,,,,,,,,,,,,,,,,,,,,,,,,,,,,,,,,,,,,,,,,,,,,,,,,,,,,,,,,,,,,,,,,,,,,,,,,,,,,,,,,,,,,,,,,,,,,,,,,,,,,,,,,,,,,,,,,,,,,,,,,,,,,,,,,,,,,,,,,,,,,,,,,,,,,,,,,,,,,,,,,,,,,,,,,,,,,,,,,,,,,,,,,,,,,,,,,,,,,,,
1764667410,12127,0,4361.025879,4356.025879,4469.487305,4489.487305,4345.384766,4483.333496,4503.717773,4363.333496,4525,4360.897461,4473.846191,4484.871582,4544.230957,4382.94873,4371.153809,4506.538574,4505.641113,4515.128418,4492.307617,4357.563965,4356.538574,4534.871582,4491.794922,4460.256348,4347.436035,4537.05127,4340.256348,4511.794922,4480.769043,4353.846191,4475.384766,4451.794922,2829,0,14,2569,58564,,,,0,4,4,4,4,4,4,4,4,4,4,4,4,4,4,4,4,4,4,4,4,4,4,4,4,4,4,4,4,4,4,4,4,100,,,,,,,,,,,,,,,,,,,,,,,,,,,,,,,,,,,,,,,,,,,,,,,,,,,,,,,,,,,,,,,,,,,,,,,,,,,,,,,,,,,,,,,,,,,,,,,,,,,,,,,,,,,,,,,,,,,,,,,,,,,,,,,,,,,,,,,,,,,,,,,,,,,,,,,,,,,,,,,,,,,,,,,,,,,,,,,,,,,,,,,,,,,,,,,,,,,,,,,,,,,,,,
1764667410,12128,0,4362.94873,4353.974121,4457.179688,4492.563965,4354.615234,4483.589844,4505,4363.974121,4527.94873,4358.333496,4476.025879,4487.563965,4542.179688,4381.794922,4367.436035,4506.282227,4503.974121,4506.538574,4482.563965,4354.487305,4358.205078,4532.820313,4494.230957,4458.077148,4355.897461,4542.436035,4336.794922,4511.025879,4479.615234,4349.743652,4476.666504,4447.94873,2804,0,14,2570,58571,,,,0,4,4,4,4,4,4,4,4,4,4,4,4,4,4,4,4,4,4,4,4,4,4,4,4,4,4,4,4,4,4,4,4,100,,,,,,,,,,,,,,,,,,,,,,,,,,,,,,,,,,,,,,,,,,,,,,,,,,,,,,,,,,,,,,,,,,,,,,,,,,,,,,,,,,,,,,,,,,,,,,,,,,,,,,,,,,,,,,,,,,,,,,,,,,,,,,,,,,,,,,,,,,,,,,,,,,,,,,,,,,,,,,,,,,,,,,,,,,,,,,,,,,,,,,,,,,,,,,,,,,,,,,,,,,,,,,
1764667410,12129,0,4365.897461,4356.410156,4447.692383,4495.641113,4366.794922,4486.282227,4507.563965,4364.487305,4533.333496,4362.692383,4479.358887,4491.922852,4542.692383,4382.94873,4363.461426,4506.282227,4505.128418,4502.94873,4480,4355.641113,4364.871582,4535.641113,4498.974121,4461.025879,4365.256348,4548.077148,4339.487305,4513.461426,4481.538574,4348.974121,4483.589844,4446.794922,2937,0,14,2570,58571,,,,0,4,4,4,4,4,4,4,4,4,4,4,4,4,4,4,4,4,4,4,4,4,4,4,4,4,4,4,4,4,4,4,4,100,,,,,,,,,,,,,,,,,,,,,,,,,,,,,,,,,,,35800,0,0.481743,-0.502014,-0.369751,0.615784,0.977658,-0.271518,0.024417,4.833333,49,-7,,,,,,,,,,,,,,,,,,,,,,,,,,,,,,,,,,,,,,,,,,,,,,,,,,,,,,,,,,,,,,,,,,,,,,,,,,,,,,,,,,,,,,,,,,,,,,,,,,,,,,,,,,,,,,,,,,,,,,,,,,,,,,,,,,,,,,,,,,,,,,,,,,,,,,,,,,,,,,,,
1764667410,12130,0,4368.205078,4362.05127,4448.589844,4498.974121,4375.769043,4489.615234,4511.410156,4364.230957,4537.820313,4371.025879,4480.897461,4495.641113,4544.871582,4385,4361.538574,4506.410156,4509.230957,4505.897461,4484.615234,4360.128418,4373.205078,4541.538574,4502.820313,4467.179688,4370.256348,4551.794922,4346.538574,4517.820313,4485.128418,4352.05127,4493.589844,4451.794922,2647,0,14,2571,58579,,,,0,4,4,4,4,4,4,4,4,4,4,4,4,4,4,4,4,4,4,4,4,4,4,4,4,4,4,4,4,4,4,4,4,100,,,,,,,,,,,,,,,,,,,,,,,,,,,,,,,,,,,,,,,,,,,,,,,,,,,,,,,,,,,,,,,,,,,,,,,,,,,,,,,,,,,,,,,,,,,,,,,,,,,,,,,,,,,,,,,,,,,,,,,,,,,,,,,,,,,,,,,,,,,,,,,,,,,,,,,,,,,,,,,,,,,,,,,,,,,,,,,,,,,,,,,,,,,,,,,,,,,,,,,,,,,,,,
1764667410,12131,0,4369.743652,4368.077148,4460.897461,4503.461426,4378.846191,4493.077148,4516.538574,4363.846191,4540.512695,4378.717773,4479.743652,4497.436035,4547.563965,4386.153809,4361.794922,4506.025879,4515.128418,4512.307617,4492.692383,4366.282227,4378.974121,4546.410156,4504.230957,4473.077148,4371.282227,4553.461426,4353.974121,4522.820313,4488.205078,4357.94873,4501.922852,4462.05127,2871,0,14,2571,58579,,,,0,4,4,4,4,4,4,4,4,4,4,4,4,4,4,4,4,4,4,4,4,4,4,4,4,4,4,4,4,4,4,4,4,100,,,,,,,,,,,,,,,,,,,,,,,,,,,,,,,,,,,,,,,,,,,,,,,,,,,,,,,,,,,,,,,,,,,,,,,,,,,,,,,,,,,,,,,,,,,,,,,,,,,,,,,,,,,,,,,,,,,,,,,,,,,,,,,,,,,,,,,,,,,,,,,,,,,,,,,,,,,,,,,,,,,,,,,,,,,,,,,,,,,,,,,,,,,,,,,,,,,,,,,,,,,,,,
1764667410,12132,1,4371.410156,4370.128418,4462.563965,4501.318848,4378.11377,4495.018555,4517.454102,4362.692383,4541.849609,4378.314941,4479.157715,4498.644531,4547.472656,4386.19043,4361.88623,4505.128418,4516.39209,4512.692383,4494.908203,4369.047852,4381.172363,4547.930176,4505.238281,4475.915527,4373.9375,4555.695801,4357.527344,4526.428711,4489.890137,4360.256348,4502.380859,4460.421387,0,0,14,0,0,,,,0,4,4,4,4,4,4,4,4,4,4,4,4,4,4,4,4,4,4,4,4,4,4,4,4,4,4,4,4,4,4,4,4,100,,,,,,,,,,,,,,,,,,,,,,,,,,,,,,,,,,,,,,,,,,,,,,,1.983259,0.507204,0.485949,0.36696,0.108953,8.081906,1.117492,0.44823,0.555097,0.159936,59.354038,3.305869,2.829593,2.41549,0.786401,10.290536,1.844339,1.616115,0.839693,0.454402,9.888311,2.172741,0.85212,0.864208,0.462845,3.346017,0.352927,0.561278,0.309964,0.106697,2.160316,0.451039,0.380177,0.277277,0.14789,3.399522,1.064544,0.50464,0.552234,0.280573,3.090387,0.650898,0.673498,0.235054,0.215651,1.951338,1.908854,0.407063,1.255581,0.969593,0.416341,0.177164,0.110554,0.19464,0.077817,1.390975,0.396933,0.446642,0.366175,0.140096,0.456794,0.59317,0.622851,0.206777,0.08425,0.403733,0.347273,0.145274,0.121526,0.079093,0.673716,0.40628,0.458073,0.179295,0.113714,0.199811,0.156819,0.219519,0.057574,0.049645,0.875975,0.469491,0.528266,0.370488,0.157351,0.712468,1.144807,1.672203,0.536595,0.556747,0.838948,1.515302,1.611142,0.593601,0.625353,0.875996,1.074592,0.789441,0.251595,0.226366,0.999771,2.44563,0.969869,0.4637,0.192987,1.055894,0.755117,0.970846,0.38764,0.286013,1.185418,0.559037,0.773842,0.341073,0.190449,1.03286,0.704388,1.140532,0.420473,0.269854,4.377792,5.347257,4.111215,2.821837,1.912613,1.784368,0.619569,0.436267,0.278413,0.18054,2.167574,0.678092,1.227856,0.881029,0.36512,1.962593,0.887556,0.708759,0.47227,0.227807,1.012647,0.31005,0.183383,0.251818,0.113658,5.990866,2.179072,0.411303,0.510495,0.218567,3.934146,1.845856,2.440696,1.177698,1.478765,56.348763,6.370647,3.74708,2.355984,1.037184
1764667410,12133,1,4373.077148,4372.179688,4464.230957,4499.175781,4377.380859,4496.959473,4518.370117,4361.538574,4543.187012,4377.912109,4478.571289,4499.853516,4547.380859,4386.227051,4361.978027,4504.230957,4517.655762,4513.077148,4497.124512,4371.812988,4383.370117,4549.450684,4506.245605,4478.754395,4376.593262,4557.930176,4361.080566,4530.036621,4491.575195,4362.563965,4502.838867,4458.791016,0,0,14,0,0,,,,0,4,4,4,4,4,4,4,4,4,4,4,4,4,4,4,4,4,4,4,4,4,4,4,4,4,4,4,4,4,4,4,4,100,,,,,,,,,,,,,,,,,,,,,,,,,,,,,,,,,,,,,,,,,,,,,,,,,,,,,,,,,,,,,,,,,,,,,,,,,,,,,,,,,,,,,,,,,,,,,,,,,,,,,,,,,,,,,,,,,,,,,,,,,,,,,,,,,,,,,,,,,,,,,,,,,,,,,,,,,,,,,,,,,,,,,,,,,,,,,,,,,,,,,,,,,,,,,,,,,,,,,,,,,,,,,,
1764667410,12134,1,4374.743652,4374.230957,4465.897461,4497.033203,4376.648438,4498.900879,4519.285645,4360.384766,4544.523926,4377.509277,4477.985352,4501.0625,4547.289551,4386.263672,4362.069824,4503.333496,4518.919434,4513.461426,4499.34082,4374.578613,4385.567871,4550.970703,4507.25293,4481.593262,4379.249023,4560.165039,4364.633789,4533.644531,4493.260254,4364.871582,4503.296875,4457.161133,0,0,14,0,0,,,,0,4,4,4,4,4,4,4,4,4,4,4,4,4,4,4,4,4,4,4,4,4,4,4,4,4,4,4,4,4,4,4,4,100,,,,,,,,,,,,,,,,,,,,,,,,,,,,,,,,,,,,,,,,,,,,,,,,,,,,,,,,,,,,,,,,,,,,,,,,,,,,,,,,,,,,,,,,,,,,,,,,,,,,,,,,,,,,,,,,,,,,,,,,,,,,,,,,,,,,,,,,,,,,,,,,,,,,,,,,,,,,,,,,,,,,,,,,,,,,,,,,,,,,,,,,,,,,,,,,,,,,,,,,,,,,,,
1764667410,12135,1,4376.410156,4376.282227,4467.563965,4494.890137,4375.915527,4500.842285,4520.20166,4359.230957,4545.86084,4377.106445,4477.399414,4502.270996,4547.197754,4386.300293,4362.161133,4502.436035,4520.183105,4513.846191,4501.556641,4377.344238,4387.765625,4552.490723,4508.260254,4484.432129,4381.904785,4562.399414,4368.187012,4537.25293,4494.944824,4367.179688,4503.754395,4455.53125,0,0,14,0,0,,,,0,4,4,4,4,4,4,4,4,4,4,4,4,4,4,4,4,4,4,4,4,4,4,4,4,4,4,4,4,4,4,4,4,100,,,,,,,,,,,,,,,,,,,,,,,,,,,,,,,,,,,,,,,,,,,,,,,,,,,,,,,,,,,,,,,,,,,,,,,,,,,,,,,,,,,,,,,,,,,,,,,,,,,,,,,,,,,,,,,,,,,,,,,,,,,,,,,,,,,,,,,,,,,,,,,,,,,,,,,,,,,,,,,,,,,,,,,,,,,,,,,,,,,,,,,,,,,,,,,,,,,,,,,,,,,,,,
1764667410,12136,1,4378.077148,4378.333496,4469.230957,4492.74707,4375.183105,4502.783691,4521.117188,4358.077148,4547.197754,4376.703125,4476.812988,4503.47998,4547.106445,4386.336914,4362.25293,4501.538574,4521.446777,4514.230957,4503.772949,4380.109863,4389.963379,4554.01123,4509.267578,4487.270996,4384.560547,4564.633789,4371.739746,4540.86084,4496.629883,4369.487305,4504.212402,4453.900879,0,0,14,0,0,,,,0,4,4,4,4,4,4,4,4,4,4,4,4,4,4,4,4,4,4,4,4,4,4,4,4,4,4,4,4,4,4,4,4,100,,,,,,,,,,,,,,,,,,,,,,,,,,,,,,,,,,,,,,,,,,,,,,,,,,,,,,,,,,,,,,,,,,,,,,,,,,,,,,,,,,,,,,,,,,,,,,,,,,,,,,,,,,,,,,,,,,,,,,,,,,,,,,,,,,,,,,,,,,,,,,,,,,,,,,,,,,,,,,,,,,,,,,,,,,,,,,,,,,,,,,,,,,,,,,,,,,,,,,,,,,,,,,
1764667410,12137,1,4379.743652,4380.384766,4470.897461,4490.604492,4374.450684,4504.725098,4522.033203,4356.922852,4548.534668,4376.300293,4476.227051,4504.688477,4547.014648,4386.373535,4362.344238,4500.641113,4522.710449,4514.615234,4505.98877,4382.875488,4392.161133,4555.53125,4510.274902,4490.109863,4387.216309,4566.868164,4375.292969,4544.46875,4498.314941,4371.794922,4504.67041,4452.270996,0,0,14,0,0,,,,0,4,4,4,4,4,4,4,4,4,4,4,4,4,4,4,4,4,4,4,4,4,4,4,4,4,4,4,4,4,4,4,4,100,,,,,,,,,,,,,,,,,,,,,,,,,,,,,,,,,,,,,,,,,,,,,,,,,,,,,,,,,,,,,,,,,,,,,,,,,,,,,,,,,,,,,,,,,,,,,,,,,,,,,,,,,,,,,,,,,,,,,,,,,,,,,,,,,,,,,,,,,,,,,,,,,,,,,,,,,,,,,,,,,,,,,,,,,,,,,,,,,,,,,,,,,,,,,,,,,,,,,,,,,,,,,,
1764667410,12138,0,4381.410156,4382.436035,4472.563965,4488.461426,4373.717773,4506.666504,4522.94873,4355.769043,4549.871582,4375.897461,4475.641113,4505.897461,4546.922852,4386.410156,4362.436035,4499.743652,4523.974121,4515,4508.205078,4385.641113,4394.358887,4557.05127,4511.282227,4492.94873,4389.871582,4569.102539,4378.846191,4548.077148,4500,4374.102539,4505.128418,4450.641113,630,0,14,2575,58611,,,,0,4,4,4,4,4,4,4,4,4,4,4,4,4,4,4,4,4,4,4,4,4,4,4,4,4,4,4,4,4,4,4,4,100,,,,,,,,,,,,,,,,,,,,,,,,,,,,,,,,,,,,,,,,,,,,,,,,,,,,,,,,,,,,,,,,,,,,,,,,,,,,,,,,,,,,,,,,,,,,,,,,,,,,,,,,,,,,,,,,,,,,,,,,,,,,,,,,,,,,,,,,,,,,,,,,,,,,,,,,,,,,,,,,,,,,,,,,,,,,,,,,,,,,,,,,,,,,,,,,,,,,,,,,,,,,,,
1764667410,12139,0,4379.743652,4383.589844,4488.333496,4491.025879,4368.974121,4509.358887,4524.102539,4356.025879,4547.94873,4375.897461,4474.615234,4506.794922,4551.538574,4383.077148,4363.974121,4496.794922,4526.666504,4515.897461,4505.512695,4385.256348,4388.333496,4558.974121,4509.743652,4491.153809,4383.589844,4570.512695,4378.333496,4550.769043,4500.128418,4376.153809,4519.230957,4462.94873,2736,0,14,2575,58611,,,,0,4,4,4,4,4,4,4,4,4,4,4,4,4,4,4,4,4,4,4,4,4,4,4,4,4,4,4,4,4,4,4,4,100,,,,,,,,,,,,,,,,,,,,,,,,,,,,,,,,,,,,,,,,,,,,,,,,,,,,,,,,,,,,,,,,,,,,,,,,,,,,,,,,,,,,,,,,,,,,,,,,,,,,,,,,,,,,,,,,,,,,,,,,,,,,,,,,,,,,,,,,,,,,,,,,,,,,,,,,,,,,,,,,,,,,,,,,,,,,,,,,,,,,,,,,,,,,,,,,,,,,,,,,,,,,,,
1764667410,12140,0,4379.871582,4383.333496,4494.358887,4495,4367.692383,4513.205078,4523.846191,4361.922852,4548.077148,4378.461426,4475.769043,4508.461426,4557.436035,4380.256348,4366.282227,4496.794922,4529.487305,4518.974121,4503.974121,4384.487305,4383.589844,4560.641113,4510,4489.743652,4373.461426,4574.102539,4375.256348,4552.307617,4500.512695,4379.487305,4528.077148,4481.666504,2525,0,14,2576,58618,,,,0,4,4,4,4,4,4,4,4,4,4,4,4,4,4,4,4,4,4,4,4,4,4,4,4,4,4,4,4,4,4,4,4,100,,,,,,,,,,,,,,,,,,,,,,,,,,,,,,,,,,,,,,,,,,,,,,,,,,,,,,,,,,,,,,,,,,,,,,,,,,,,,,,,,,,,,,,,,,,,,,,,,,,,,,,,,,,,,,,,,,,,,,,,,,,,,,,,,,,,,,,,,,,,,,,,,,,,,,,,,,,,,,,,,,,,,,,,,,,,,,,,,,,,,,,,,,,,,,,,,,,,,,,,,,,,,,
1764667410,12141,0,4382.436035,4383.717773,4487.307617,4498.589844,4371.922852,4516.922852,4523.205078,4370.641113,4550,4382.05127,4479.743652,4510,4562.820313,4379.615234,4370.128418,4500.256348,4532.179688,4524.358887,4505.769043,4385.512695,4383.974121,4563.205078,4512.692383,4491.282227,4366.922852,4578.717773,4371.922852,4553.974121,4502.05127,4383.589844,4528.974121,4499.102539,2281,0,14,2576,58618,,,,0,4,4,4,4,4,4,4,4,4,4,4,4,4,4,4,4,4,4,4,4,4,4,4,4,4,4,4,4,4,4,4,4,100,,,,,,,,,,,,,,,,,,,,,,,,,,,,,,,,,,,35803,0,0.481822,-0.501953,-0.369934,0.615662,0.964473,-0.260286,0.020999,5.5,48.333332,-7.166667,,,,,,,,,,,,,,,,,,,,,,,,,,,,,,,,,,,,,,,,,,,,,,,,,,,,,,,,,,,,,,,,,,,,,,,,,,,,,,,,,,,,,,,,,,,,,,,,,,,,,,,,,,,,,,,,,,,,,,,,,,,,,,,,,,,,,,,,,,,,,,,,,,,,,,,,,,,,,,,,
1764667410,12142,0,4385.769043,4385.897461,4474.230957,4502.179688,4380.897461,4518.077148,4523.846191,4377.307617,4552.94873,4383.461426,4485.897461,4510.384766,4566.025879,4381.025879,4375.256348,4505.256348,4534.615234,4530.897461,4511.153809,4389.615234,4389.871582,4566.410156,4516.153809,4495.384766,4370.769043,4581.538574,4371.282227,4556.025879,4504.358887,4387.05127,4525.384766,4506.538574,2741,0,14,2576,58626,,,,0,4,4,4,4,4,4,4,4,4,4,4,4,4,4,4,4,4,4,4,4,4,4,4,4,4,4,4,4,4,4,4,4,100,,,,,,,,,,,,,,,,,,,,,,,,,,,,,,,,,,,,,,,,,,,,,,,,,,,,,,,,,,,,,,,,,,,,,,,,,,,,,,,,,,,,,,,,,,,,,,,,,,,,,,,,,,,,,,,,,,,,,,,,,,,,,,,,,,,,,,,,,,,,,,,,,,,,,,,,,,,,,,,,,,,,,,,,,,,,,,,,,,,,,,,,,,,,,,,,,,,,,,,,,,,,,,
1764667410,12143,0,4387.179688,4389.358887,4466.538574,4506.538574,4390.769043,4515.128418,4526.282227,4378.205078,4555.641113,4380.641113,4491.410156,4509.615234,4566.538574,4382.820313,4380.256348,4509.358887,4536.410156,4536.025879,4516.922852,4395.641113,4397.05127,4569.230957,4518.461426,4499.358887,4385,4580.384766,4374.487305,4557.307617,4506.282227,4388.846191,4522.820313,4499.230957,2515,0,14,2576,58626,,,,0,4,4,4,4,4,4,4,4,4,4,4,4,4,4,4,4,4,4,4,4,4,4,4,4,4,4,4,4,4,4,4,4,100,,,,,,,,,,,,,,,,,,,,,,,,,,,,,,,,,,,,,,,,,,,,,,,,,,,,,,,,,,,,,,,,,,,,,,,,,,,,,,,,,,,,,,,,,,,,,,,,,,,,,,,,,,,,,,,,,,,,,,,,,,,,,,,,,,,,,,,,,,,,,,,,,,,,,,,,,,,,,,,,,,,,,,,,,,,,,,,,,,,,,,,,,,,,,,,,,,,,,,,,,,,,,,
1764667410,12144,0,4385.256348,4392.05127,4470.512695,4510.769043,4397.05127,4508.846191,4529.358887,4373.717773,4557.307617,4375.384766,4494.358887,4508.461426,4565.128418,4383.333496,4383.333496,4511.282227,4537.05127,4537.692383,4519.615234,4399.743652,4400,4570.128418,4518.589844,4500,4402.179688,4575.128418,4379.743652,4556.282227,4506.922852,4388.461426,4523.846191,4480.384766,2896,0,14,2576,58634,,,,0,4,4,4,4,4,4,4,4,4,4,4,4,4,4,4,4,4,4,4,4,4,4,4,4,4,4,4,4,4,4,4,4,100,,,,,,,,,,,,,,,,,,,,,,,,,,,,,,,,,,,,,,,,,,,,,,,,,,,,,,,,,,,,,,,,,,,,,,,,,,,,,,,,,,,,,,,,,,,,,,,,,,,,,,,,,,,,,,,,,,,,,,,,,,,,,,,,,,,,,,,,,,,,,,,,,,,,,,,,,,,,,,,,,,,,,,,,,,,,,,,,,,,,,,,,,,,,,,,,,,,,,,,,,,,,,,
1764667410,12145,0,4381.282227,4392.692383,4482.563965,4511.794922,4396.794922,4502.307617,4531.153809,4367.820313,4557.436035,4371.794922,4494.230957,4508.333496,4562.94873,4382.436035,4383.461426,4511.794922,4536.025879,4535.897461,4517.436035,4398.333496,4395.769043,4569.102539,4517.436035,4496.794922,4412.692383,4568.589844,4383.589844,4552.94873,4506.666504,4386.666504,4525.769043,4461.410156,2945,0,14,2576,58634,,,,0,4,4,4,4,4,4,4,4,4,4,4,4,4,4,4,4,4,4,4,4,4,4,4,4,4,4,4,4,4,4,4,4,100,,,,,,,,,,,,,,,,,,,,,,,,,,,,,,,,,,,35804,0,0.481759,-0.502014,-0.369934,0.615662,0.975217,-0.270541,0.022464,5.5,48.333332,-7.166667,,,,,,,,,,,,,,,,,,,,,,,,,,,,,,,,,,,,,,,,,,,,,,,,,,,,,,,,,,,,,,,,,,,,,,,,,,,,,,,,,,,,,,,,,,,,,,,,,,,,,,,,,,,,,,,,,,,,,,,,,,,,,,,,,,,,,,,,,,,,,,,,,,,,,,,,,,,,,,,,
1764667410,12146,0,4378.846191,4392.307617,4492.563965,4507.436035,4391.666504,4499.743652,4531.410156,4366.025879,4556.410156,4373.589844,4492.94873,4509.743652,4561.794922,4381.794922,4381.282227,4512.307617,4534.487305,4532.692383,4511.666504,4390.897461,4386.794922,4567.563965,4516.538574,4492.563965,4411.153809,4564.102539,4383.846191,4549.743652,4506.922852,4385.641113,4523.461426,4455.512695,1780,0,14,2576,58642,,,,0,4,4,4,4,4,4,4,4,4,4,4,4,4,4,4,4,4,4,4,4,4,4,4,4,4,4,4,4,4,4,4,4,100,,,,,,,,,,,,,,,,,,,,,,,,,,,,,,,,,,,,,,,,,,,,,,,,,,,,,,,,,,,,,,,,,,,,,,,,,,,,,,,,,,,,,,,,,,,,,,,,,,,,,,,,,,,,,,,,,,,,,,,,,,,,,,,,,,,,,,,,,,,,,,,,,,,,,,,,,,,,,,,,,,,,,,,,,,,,,,,,,,,,,,,,,,,,,,,,,,,,,,,,,,,,,,
1764667410,12147,0,4380.897461,4393.846191,4493.333496,4499.230957,4387.563965,4503.461426,4531.282227,4371.025879,4555,4380.897461,4493.589844,4513.205078,4562.563965,4383.589844,4378.846191,4513.333496,4534.615234,4530.897461,4505.384766,4381.538574,4378.717773,4567.563965,4517.436035,4491.153809,4399.871582,4564.230957,4382.05127,4549.615234,4508.846191,4387.05127,4515.512695,4467.820313,2788,0,14,2576,58642,,,,0,4,4,4,4,4,4,4,4,4,4,4,4,4,4,4,4,4,4,4,4,4,4,4,4,4,4,4,4,4,4,4,4,100,,,,,,,,,,,,,,,,,,,,,,,,,,,,,,,,,,,,,,,,,,,,,,,,,,,,,,,,,,,,,,,,,,,,,,,,,,,,,,,,,,,,,,,,,,,,,,,,,,,,,,,,,,,,,,,,,,,,,,,,,,,,,,,,,,,,,,,,,,,,,,,,,,,,,,,,,,,,,,,,,,,,,,,,,,,,,,,,,,,,,,,,,,,,,,,,,,,,,,,,,,,,,,
1764667410,12148,0,4388.333496,4400,4485.769043,4492.563965,4390.641113,4513.077148,4532.563965,4380.897461,4554.487305,4390.256348,4497.179688,4519.230957,4565.384766,4388.589844,4377.307617,4514.230957,4538.461426,4531.282227,4501.153809,4376.282227,4376.410156,4570.384766,4520.897461,4495,4387.692383,4569.230957,4381.410156,4554.102539,4512.436035,4391.282227,4505.384766,4489.871582,2598,0,14,2575,58650,,,,0,4,4,4,4,4,4,4,4,4,4,4,4,4,4,4,4,4,4,4,4,4,4,4,4,4,4,4,4,4,4,4,4,100,,,,,,,,,,,,,,,,,,,,,,,,,,,,,,,,,,,,,,,,,,,,,,,,,,,,,,,,,,,,,,,,,,,,,,,,,,,,,,,,,,,,,,,,,,,,,,,,,,,,,,,,,,,,,,,,,,,,,,,,,,,,,,,,,,,,,,,,,,,,,,,,,,,,,,,,,,,,,,,,,,,,,,,,,,,,,,,,,,,,,,,,,,,,,,,,,,,,,,,,,,,,,,
1764667410,12149,0,4398.589844,4409.743652,4478.205078,4492.820313,4401.153809,4524.743652,4536.025879,4390.128418,4556.153809,4397.436035,4502.307617,4526.794922,4570,4395.256348,4376.794922,4514.487305,4546.282227,4533.333496,4501.153809,4378.077148,4380.641113,4575.384766,4526.025879,4502.563965,4383.717773,4576.282227,4383.846191,4561.794922,4516.538574,4396.922852,4499.358887,4504.230957,2833,0,14,2575,58650,,,,0,4,4,4,4,4,4,4,4,4,4,4,4,4,4,4,4,4,4,4,4,4,4,4,4,4,4,4,4,4,4,4,4,100,,,,,,,,,,,,,,,,,,,,,,,,,,,,,,,,,,,35805,0,0.481839,-0.501892,-0.369995,0.615662,0.967403,-0.269564,0.01465,3.833333,50.333332,-8,,,,,,,,,,,,,,,,,,,,,,,,,,,,,,,,,,,,,,,,,,,,,,,,,,,,,,,,,,,,,,,,,,,,,,,,,,,,,,,,,,,,,,,,,,,,,,,,,,,,,,,,,,,,,,,,,,,,,,,,,,,,,,,,,,,,,,,,,,,,,,,,,,,,,,,,,,,,,,,,
1764667410,12150,0,4407.179688,4418.846191,4477.563965,4501.794922,4413.205078,4533.333496,4540.641113,4393.077148,4559.230957,4400.128418,4506.025879,4533.589844,4574.871582,4400,4376.282227,4514.615234,4555.256348,4536.666504,4505.512695,4385.256348,4387.820313,4580.512695,4530.897461,4509.615234,4390.128418,4581.410156,4387.692383,4568.974121,4520,4402.179688,4502.05127,4498.846191,2943,0,14,2576,58657,,,,0,4,4,4,4,4,4,4,4,4,4,4,4,4,4,4,4,4,4,4,4,4,4,4,4,4,4,4,4,4,4,4,4,100,,,,,,,,,,,,,,,,,,,,,,,,,,,,,,,,,,,,,,,,,,,,,,,,,,,,,,,,,,,,,,,,,,,,,,,,,,,,,,,,,,,,,,,,,,,,,,,,,,,,,,,,,,,,,,,,,,,,,,,,,,,,,,,,,,,,,,,,,,,,,,,,,,,,,,,,,,,,,,,,,,,,,,,,,,,,,,,,,,,,,,,,,,,,,,,,,,,,,,,,,,,,,,
1764667410,12151,0,4410.384766,4422.563965,4484.871582,4514.871582,4418.077148,4535.256348,4543.974121,4388.205078,4562.05127,4398.205078,4505.512695,4536.153809,4577.563965,4399.743652,4374.871582,4515.384766,4560.897461,4540.769043,4512.307617,4392.307617,4392.94873,4582.820313,4532.94873,4512.179688,4401.282227,4581.025879,4390.256348,4571.538574,4521.538574,4405.641113,4513.077148,4477.563965,2866,0,14,2576,58657,,,,0,4,4,4,4,4,4,4,4,4,4,4,4,4,4,4,4,4,4,4,4,4,4,4,4,4,4,4,4,4,4,4,4,100,,,,,,,,,,,,,,,,,,,,,,,,,,,,,,,,,,,,,,,,,,,,,,,,,,,,,,,,,,,,,,,,,,,,,,,,,,,,,,,,,,,,,,,,,,,,,,,,,,,,,,,,,,,,,,,,,,,,,,,,,,,,,,,,,,,,,,,,,,,,,,,,,,,,,,,,,,,,,,,,,,,,,,,,,,,,,,,,,,,,,,,,,,,,,,,,,,,,,,,,,,,,,,
1764667410,12152,0,4407.179688,4418.846191,4495.128418,4525.384766,4411.153809,4530.256348,4544.102539,4378.974121,4562.436035,4392.94873,4500.384766,4532.94873,4576.025879,4393.846191,4371.922852,4516.153809,4560.128418,4544.358887,4518.205078,4394.230957,4393.461426,4580,4530.128418,4508.846191,4408.205078,4574.743652,4389.358887,4568.461426,4520.256348,4405.769043,4527.05127,4457.179688,2750,0,14,2576,58665,,,,0,4,4,4,4,4,4,4,4,4,4,4,4,4,4,4,4,4,4,4,4,4,4,4,4,4,4,4,4,4,4,4,4,100,,,,,,,,,,,,,,,,,,,,,,,,,,,,,,,,,,,,,,,,,,,,,,,,,,,,,,,,,,,,,,,,,,,,,,,,,,,,,,,,,,,,,,,,,,,,,,,,,,,,,,,,,,,,,,,,,,,,,,,,,,,,,,,,,,,,,,,,,,,,,,,,,,,,,,,,,,,,,,,,,,,,,,,,,,,,,,,,,,,,,,,,,,,,,,,,,,,,,,,,,,,,,,
1764667410,12153,0,4399.615234,4409.615234,4502.436035,4529.358887,4395.897461,4522.179688,4541.410156,4371.282227,4559.358887,4385.769043,4493.333496,4525.256348,4570.641113,4385.128418,4368.205078,4515.641113,4553.205078,4545.384766,4519.615234,4389.358887,4389.871582,4572.436035,4522.94873,4501.538574,4405.384766,4566.153809,4386.025879,4560.897461,4516.025879,4401.153809,4536.410156,4455.128418,2887,0,14,2576,58665,,,,0,4,4,4,4,4,4,4,4,4,4,4,4,4,4,4,4,4,4,4,4,4,4,4,4,4,4,4,4,4,4,4,4,100,,,,,,,,,,,,,,,,,,,,,,,,,,,,,,,,,,,35806,0,0.481808,-0.501892,-0.369934,0.615723,0.966427,-0.273471,0.022952,6.5,49.333332,-8.666667,,,,,,,,,,,,,,,,,,,,,,,,,,,,,,,,,,,,,,,,,,,,,,,,,,,,,,,,,,,,,,,,,,,,,,,,,,,,,,,,,,,,,,,,,,,,,,,,,,,,,,,,,,,,,,,,,,,,,,,,,,,,,,,,,,,,,,,,,,,,,,,,,,,,,,,,,,,,,,,,
1764667410,12154,0,4391.538574,4399.102539,4504.615234,4528.077148,4381.794922,4515.641113,4537.692383,4369.615234,4554.487305,4379.102539,4488.846191,4517.307617,4563.974121,4378.461426,4364.871582,4512.94873,4543.717773,4542.820313,4516.025879,4380.512695,4385.256348,4562.563965,4514.102539,4493.717773,4395.256348,4559.871582,4382.307617,4552.307617,4510,4392.436035,4536.282227,4475.897461,1938,0,14,2571,58673,,,,0,4,4,4,4,4,4,4,4,4,4,4,4,4,4,4,4,4,4,4,4,4,4,4,4,4,4,4,4,4,4,4,4,100,,,,,,,,,,,,,,,,,,,,,,,,,,,,,,,,,,,,,,,,,,,,,,,,,,,,,,,,,,,,,,,,,,,,,,,,,,,,,,,,,,,,,,,,,,,,,,,,,,,,,,,,,,,,,,,,,,,,,,,,,,,,,,,,,,,,,,,,,,,,,,,,,,,,,,,,,,,,,,,,,,,,,,,,,,,,,,,,,,,,,,,,,,,,,,,,,,,,,,,,,,,,,,
1764667410,12155,0,4385.897461,4391.794922,4503.461426,4525.256348,4377.94873,4513.589844,4535,4373.717773,4550.897461,4374.743652,4489.487305,4512.820313,4559.743652,4377.436035,4364.358887,4509.358887,4535.641113,4537.563965,4509.871582,4372.307617,4382.307617,4554.102539,4506.922852,4488.333496,4384.615234,4559.487305,4379.615234,4545.128418,4504.358887,4382.820313,4526.922852,4507.94873,2587,0,14,2571,58673,,,,0,4,4,4,4,4,4,4,4,4,4,4,4,4,4,4,4,4,4,4,4,4,4,4,4,4,4,4,4,4,4,4,4,100,,,,,,,,,,,,,,,,,,,,,,,,,,,,,,,,,,,,,,,,,,,,,,,,,,,,,,,,,,,,,,,,,,,,,,,,,,,,,,,,,,,,,,,,,,,,,,,,,,,,,,,,,,,,,,,,,,,,,,,,,,,,,,,,,,,,,,,,,,,,,,,,,,,,,,,,,,,,,,,,,,,,,,,,,,,,,,,,,,,,,,,,,,,,,,,,,,,,,,,,,,,,,,
1764667410,12156,0,4383.461426,4388.846191,4501.794922,4522.563965,4384.871582,4514.615234,4533.974121,4378.846191,4550.256348,4373.461426,4493.717773,4512.563965,4559.102539,4381.666504,4367.179688,4506.666504,4531.410156,4531.922852,4504.615234,4368.205078,4382.179688,4548.846191,4503.461426,4485.641113,4379.230957,4564.102539,4377.307617,4540.256348,4500.641113,4376.410156,4513.077148,4531.922852,2737,0,14,2572,58681,,,,0,4,4,4,4,4,4,4,4,4,4,4,4,4,4,4,4,4,4,4,4,4,4,4,4,4,4,4,4,4,4,4,4,100,,,,,,,,,,,,,,,,,,,,,,,,,,,,,,,,,,,,,,,,,,,,,,,,,,,,,,,,,,,,,,,,,,,,,,,,,,,,,,,,,,,,,,,,,,,,,,,,,,,,,,,,,,,,,,,,,,,,,,,,,,,,,,,,,,,,,,,,,,,,,,,,,,,,,,,,,,,,,,,,,,,,,,,,,,,,,,,,,,,,,,,,,,,,,,,,,,,,,,,,,,,,,,
1764667410,12157,0,4382.05127,4387.94873,4499.487305,4519.358887,4394.230957,4514.358887,4532.94873,4379.358887,4551.922852,4374.615234,4497.05127,4513.333496,4560.256348,4387.563965,4371.538574,4505.769043,4530.128418,4527.307617,4501.410156,4368.333496,4382.94873,4546.922852,4502.436035,4483.717773,4379.230957,4569.487305,4372.820313,4536.666504,4498.461426,4374.743652,4499.871582,4533.846191,2546,0,14,2572,58681,,,,0,4,4,4,4,4,4,4,4,4,4,4,4,4,4,4,4,4,4,4,4,4,4,4,4,4,4,4,4,4,4,4,4,100,,,,,,,,,,,,,,,,,,,,,,,,,,,,,,,,,,,35807,0,0.48184,-0.501831,-0.369873,0.615784,0.968868,-0.262727,0.023929,5.166667,48.166668,-7.5,,,,,,,,,,,,,,,,,,,,,,,,,,,,,,,,,,,,,,,,,,,,,,,,,,,,,,,,,,,,,,,,,,,,,,,,,,,,,,,,,,,,,,,,,,,,,,,,,,,,,,,,,,,,,,,,,,,,,,,,,,,,,,,,,,,,,,,,,,,,,,,,,,,,,,,,,,,,,,,,
1764667410,12158,0,4378.589844,4385.128418,4494.358887,4513.333496,4394.871582,4509.615234,4530.256348,4373.077148,4552.820313,4376.922852,4495.256348,4510.641113,4559.871582,4390.512695,4374.358887,4505.897461,4528.077148,4523.205078,4498.717773,4369.615234,4381.794922,4546.282227,4500.384766,4481.153809,4379.743652,4570.769043,4364.743652,4532.820313,4495.769043,4375.512695,4490.256348,4514.102539,2721,0,14,2573,58689,,,,0,4,4,4,4,4,4,4,4,4,4,4,4,4,4,4,4,4,4,4,4,4,4,4,4,4,4,4,4,4,4,4,4,100,,,,,,,,,,,,,,,,,,,,,,,,,,,,,,,,,,,,,,,,,,,,,,,,,,,,,,,,,,,,,,,,,,,,,,,,,,,,,,,,,,,,,,,,,,,,,,,,,,,,,,,,,,,,,,,,,,,,,,,,,,,,,,,,,,,,,,,,,,,,,,,,,,,,,,,,,,,,,,,,,,,,,,,,,,,,,,,,,,,,,,,,,,,,,,,,,,,,,,,,,,,,,,
1764667410,12159,0,4372.307617,4378.333496,4484.871582,4504.102539,4382.820313,4501.025879,4525.128418,4363.077148,4550.641113,4379.358887,4488.461426,4502.436035,4556.153809,4388.461426,4373.717773,4505.384766,4522.563965,4518.333496,4494.871582,4368.589844,4377.563965,4544.743652,4495.256348,4477.307617,4375.641113,4565.897461,4354.871582,4528.333496,4491.794922,4374.487305,4485.769043,4486.025879,2835,0,14,2573,58689,,,,0,4,4,4,4,4,4,4,4,4,4,4,4,4,4,4,4,4,4,4,4,4,4,4,4,4,4,4,4,4,4,4,4,100,,,,,,,,,,,,,,,,,,,,,,,,,,,,,,,,,,,,,,,,,,,,,,,,,,,,,,,,,,,,,,,,,,,,,,,,,,,,,,,,,,,,,,,,,,,,,,,,,,,,,,,,,,,,,,,,,,,,,,,,,,,,,,,,,,,,,,,,,,,,,,,,,,,,,,,,,,,,,,,,,,,,,,,,,,,,,,,,,,,,,,,,,,,,,,,,,,,,,,,,,,,,,,
1764667410,12160,0,4365.128418,4369.102539,4473.589844,4494.230957,4363.846191,4492.436035,4519.230957,4355.128418,4546.538574,4381.410156,4480.256348,4491.025879,4550.512695,4382.820313,4370.256348,4503.333496,4514.487305,4513.717773,4490.512695,4365.384766,4372.179688,4541.922852,4488.461426,4473.333496,4365.641113,4557.436035,4348.077148,4523.717773,4488.077148,4369.871582,4487.94873,4465.384766,2803,0,14,2574,58696,,,,0,4,4,4,4,4,4,4,4,4,4,4,4,4,4,4,4,4,4,4,4,4,4,4,4,4,4,4,4,4,4,4,4,100,,,,,,,,,,,,,,,,,,,,,,,,,,,,,,,,,,,,,,,,,,,,,,,,,,,,,,,,,,,,,,,,,,,,,,,,,,,,,,,,,,,,,,,,,,,,,,,,,,,,,,,,,,,,,,,,,,,,,,,,,,,,,,,,,,,,,,,,,,,,,,,,,,,,,,,,,,,,,,,,,,,,,,,,,,,,,,,,,,,,,,,,,,,,,,,,,,,,,,,,,,,,,,
1764667410,12161,0,4360.512695,4361.666504,4465.256348,4487.436035,4349.102539,4488.461426,4515.128418,4353.077148,4543.846191,4382.820313,4475.256348,4482.179688,4546.410156,4377.94873,4367.307617,4501.153809,4507.820313,4512.436035,4488.205078,4362.94873,4369.487305,4540.128418,4484.358887,4470.128418,4354.487305,4550.256348,4349.230957,4521.025879,4486.538574,4363.974121,4497.179688,4460,2938,0,14,2574,58696,,,,0,4,4,4,4,4,4,4,4,4,4,4,4,4,4,4,4,4,4,4,4,4,4,4,4,4,4,4,4,4,4,4,4,100,,,,,,,,,,,,,,,,,,,,,,,,,,,,,,,,,,,35808,0,0.481777,-0.501892,-0.369873,0.615784,0.96545,-0.251007,0.025882,5.166667,49.333332,-7.5,,,,,,,,,,,,,,,,,,,,,,,,,,,,,,,,,,,,,,,,,,,,,,,,,,,,,,,,,,,,,,,,,,,,,,,,,,,,,,,,,,,,,,,,,,,,,,,,,,,,,,,,,,,,,,,,,,,,,,,,,,,,,,,,,,,,,,,,,,,,,,,,,,,,,,,,,,,,,,,,
1764667410,12162,0,4360.769043,4359.871582,4463.461426,4486.153809,4346.922852,4490.256348,4514.487305,4356.025879,4545.384766,4383.717773,4475.641113,4480.512695,4546.538574,4377.179688,4367.94873,4500.769043,4506.538574,4515.769043,4490.128418,4364.615234,4371.025879,4541.538574,4486.538574,4469.230957,4348.333496,4547.94873,4358.205078,4522.179688,4487.820313,4360.897461,4510.128418,4465.384766,2646,0,14,2575,58704,,,,0,4,4,4,4,4,4,4,4,4,4,4,4,4,4,4,4,4,4,4,4,4,4,4,4,4,4,4,4,4,4,4,4,100,,,,,,,,,,,,,,,,,,,,,,,,,,,,,,,,,,,,,,,,,,,,,,,,,,,,,,,,,,,,,,,,,,,,,,,,,,,,,,,,,,,,,,,,,,,,,,,,,,,,,,,,,,,,,,,,,,,,,,,,,,,,,,,,,,,,,,,,,,,,,,,,,,,,,,,,,,,,,,,,,,,,,,,,,,,,,,,,,,,,,,,,,,,,,,,,,,,,,,,,,,,,,,
1764667410,12163,0,4364.871582,4363.205078,4467.94873,4489.871582,4357.563965,4495.641113,4516.538574,4359.871582,4550.384766,4384.230957,4479.358887,4486.538574,4550.256348,4380.897461,4372.563965,4502.820313,4510.769043,4521.538574,4495.769043,4370.128418,4375.384766,4546.025879,4494.102539,4471.282227,4349.487305,4550.641113,4369.102539,4527.436035,4490.128418,4362.820313,4518.717773,4470.384766,2869,0,14,2575,58704,,,,0,4,4,4,4,4,4,4,4,4,4,4,4,4,4,4,4,4,4,4,4,4,4,4,4,4,4,4,4,4,4,4,4,100,,,,,,,,,,,,,,,,,,,,,,,,,,,,,,,,,,,,,,,,,,,,,,,,,,,,,,,,,,,,,,,,,,,,,,,,,,,,,,,,,,,,,,,,,,,,,,,,,,,,,,,,,,,,,,,,,,,,,,,,,,,,,,,,,,,,,,,,,,,,,,,,,,,,,,,,,,,,,,,,,,,,,,,,,,,,,,,,,,,,,,,,,,,,,,,,,,,,,,,,,,,,,,
1764667410,12164,0,4369.487305,4368.333496,4473.717773,4494.871582,4373.077148,4500.512695,4519.358887,4360.897461,4555,4384.743652,4482.563965,4495,4554.615234,4386.666504,4378.205078,4505.641113,4517.179688,4525.512695,4501.666504,4376.794922,4380.128418,4551.666504,4502.05127,4475.769043,4354.615234,4555.256348,4374.487305,4533.846191,4491.025879,4367.94873,4515.256348,4467.436035,2764,0,14,2576,58712,,,,0,4,4,4,4,4,4,4,4,4,4,4,4,4,4,4,4,4,4,4,4,4,4,4,4,4,4,4,4,4,4,4,4,100,0.667969,66.666664,4,4,4,4,4,4,4,4,4,4,4,4,4,4,4,1,4,4,4,4,4,4,4,4,3,4,4,4,4,4,4,4,,,,,,,,,,,,,1.85819,0.500683,0.449475,0.365677,0.099785,8.366821,1.171619,0.423079,0.569592,0.151018,57.989723,3.533314,3.610591,2.501985,0.779766,10.826928,1.70114,1.793728,0.771622,0.506827,9.702925,2.146133,0.67966,0.838181,0.40347,3.546506,0.361454,0.569502,0.305216,0.099539,2.726534,0.554521,0.362179,0.260089,0.134634,3.2161,1.166896,0.412827,0.505178,0.259017,2.978917,0.680606,0.614153,0.213199,0.221259,2.194985,2.33882,0.409661,1.109225,0.89665,0.444496,0.244246,0.112371,0.173103,0.075841,1.373608,0.37032,0.370714,0.339154,0.12812,0.335039,0.652538,0.476113,0.217402,0.083535,0.318558,0.324192,0.143724,0.131181,0.084063,0.53616,0.380198,0.439554,0.20564,0.113508,0.244029,0.154171,0.194326,0.065968,0.050478,0.820775,0.460019,0.425851,0.370011,0.138385,0.685512,1.129197,1.476452,0.58846,0.528306,0.750569,1.393805,1.322389,0.602201,0.586315,0.725413,0.984596,0.703487,0.246411,0.207833,0.893934,2.491186,0.891668,0.523691,0.184031,0.773014,0.722625,0.875523,0.369229,0.27222,1.148138,0.637601,0.766149,0.33553,0.169133,0.876139,0.528155,1.018612,0.400896,0.264083,4.587871,5.527827,4.210453,3.006043,1.644335,1.552364,0.569303,0.42115,0.26264,0.163453,1.716942,0.663887,1.214432,0.877588,0.324274,1.685822,0.951239,0.611692,0.498078,0.222685,1.145278,0.344131,0.150069,0.264878,0.104951,5.950723,2.111103,0.394481,0.615734,0.23735,3.631079,2.078524,2.980819,1.248843,1.396695,54.957764,6.778241,4.665521,2.677747,1.098434
1764667410,12165,0,4371.794922,4371.153809,4475.128418,4497.692383,4383.077148,4501.922852,4521.282227,4357.94873,4555.256348,4384.615234,4482.820313,4499.230957,4556.922852,4391.282227,4381.153809,4507.563965,4521.538574,4525.769043,4504.358887,4381.025879,4383.205078,4556.410156,4505.769043,4481.538574,4359.487305,4557.692383,4371.538574,4537.94873,4490,4371.666504,4499.871582,4457.94873,2819,0,14,2576,58712,,,,0,4,4,4,4,4,4,4,4,4,4,4,4,4,4,4,4,4,4,4,4,4,4,4,4,4,4,4,4,4,4,4,4,100,,,,,,,,,,,,,,,,,,,,,,,,,,,,,,,,,,,35809,0,0.481634,-0.502014,-0.369995,0.615723,0.981077,-0.269564,0.020022,6,48.5,-7.833333,,,,,,,,,,,,,,,,,,,,,,,,,,,,,,,,,,,,,,,,,,,,,,,,,,,,,,,,,,,,,,,,,,,,,,,,,,,,,,,,,,,,,,,,,,,,,,,,,,,,,,,,,,,,,,,,,,,,,,,,,,,,,,,,,,,,,,,,,,,,,,,,,,,,,,,,,,,,,,,,
1764667410,12166,0,4370.769043,4369.871582,4468.974121,4496.410156,4381.538574,4499.743652,4521.282227,4352.94873,4550.256348,4383.205078,4480.897461,4496.666504,4556.666504,4392.307617,4379.230957,4507.94873,4522.692383,4523.333496,4503.077148,4381.153809,4384.230957,4559.743652,4503.846191,4486.410156,4363.461426,4555.769043,4363.717773,4538.077148,4488.077148,4369.358887,4481.922852,4450.384766,2833,0,14,2576,58720,,,,0,4,4,4,4,4,4,4,4,4,4,4,4,4,4,4,4,4,4,4,4,4,4,4,4,4,4,4,4,4,4,4,4,100,,,,,,,,,,,,,,,,,,,,,,,,,,,,,,,,,,,,,,,,,,,,,,,,,,,,,,,,,,,,,,,,,,,,,,,,,,,,,,,,,,,,,,,,,,,,,,,,,,,,,,,,,,,,,,,,,,,,,,,,,,,,,,,,,,,,,,,,,,,,,,,,,,,,,,,,,,,,,,,,,,,,,,,,,,,,,,,,,,,,,,,,,,,,,,,,,,,,,,,,,,,,,,
1764667410,12167,0,4367.692383,4366.153809,4457.563965,4491.666504,4370.641113,4496.282227,4519.871582,4348.717773,4542.820313,4379.743652,4479.230957,4490.384766,4555.128418,4390,4373.717773,4507.179688,4522.563965,4520.769043,4500.384766,4377.563965,4383.205078,4561.666504,4499.102539,4488.205078,4368.333496,4550.384766,4356.666504,4535,4486.538574,4360.128418,4472.820313,4452.179688,3008,0,14,2576,58720,,,,0,4,4,4,4,4,4,4,4,4,4,4,4,4,4,4,4,4,4,4,4,4,4,4,4,4,4,4,4,4,4,4,4,100,,,,,,,,,,,,,,,,,,,,,,,,,,,,,,,,,,,,,,,,,,,,,,,,,,,,,,,,,,,,,,,,,,,,,,,,,,,,,,,,,,,,,,,,,,,,,,,,,,,,,,,,,,,,,,,,,,,,,,,,,,,,,,,,,,,,,,,,,,,,,,,,,,,,,,,,,,,,,,,,,,,,,,,,,,,,,,,,,,,,,,,,,,,,,,,,,,,,,,,,,,,,,,
1764667410,12168,0,4365.512695,4362.692383,4445.769043,4485.641113,4358.589844,4494.230957,4518.205078,4347.563965,4537.307617,4374.871582,4479.358887,4486.410156,4554.102539,4386.410156,4368.205078,4506.410156,4522.820313,4520.256348,4499.358887,4372.692383,4380.128418,4561.538574,4495.512695,4485.897461,4373.974121,4543.974121,4353.333496,4531.153809,4486.153809,4347.820313,4477.307617,4462.820313,2911,0,14,2576,58728,,,,0,4,4,4,4,4,4,4,4,4,4,4,4,4,4,4,4,4,4,4,4,4,4,4,4,4,4,4,4,4,4,4,4,100,,,,,,,,,,,,,,,,,,,,,,,,,,,,,,,,,,,,,,,,,,,,,,,,,,,,,,,,,,,,,,,,,,,,,,,,,,,,,,,,,,,,,,,,,,,,,,,,,,,,,,,,,,,,,,,,,,,,,,,,,,,,,,,,,,,,,,,,,,,,,,,,,,,,,,,,,,,,,,,,,,,,,,,,,,,,,,,,,,,,,,,,,,,,,,,,,,,,,,,,,,,,,,
1764667410,12169,0,4365.897461,4361.282227,4438.077148,4481.410156,4353.717773,4494.871582,4517.820313,4349.743652,4535.641113,4370.512695,4481.025879,4488.717773,4555.128418,4383.846191,4365.641113,4506.410156,4524.230957,4521.794922,4501.666504,4369.615234,4375.897461,4559.230957,4495.384766,4481.153809,4376.538574,4538.974121,4353.461426,4528.717773,4486.794922,4338.846191,4489.871582,4474.230957,2757,0,14,2576,58728,,,,0,4,4,4,4,4,4,4,4,4,4,4,4,4,4,4,4,4,4,4,4,4,4,4,4,4,4,4,4,4,4,4,4,100,,,,,,,,,,,,,,,,,,,,,,,,,,,,,,,,,,,35810,0,0.481697,-0.501953,-0.369995,0.615723,0.981077,-0.269564,0.020022,5.5,50,-6.333333,,,,,,,,,,,,,,,,,,,,,,,,,,,,,,,,,,,,,,,,,,,,,,,,,,,,,,,,,,,,,,,,,,,,,,,,,,,,,,,,,,,,,,,,,,,,,,,,,,,,,,,,,,,,,,,,,,,,,,,,,,,,,,,,,,,,,,,,,,,,,,,,,,,,,,,,,,,,,,,,
1764667410,12170,0,4368.974121,4362.179688,4437.05127,4481.153809,4358.717773,4497.563965,4519.102539,4353.974121,4537.436035,4368.846191,4482.692383,4496.538574,4557.692383,4383.974121,4366.410156,4506.922852,4525.897461,4524.102539,4506.025879,4370.128418,4371.538574,4555.641113,4498.846191,4476.538574,4371.538574,4536.282227,4354.615234,4528.717773,4488.333496,4338.461426,4501.025879,4478.589844,624,0,14,2575,58736,,,,0,4,4,4,4,4,4,4,4,4,4,4,4,4,4,4,4,4,4,4,4,4,4,4,4,4,4,4,4,4,4,4,4,100,,,,,,,,,,,,,,,,,,,,,,,,,,,,,,,,,,,,,,,,,,,,,,,,,,,,,,,,,,,,,,,,,,,,,,,,,,,,,,,,,,,,,,,,,,,,,,,,,,,,,,,,,,,,,,,,,,,,,,,,,,,,,,,,,,,,,,,,,,,,,,,,,,,,,,,,,,,,,,,,,,,,,,,,,,,,,,,,,,,,,,,,,,,,,,,,,,,,,,,,,,,,,,
1764667411,12171,0,4372.436035,4364.487305,4442.307617,4485.769043,4368.974121,4500.897461,4521.282227,4358.077148,4540.384766,4369.230957,4483.461426,4505.256348,4560.384766,4386.153809,4368.589844,4507.436035,4526.922852,4525.256348,4509.230957,4373.974121,4368.205078,4552.94873,4503.589844,4475,4357.307617,4535.256348,4355.897461,4530.641113,4490.512695,4346.666504,4505,4474.743652,2739,0,14,2575,58736,,,,0,4,4,4,4,4,4,4,4,4,4,4,4,4,4,4,4,4,4,4,4,4,4,4,4,4,4,4,4,4,4,4,4,100,,,,,,,,,,,,,,,,,,,,,,,,,,,,,,,,,,,,,,,,,,,,,,,,,,,,,,,,,,,,,,,,,,,,,,,,,,,,,,,,,,,,,,,,,,,,,,,,,,,,,,,,,,,,,,,,,,,,,,,,,,,,,,,,,,,,,,,,,,,,,,,,,,,,,,,,,,,,,,,,,,,,,,,,,,,,,,,,,,,,,,,,,,,,,,,,,,,,,,,,,,,,,,
1764667411,12172,0,4374.230957,4367.179688,4452.05127,4493.205078,4376.153809,4502.94873,4522.692383,4360.641113,4542.692383,4369.230957,4482.94873,4510.256348,4561.282227,4388.333496,4370.256348,4507.436035,4526.538574,4524.230957,4509.358887,4379.102539,4366.794922,4552.692383,4507.05127,4476.666504,4337.692383,4535.128418,4357.307617,4533.205078,4492.692383,4358.589844,4502.692383,4468.077148,2525,0,14,2572,58743,,,,0,4,4,4,4,4,4,4,4,4,4,4,4,4,4,4,4,4,4,4,4,4,4,4,4,4,4,4,4,4,4,4,4,100,,,,,,,,,,,,,,,,,,,,,,,,,,,,,,,,,,,,,,,,,,,,,,,,,,,,,,,,,,,,,,,,,,,,,,,,,,,,,,,,,,,,,,,,,,,,,,,,,,,,,,,,,,,,,,,,,,,,,,,,,,,,,,,,,,,,,,,,,,,,,,,,,,,,,,,,,,,,,,,,,,,,,,,,,,,,,,,,,,,,,,,,,,,,,,,,,,,,,,,,,,,,,,
1764667411,12173,0,4373.974121,4368.974121,4462.692383,4500.641113,4374.615234,4502.94873,4522.563965,4361.153809,4543.717773,4366.922852,4482.307617,4509.871582,4560,4388.846191,4370.897461,4506.538574,4525.384766,4522.692383,4507.436035,4383.077148,4367.563965,4554.615234,4508.205078,4479.615234,4322.820313,4535.512695,4358.461426,4534.871582,4494.230957,4368.333496,4499.358887,4465.128418,2279,0,14,2572,58743,,,,0,4,4,4,4,4,4,4,4,4,4,4,4,4,4,4,4,4,4,4,4,4,4,4,4,4,4,4,4,4,4,4,4,100,,,,,,,,,,,,,,,,,,,,,,,,,,,,,,,,,,,35811,0,0.481536,-0.502197,-0.370178,0.61554,0.961055,-0.268099,0.033696,4.166667,48.666668,-7.666667,,,,,,,,,,,,,,,,,,,,,,,,,,,,,,,,,,,,,,,,,,,,,,,,,,,,,,,,,,,,,,,,,,,,,,,,,,,,,,,,,,,,,,,,,,,,,,,,,,,,,,,,,,,,,,,,,,,,,,,,,,,,,,,,,,,,,,,,,,,,,,,,,,,,,,,,,,,,,,,,
1764667411,12174,0,4372.94873,4369.871582,4470.641113,4505.256348,4365.769043,4501.410156,4521.025879,4360.384766,4544.358887,4363.077148,4482.05127,4506.025879,4557.436035,4387.05127,4371.538574,4505,4524.230957,4522.692383,4505.769043,4385.128418,4370.384766,4556.794922,4507.820313,4481.153809,4324.102539,4536.922852,4359.102539,4535,4494.487305,4373.461426,4498.589844,4467.307617,2742,0,14,2571,58751,,,,0,4,4,4,4,4,4,4,4,4,4,4,4,4,4,4,4,4,4,4,4,4,4,4,4,4,4,4,4,4,4,4,4,100,,,,,,,,,,,,,,,,,,,,,,,,,,,,,,,,,,,,,,,,,,,,,,,,,,,,,,,,,,,,,,,,,,,,,,,,,,,,,,,,,,,,,,,,,,,,,,,,,,,,,,,,,,,,,,,,,,,,,,,,,,,,,,,,,,,,,,,,,,,,,,,,,,,,,,,,,,,,,,,,,,,,,,,,,,,,,,,,,,,,,,,,,,,,,,,,,,,,,,,,,,,,,,
1764667411,12175,0,4372.94873,4370.512695,4473.205078,4506.282227,4356.538574,4500.128418,4520,4359.615234,4546.282227,4361.153809,4482.436035,4502.05127,4555.128418,4384.102539,4372.436035,4503.717773,4522.94873,4524.230957,4506.153809,4384.615234,4373.974121,4557.436035,4507.179688,4479.358887,4344.615234,4539.743652,4358.333496,4534.487305,4493.846191,4375.897461,4499.871582,4470,2515,0,14,2571,58751,,,,0,4,4,4,4,4,4,4,4,4,4,4,4,4,4,4,4,4,4,4,4,4,4,4,4,4,4,4,4,4,4,4,4,100,,,,,,,,,,,,,,,,,,,,,,,,,,,,,,,,,,,,,,,,,,,,,,,,,,,,,,,,,,,,,,,,,,,,,,,,,,,,,,,,,,,,,,,,,,,,,,,,,,,,,,,,,,,,,,,,,,,,,,,,,,,,,,,,,,,,,,,,,,,,,,,,,,,,,,,,,,,,,,,,,,,,,,,,,,,,,,,,,,,,,,,,,,,,,,,,,,,,,,,,,,,,,,
1764667411,12176,0,4374.487305,4371.794922,4470.384766,4505.128418,4354.358887,4500.897461,4520.641113,4359.487305,4549.743652,4364.102539,4482.820313,4500.384766,4554.230957,4381.666504,4373.333496,4503.205078,4522.05127,4525.256348,4507.436035,4381.410156,4376.538574,4556.025879,4507.05127,4475.128418,4373.589844,4543.717773,4356.794922,4534.230957,4493.333496,4378.077148,4500.512695,4468.077148,2899,0,14,2568,58759,,,,0,4,4,4,4,4,4,4,4,4,4,4,4,4,4,4,4,4,4,4,4,4,4,4,4,4,4,4,4,4,4,4,4,100,,,,,,,,,,,,,,,,,,,,,,,,,,,,,,,,,,,,,,,,,,,,,,,,,,,,,,,,,,,,,,,,,,,,,,,,,,,,,,,,,,,,,,,,,,,,,,,,,,,,,,,,,,,,,,,,,,,,,,,,,,,,,,,,,,,,,,,,,,,,,,,,,,,,,,,,,,,,,,,,,,,,,,,,,,,,,,,,,,,,,,,,,,,,,,,,,,,,,,,,,,,,,,
1764667411,12177,0,4377.179688,4373.205078,4464.871582,4504.358887,4361.282227,4503.717773,4522.820313,4360.512695,4553.077148,4371.794922,4483.589844,4501.538574,4554.743652,4381.538574,4373.461426,4503.717773,4522.05127,4524.615234,4508.205078,4376.410156,4376.666504,4553.589844,4507.436035,4471.538574,4392.307617,4546.794922,4356.153809,4534.743652,4493.846191,4380.641113,4499.487305,4461.794922,2981,0,14,2568,58759,,,,0,4,4,4,4,4,4,4,4,4,4,4,4,4,4,4,4,4,4,4,4,4,4,4,4,4,4,4,4,4,4,4,4,100,,,,,,,,,,,,,,,,,,,,,,,,,,,,,,,,,,,35812,0,0.481519,-0.502258,-0.370117,0.61554,0.946405,-0.276889,0.028324,4.166667,48.666668,-7.666667,,,,,,,,,,,,,,,,,,,,,,,,,,,,,,,,,,,,,,,,,,,,,,,,,,,,,,,,,,,,,,,,,,,,,,,,,,,,,,,,,,,,,,,,,,,,,,,,,,,,,,,,,,,,,,,,,,,,,,,,,,,,,,,,,,,,,,,,,,,,,,,,,,,,,,,,,,,,,,,,
