title:Sad3, start timestamp:1764668153.914773, stop timestamp:1764668165.272061, headset type:FLEX2, headset serial:F30002B4, headset firmware:2f10, channels:283, sampling rate:eeg_256;mot_64;pow_8, samples:2909      , version:2.2, ,,,,,,,,,,,,,,,,,,,,,,,,,,,,,,,,,,,,,,,,,,,,,,,,,,,,,,,,,,,,,,,,,,,,,,,,,,,,,,,,,,,,,,,,,,,,,,,,,,,,,,,,,,,,,,,,,,,,,,,,,,,,,,,,,,,,,,,,,,,,,,,,,,,,,,,,,,,,,,,,,,,,,,,,,,,,,,,,,,,,,,,,,,,,,,,,,,,,,,,,,,,,,,,,,,,,,,,,,,,,,,,,,,,,,,,,,,,,,,,,,,,,,,,,,,,,,,,,,,,,,,,,,,,,,,,,
Timestamp,EEG.Counter,EEG.Interpolated,EEG.Cz,EEG.Fz,EEG.Fp1,EEG.F7,EEG.F3,EEG.FC1,EEG.C3,EEG.FC5,EEG.FT9,EEG.T7,EEG.CP5,EEG.CP1,EEG.P3,EEG.P7,EEG.PO9,EEG.O1,EEG.Pz,EEG.Oz,EEG.O2,EEG.PO10,EEG.P8,EEG.P4,EEG.CP2,EEG.CP6,EEG.T8,EEG.FT10,EEG.FC6,EEG.C4,EEG.FC2,EEG.F4,EEG.F8,EEG.Fp2,EEG.RawCq,EEG.Battery,EEG.BatteryPercent,EEG.FwBufferSize,EEG.FwClockTime,MarkerIndex,MarkerType,MarkerValueInt,EEG.MarkerHardware,CQ.Cz,CQ.Fz,CQ.Fp1,CQ.F7,CQ.F3,CQ.FC1,CQ.C3,CQ.FC5,CQ.FT9,CQ.T7,CQ.CP5,CQ.CP1,CQ.P3,CQ.P7,CQ.PO9,CQ.O1,CQ.Pz,CQ.Oz,CQ.O2,CQ.PO10,CQ.P8,CQ.P4,CQ.CP2,CQ.CP6,CQ.T8,CQ.FT10,CQ.FC6,CQ.C4,CQ.FC2,CQ.F4,CQ.F8,CQ.Fp2,CQ.Overall,EQ.SampleRateQuality,EQ.OVERALL,EQ.Cz,EQ.Fz,EQ.Fp1,EQ.F7,EQ.F3,EQ.FC1,EQ.C3,EQ.FC5,EQ.FT9,EQ.T7,EQ.CP5,EQ.CP1,EQ.P3,EQ.P7,EQ.PO9,EQ.O1,EQ.Pz,EQ.Oz,EQ.O2,EQ.PO10,EQ.P8,EQ.P4,EQ.CP2,EQ.CP6,EQ.T8,EQ.FT10,EQ.FC6,EQ.C4,EQ.FC2,EQ.F4,EQ.F8,EQ.Fp2,MOT.CounterMems,MOT.InterpolatedMems,MOT.Q0,MOT.Q1,MOT.Q2,MOT.Q3,MOT.AccX,MOT.AccY,MOT.AccZ,MOT.MagX,MOT.MagY,MOT.MagZ,POW.Cz.Theta,POW.Cz.Alpha,POW.Cz.BetaL,POW.Cz.BetaH,POW.Cz.Gamma,POW.Fz.Theta,POW.Fz.Alpha,POW.Fz.BetaL,POW.Fz.BetaH,POW.Fz.Gamma,POW.Fp1.Theta,POW.Fp1.Alpha,POW.Fp1.BetaL,POW.Fp1.BetaH,POW.Fp1.Gamma,POW.F7.Theta,POW.F7.Alpha,POW.F7.BetaL,POW.F7.BetaH,POW.F7.Gamma,POW.F3.Theta,POW.F3.Alpha,POW.F3.BetaL,POW.F3.BetaH,POW.F3.Gamma,POW.FC1.Theta,POW.FC1.Alpha,POW.FC1.BetaL,POW.FC1.BetaH,POW.FC1.Gamma,POW.C3.Theta,POW.C3.Alpha,POW.C3.BetaL,POW.C3.BetaH,POW.C3.Gamma,POW.FC5.Theta,POW.FC5.Alpha,POW.FC5.BetaL,POW.FC5.BetaH,POW.FC5.Gamma,POW.FT9.Theta,POW.FT9.Alpha,POW.FT9.BetaL,POW.FT9.BetaH,POW.FT9.Gamma,POW.T7.Theta,POW.T7.Alpha,POW.T7.BetaL,POW.T7.BetaH,POW.T7.Gamma,POW.CP5.Theta,POW.CP5.Alpha,POW.CP5.BetaL,POW.CP5.BetaH,POW.CP5.Gamma,POW.CP1.Theta,POW.CP1.Alpha,POW.CP1.BetaL,POW.CP1.BetaH,POW.CP1.Gamma,POW.P3.Theta,POW.P3.Alpha,POW.P3.BetaL,POW.P3.BetaH,POW.P3.Gamma,POW.P7.Theta,POW.P7.Alpha,POW.P7.BetaL,POW.P7.BetaH,POW.P7.Gamma,POW.PO9.Theta,POW.PO9.Alpha,POW.PO9.BetaL,POW.PO9.BetaH,POW.PO9.Gamma,POW.O1.Theta,POW.O1.Alpha,POW.O1.BetaL,POW.O1.BetaH,POW.O1.Gamma,POW.Pz.Theta,POW.Pz.Alpha,POW.Pz.BetaL,POW.Pz.BetaH,POW.Pz.Gamma,POW.Oz.Theta,POW.Oz.Alpha,POW.Oz.BetaL,POW.Oz.BetaH,POW.Oz.Gamma,POW.O2.Theta,POW.O2.Alpha,POW.O2.BetaL,POW.O2.BetaH,POW.O2.Gamma,POW.PO10.Theta,POW.PO10.Alpha,POW.PO10.BetaL,POW.PO10.BetaH,POW.PO10.Gamma,POW.P8.Theta,POW.P8.Alpha,POW.P8.BetaL,POW.P8.BetaH,POW.P8.Gamma,POW.P4.Theta,POW.P4.Alpha,POW.P4.BetaL,POW.P4.BetaH,POW.P4.Gamma,POW.CP2.Theta,POW.CP2.Alpha,POW.CP2.BetaL,POW.CP2.BetaH,POW.CP2.Gamma,POW.CP6.Theta,POW.CP6.Alpha,POW.CP6.BetaL,POW.CP6.BetaH,POW.CP6.Gamma,POW.T8.Theta,POW.T8.Alpha,POW.T8.BetaL,POW.T8.BetaH,POW.T8.Gamma,POW.FT10.Theta,POW.FT10.Alpha,POW.FT10.BetaL,POW.FT10.BetaH,POW.FT10.Gamma,POW.FC6.Theta,POW.FC6.Alpha,POW.FC6.BetaL,POW.FC6.BetaH,POW.FC6.Gamma,POW.C4.Theta,POW.C4.Alpha,POW.C4.BetaL,POW.C4.BetaH,POW.C4.Gamma,POW.FC2.Theta,POW.FC2.Alpha,POW.FC2.BetaL,POW.FC2.BetaH,POW.FC2.Gamma,POW.F4.Theta,POW.F4.Alpha,POW.F4.BetaL,POW.F4.BetaH,POW.F4.Gamma,POW.F8.Theta,POW.F8.Alpha,POW.F8.BetaL,POW.F8.BetaH,POW.F8.Gamma,POW.Fp2.Theta,POW.Fp2.Alpha,POW.Fp2.BetaL,POW.Fp2.BetaH,POW.Fp2.Gamma
1764668154,6013,0,4386.538574,4380.128418,4492.05127,4523.589844,4423.333496,4514.102539,4544.358887,4394.615234,4583.333496,4396.922852,4491.538574,4503.717773,4566.025879,4379.358887,4382.05127,4501.153809,4539.743652,4532.820313,4517.563965,4387.307617,4387.563965,4563.846191,4505.512695,4490.256348,4399.358887,4574.487305,4374.871582,4550.384766,4500,4380.641113,4518.461426,4484.871582,2509,0,10,2573,16138,1,1,5,0,4,4,4,4,4,4,4,4,4,4,4,4,4,4,4,4,4,4,4,4,4,4,4,4,4,4,4,4,4,4,4,4,100,,,,,,,,,,,,,,,,,,,,,,,,,,,,,,,,,,,17887,0,0.353617,-0.5448,-0.316528,0.691345,0.842388,-0.557685,-0.058113,-5.5,46,-6,,,,,,,,,,,,,,,,,,,,,,,,,,,,,,,,,,,,,,,,,,,,,,,,,,,,,,,,,,,,,,,,,,,,,,,,,,,,,,,,,,,,,,,,,,,,,,,,,,,,,,,,,,,,,,,,,,,,,,,,,,,,,,,,,,,,,,,,,,,,,,,,,,,,,,,,,,,,,,,,
1764668154,6014,0,4380.512695,4376.282227,4486.410156,4516.153809,4414.102539,4509.358887,4536.538574,4388.589844,4576.025879,4389.615234,4481.794922,4495.256348,4557.307617,4375.512695,4365.769043,4485.128418,4531.025879,4518.846191,4510.128418,4378.974121,4379.358887,4555,4499.487305,4480.769043,4395.897461,4567.820313,4362.563965,4541.410156,4495.641113,4373.461426,4506.282227,4481.666504,2730,0,10,2574,16145,,,,0,4,4,4,4,4,4,4,4,4,4,4,4,4,4,4,4,4,4,4,4,4,4,4,4,4,4,4,4,4,4,4,4,100,,,,,,,,,,,,,,,,,,,,,,,,,,,,,,,,,,,,,,,,,,,,,,,,,,,,,,,,,,,,,,,,,,,,,,,,,,,,,,,,,,,,,,,,,,,,,,,,,,,,,,,,,,,,,,,,,,,,,,,,,,,,,,,,,,,,,,,,,,,,,,,,,,,,,,,,,,,,,,,,,,,,,,,,,,,,,,,,,,,,,,,,,,,,,,,,,,,,,,,,,,,,,,
1764668154,6015,0,4378.333496,4376.538574,4483.717773,4511.666504,4409.487305,4509.102539,4534.615234,4384.871582,4571.282227,4383.846191,4479.230957,4491.922852,4554.871582,4376.794922,4354.615234,4475.769043,4527.820313,4511.153809,4504.102539,4375.769043,4379.230957,4551.025879,4498.461426,4476.794922,4393.205078,4565.128418,4358.205078,4535.256348,4495.512695,4371.410156,4498.333496,4481.153809,2794,0,10,2574,16145,,,,0,4,4,4,4,4,4,4,4,4,4,4,4,4,4,4,4,4,4,4,4,4,4,4,4,4,4,4,4,4,4,4,4,100,,,,,,,,,,,,,,,,,,,,,,,,,,,,,,,,,,,,,,,,,,,,,,,,,,,,,,,,,,,,,,,,,,,,,,,,,,,,,,,,,,,,,,,,,,,,,,,,,,,,,,,,,,,,,,,,,,,,,,,,,,,,,,,,,,,,,,,,,,,,,,,,,,,,,,,,,,,,,,,,,,,,,,,,,,,,,,,,,,,,,,,,,,,,,,,,,,,,,,,,,,,,,,
1764668154,6016,0,4381.922852,4382.05127,4487.05127,4511.922852,4412.307617,4514.487305,4540,4385.769043,4571.538574,4382.179688,4484.615234,4497.179688,4559.230957,4382.179688,4353.077148,4476.410156,4531.922852,4513.205078,4503.077148,4380.641113,4387.563965,4554.358887,4503.077148,4480.897461,4393.717773,4568.205078,4364.358887,4535.897461,4500.512695,4376.666504,4501.153809,4485.256348,2810,0,10,2575,16153,,,,0,4,4,4,4,4,4,4,4,4,4,4,4,4,4,4,4,4,4,4,4,4,4,4,4,4,4,4,4,4,4,4,4,100,,,,,,,,,,,,,,,,,,,,,,,,,,,,,,,,,,,,,,,,,,,,,,,,,,,,,,,,,,,,,,,,,,,,,,,,,,,,,,,,,,,,,,,,,,,,,,,,,,,,,,,,,,,,,,,,,,,,,,,,,,,,,,,,,,,,,,,,,,,,,,,,,,,,,,,,,,,,,,,,,,,,,,,,,,,,,,,,,,,,,,,,,,,,,,,,,,,,,,,,,,,,,,
1764668154,6017,0,4389.358887,4391.153809,4495.897461,4516.153809,4420.256348,4522.94873,4549.743652,4390.769043,4575.769043,4386.025879,4493.589844,4508.333496,4566.794922,4388.589844,4360.641113,4484.871582,4541.282227,4522.563965,4507.563965,4391.666504,4399.743652,4562.820313,4510.641113,4491.025879,4396.794922,4575.512695,4377.563965,4543.205078,4508.461426,4387.05127,4515,4493.846191,2917,0,10,2575,16153,,,,0,4,4,4,4,4,4,4,4,4,4,4,4,4,4,4,4,4,4,4,4,4,4,4,4,4,4,4,4,4,4,4,4,100,,,,,,,,,,,,,,,,,,,,,,,,,,,,,,,,,,,17888,0,0.353523,-0.544861,-0.316528,0.691345,0.831156,-0.547918,-0.053717,-8.333333,46.666668,-6.833333,,,,,,,,,,,,,,,,,,,,,,,,,,,,,,,,,,,,,,,,,,,,,,,,,,,,,,,,,,,,,,,,,,,,,,,,,,,,,,,,,,,,,,,,,,,,,,,,,,,,,,,,,,,,,,,,,,,,,,,,,,,,,,,,,,,,,,,,,,,,,,,,,,,,,,,,,,,,,,,,
1764668154,6018,0,4395.641113,4398.974121,4505.256348,4521.025879,4427.179688,4529.615234,4557.692383,4395.769043,4580,4393.205078,4499.615234,4518.589844,4572.307617,4392.307617,4371.666504,4494.743652,4551.025879,4532.563965,4514.230957,4402.179688,4408.846191,4571.410156,4516.666504,4500.512695,4398.589844,4582.94873,4390.256348,4552.05127,4514.615234,4396.282227,4531.794922,4502.820313,2689,0,10,2576,16161,,,,0,4,4,4,4,4,4,4,4,4,4,4,4,4,4,4,4,4,4,4,4,4,4,4,4,4,4,4,4,4,4,4,4,100,,,,,,,,,,,,,,,,,,,,,,,,,,,,,,,,,,,,,,,,,,,,,,,,,,,,,,,,,,,,,,,,,,,,,,,,,,,,,,,,,,,,,,,,,,,,,,,,,,,,,,,,,,,,,,,,,,,,,,,,,,,,,,,,,,,,,,,,,,,,,,,,,,,,,,,,,,,,,,,,,,,,,,,,,,,,,,,,,,,,,,,,,,,,,,,,,,,,,,,,,,,,,,
1764668154,6019,0,4396.410156,4401.794922,4509.230957,4523.205078,4428.077148,4530.897461,4559.230957,4396.666504,4580.769043,4399.487305,4499.487305,4522.307617,4572.820313,4392.179688,4380.128418,4501.538574,4556.153809,4538.077148,4518.717773,4405.897461,4410.769043,4575.128418,4518.205078,4503.974121,4396.794922,4586.410156,4396.153809,4557.563965,4515.769043,4399.230957,4541.794922,4506.794922,2866,0,10,2576,16161,,,,0,4,4,4,4,4,4,4,4,4,4,4,4,4,4,4,4,4,4,4,4,4,4,4,4,4,4,4,4,4,4,4,4,100,,,,,,,,,,,,,,,,,,,,,,,,,,,,,,,,,,,,,,,,,,,,,,,,,,,,,,,,,,,,,,,,,,,,,,,,,,,,,,,,,,,,,,,,,,,,,,,,,,,,,,,,,,,,,,,,,,,,,,,,,,,,,,,,,,,,,,,,,,,,,,,,,,,,,,,,,,,,,,,,,,,,,,,,,,,,,,,,,,,,,,,,,,,,,,,,,,,,,,,,,,,,,,
1764668154,6020,0,4392.307617,4399.102539,4506.794922,4522.436035,4423.589844,4527.563965,4554.871582,4393.077148,4578.333496,4401.794922,4495.512695,4519.230957,4570.384766,4390,4384.230957,4504.871582,4556.282227,4539.615234,4519.871582,4401.922852,4407.179688,4574.230957,4516.666504,4500.897461,4394.230957,4585.769043,4394.358887,4558.333496,4512.436035,4396.153809,4541.410156,4504.230957,2765,0,10,2576,16169,,,,0,4,4,4,4,4,4,4,4,4,4,4,4,4,4,4,4,4,4,4,4,4,4,4,4,4,4,4,4,4,4,4,4,100,,,,,,,,,,,,,,,,,,,,,,,,,,,,,,,,,,,,,,,,,,,,,,,,,,,,,,,,,,,,,,,,,,,,,,,,,,,,,,,,,,,,,,,,,,,,,,,,,,,,,,,,,,,,,,,,,,,,,,,,,,,,,,,,,,,,,,,,,,,,,,,,,,,,,,,,,,,,,,,,,,,,,,,,,,,,,,,,,,,,,,,,,,,,,,,,,,,,,,,,,,,,,,
1764668154,6021,0,4387.436035,4394.743652,4501.538574,4520.769043,4418.333496,4524.487305,4549.487305,4388.077148,4576.153809,4401.153809,4492.563965,4514.358887,4569.230957,4389.358887,4385.641113,4507.436035,4554.230957,4541.282227,4519.743652,4394.871582,4403.077148,4572.692383,4515.512695,4496.153809,4396.153809,4583.717773,4388.717773,4556.922852,4508.461426,4391.282227,4534.358887,4498.077148,2828,0,10,2576,16169,,,,0,4,4,4,4,4,4,4,4,4,4,4,4,4,4,4,4,4,4,4,4,4,4,4,4,4,4,4,4,4,4,4,4,100,,,,,,,,,,,,,,,,,,,,,,,,,,,,,,,,,,,17889,0,0.353523,-0.544861,-0.316528,0.691345,0.8419,-0.551337,-0.049322,-6.333333,44.333332,-6.833333,,,,,,,,,,,,,,,,,,,,,,,,,,,,,,,,,,,,,,,,,,,,,,,,,,,,,,,,,,,,,,,,,,,,,,,,,,,,,,,,,,,,,,,,,,,,,,,,,,,,,,,,,,,,,,,,,,,,,,,,,,,,,,,,,,,,,,,,,,,,,,,,,,,,,,,,,,,,,,,,
1764668154,6022,0,4385.769043,4392.563965,4498.205078,4520.512695,4416.794922,4525,4547.563965,4385.512695,4576.922852,4402.05127,4493.717773,4512.436035,4571.538574,4392.05127,4386.538574,4510.256348,4553.589844,4545.769043,4521.794922,4390.897461,4401.922852,4574.358887,4517.179688,4495.256348,4405.128418,4583.205078,4384.487305,4556.282227,4507.05127,4389.102539,4527.692383,4492.692383,2824,0,10,2576,16177,,,,0,4,4,4,4,4,4,4,4,4,4,4,4,4,4,4,4,4,4,4,4,4,4,4,4,4,4,4,4,4,4,4,4,100,,,,,,,,,,,,,,,,,,,,,,,,,,,,,,,,,,,,,,,,,,,,,,,,,,,,,,,,,,,,,,,,,,,,,,,,,,,,,,,,,,,,,,,,,,,,,,,,,,,,,,,,,,,,,,,,,,,,,,,,,,,,,,,,,,,,,,,,,,,,,,,,,,,,,,,,,,,,,,,,,,,,,,,,,,,,,,,,,,,,,,,,,,,,,,,,,,,,,,,,,,,,,,
1764668154,6023,0,4387.179688,4393.333496,4498.589844,4521.794922,4419.615234,4528.589844,4549.487305,4386.922852,4580.384766,4406.666504,4498.333496,4514.871582,4575.512695,4396.410156,4387.05127,4511.666504,4555,4551.410156,4526.538574,4392.563965,4403.717773,4579.358887,4520.769043,4499.102539,4417.05127,4584.230957,4383.846191,4556.794922,4508.589844,4390.128418,4525.128418,4490.128418,3005,0,10,2576,16177,,,,0,4,4,4,4,4,4,4,4,4,4,4,4,4,4,4,4,4,4,4,4,4,4,4,4,4,4,4,4,4,4,4,4,100,,,,,,,,,,,,,,,,,,,,,,,,,,,,,,,,,,,,,,,,,,,,,,,,,,,,,,,,,,,,,,,,,,,,,,,,,,,,,,,,,,,,,,,,,,,,,,,,,,,,,,,,,,,,,,,,,,,,,,,,,,,,,,,,,,,,,,,,,,,,,,,,,,,,,,,,,,,,,,,,,,,,,,,,,,,,,,,,,,,,,,,,,,,,,,,,,,,,,,,,,,,,,,
1764668154,6024,0,4389.230957,4394.743652,4501.153809,4522.820313,4423.205078,4530.897461,4551.538574,4390.641113,4583.974121,4412.436035,4502.820313,4518.717773,4577.179688,4398.974121,4385.256348,4509.358887,4556.538574,4553.333496,4530.512695,4396.922852,4405.512695,4584.230957,4522.94873,4504.358887,4424.230957,4584.743652,4384.743652,4556.922852,4510.769043,4391.538574,4524.871582,4489.743652,2911,0,10,2576,16184,,,,0,4,4,4,4,4,4,4,4,4,4,4,4,4,4,4,4,4,4,4,4,4,4,4,4,4,4,4,4,4,4,4,4,100,,,,,,,,,,,,,,,,,,,,,,,,,,,,,,,,,,,,,,,,,,,,,,,,,,,,,,,,,,,,,,,,,,,,,,,,,,,,,,,,,,,,,,,,,,,,,,,,,,,,,,,,,,,,,,,,,,,,,,,,,,,,,,,,,,,,,,,,,,,,,,,,,,,,,,,,,,,,,,,,,,,,,,,,,,,,,,,,,,,,,,,,,,,,,,,,,,,,,,,,,,,,,,
1764668154,6025,0,4388.717773,4394.230957,4501.794922,4522.179688,4423.333496,4527.94873,4550.128418,4393.461426,4584.487305,4413.205078,4503.333496,4519.743652,4574.230957,4397.692383,4380.641113,4503.077148,4555.128418,4547.692383,4529.230957,4399.230957,4404.230957,4583.974121,4521.153809,4505.897461,4420.769043,4582.820313,4383.589844,4554.358887,4510.769043,4390,4521.922852,4489.871582,2757,0,10,2576,16184,,,,0,4,4,4,4,4,4,4,4,4,4,4,4,4,4,4,4,4,4,4,4,4,4,4,4,4,4,4,4,4,4,4,4,100,,,,,,,,,,,,,,,,,,,,,,,,,,,,,,,,,,,17890,0,0.353552,-0.5448,-0.316467,0.691406,0.833598,-0.542547,-0.051276,-6.666667,45.5,-7.666667,,,,,,,,,,,,,,,,,,,,,,,,,,,,,,,,,,,,,,,,,,,,,,,,,,,,,,,,,,,,,,,,,,,,,,,,,,,,,,,,,,,,,,,,,,,,,,,,,,,,,,,,,,,,,,,,,,,,,,,,,,,,,,,,,,,,,,,,,,,,,,,,,,,,,,,,,,,,,,,,
1764668154,6026,0,4384.615234,4390.512695,4498.461426,4520.897461,4418.717773,4520.256348,4545.128418,4393.333496,4581.538574,4405.128418,4498.846191,4516.282227,4567.94873,4393.333496,4374.871582,4495.512695,4550.128418,4535.769043,4520.897461,4396.282227,4398.974121,4576.666504,4515.512695,4501.666504,4406.922852,4578.333496,4378.974121,4549.615234,4507.94873,4385.256348,4514.358887,4489.487305,2609,0,10,2576,16192,,,,0,4,4,4,4,4,4,4,4,4,4,4,4,4,4,4,4,4,4,4,4,4,4,4,4,4,4,4,4,4,4,4,4,100,,,,,,,,,,,,,,,,,,,,,,,,,,,,,,,,,,,,,,,,,,,,,,,,,,,,,,,,,,,,,,,,,,,,,,,,,,,,,,,,,,,,,,,,,,,,,,,,,,,,,,,,,,,,,,,,,,,,,,,,,,,,,,,,,,,,,,,,,,,,,,,,,,,,,,,,,,,,,,,,,,,,,,,,,,,,,,,,,,,,,,,,,,,,,,,,,,,,,,,,,,,,,,
1764668154,6027,0,4379.230957,4385.384766,4491.282227,4520.256348,4412.179688,4512.307617,4539.230957,4390.641113,4577.820313,4390,4491.538574,4510.256348,4562.692383,4389.230957,4371.153809,4490,4543.077148,4523.461426,4508.974121,4389.871582,4391.282227,4565.256348,4508.717773,4493.846191,4388.333496,4573.333496,4373.846191,4546.153809,4503.974121,4379.615234,4505.256348,4488.974121,2730,0,10,2576,16192,,,,0,4,4,4,4,4,4,4,4,4,4,4,4,4,4,4,4,4,4,4,4,4,4,4,4,4,4,4,4,4,4,4,4,100,,,,,,,,,,,,,,,,,,,,,,,,,,,,,,,,,,,,,,,,,,,,,,,,,,,,,,,,,,,,,,,,,,,,,,,,,,,,,,,,,,,,,,,,,,,,,,,,,,,,,,,,,,,,,,,,,,,,,,,,,,,,,,,,,,,,,,,,,,,,,,,,,,,,,,,,,,,,,,,,,,,,,,,,,,,,,,,,,,,,,,,,,,,,,,,,,,,,,,,,,,,,,,
1764668154,6028,0,4376.025879,4381.794922,4483.589844,4520.256348,4408.717773,4509.102539,4535.512695,4387.820313,4576.666504,4374.615234,4485.897461,4505.641113,4561.922852,4387.94873,4371.153809,4488.589844,4537.179688,4517.307617,4500,4383.589844,4383.974121,4556.153809,4504.230957,4487.05127,4372.563965,4570.512695,4372.179688,4547.05127,4501.410156,4376.538574,4500.641113,4488.461426,2512,0,10,2576,16200,,,,0,4,4,4,4,4,4,4,4,4,4,4,4,4,4,4,4,4,4,4,4,4,4,4,4,4,4,4,4,4,4,4,4,100,,,,,,,,,,,,,,,,,,,,,,,,,,,,,,,,,,,,,,,,,,,,,,,,,,,,,,,,,,,,,,,,,,,,,,,,,,,,,,,,,,,,,,,,,,,,,,,,,,,,,,,,,,,,,,,,,,,,,,,,,,,,,,,,,,,,,,,,,,,,,,,,,,,,,,,,,,,,,,,,,,,,,,,,,,,,,,,,,,,,,,,,,,,,,,,,,,,,,,,,,,,,,,
1764668154,6029,0,4376.922852,4381.538574,4478.717773,4519.487305,4409.871582,4511.282227,4534.358887,4385.769043,4579.358887,4365.256348,4484.487305,4504.358887,4565.384766,4388.846191,4373.589844,4490.769043,4535.128418,4518.974121,4498.077148,4380,4378.717773,4553.846191,4503.205078,4484.358887,4363.974121,4570.897461,4375.384766,4552.05127,4501.794922,4377.692383,4503.974121,4487.94873,2292,0,10,2576,16200,,,,0,4,4,4,4,4,4,4,4,4,4,4,4,4,4,4,4,4,4,4,4,4,4,4,4,4,4,4,4,4,4,4,4,100,,,,,,,,,,,,,,,,,,,,,,,,,,,,,,,,,,,17891,0,0.353599,-0.544495,-0.316406,0.69165,0.83897,-0.562569,-0.059578,-4.833333,46.166668,-6.666667,,,,,,,,,,,,,,,,,,,,,,,,,,,,,,,,,,,,,,,,,,,,,,,,,,,,,,,,,,,,,,,,,,,,,,,,,,,,,,,,,,,,,,,,,,,,,,,,,,,,,,,,,,,,,,,,,,,,,,,,,,,,,,,,,,,,,,,,,,,,,,,,,,,,,,,,,,,,,,,,
1764668154,6030,0,4379.615234,4383.205078,4478.205078,4516.410156,4413.461426,4515.128418,4533.717773,4384.102539,4583.077148,4364.487305,4487.179688,4504.487305,4568.717773,4388.846191,4374.358887,4493.333496,4536.153809,4523.846191,4501.282227,4378.974121,4375.897461,4556.666504,4504.102539,4485.128418,4363.717773,4573.077148,4380.769043,4556.922852,4503.846191,4380.897461,4512.563965,4486.922852,2739,0,10,2572,16208,,,,0,4,4,4,4,4,4,4,4,4,4,4,4,4,4,4,4,4,4,4,4,4,4,4,4,4,4,4,4,4,4,4,4,100,,,,,,,,,,,,,,,,,,,,,,,,,,,,,,,,,,,,,,,,,,,,,,,,,,,,,,,,,,,,,,,,,,,,,,,,,,,,,,,,,,,,,,,,,,,,,,,,,,,,,,,,,,,,,,,,,,,,,,,,,,,,,,,,,,,,,,,,,,,,,,,,,,,,,,,,,,,,,,,,,,,,,,,,,,,,,,,,,,,,,,,,,,,,,,,,,,,,,,,,,,,,,,
1764668154,6031,0,4380.384766,4383.461426,4481.153809,4511.282227,4415.641113,4515.641113,4531.410156,4381.410156,4583.333496,4370.641113,4490.641113,4502.563965,4567.307617,4385.641113,4370.512695,4493.589844,4537.692383,4525.384766,4504.230957,4378.974121,4374.743652,4559.230957,4504.487305,4486.025879,4369.358887,4574.230957,4383.846191,4557.307617,4504.358887,4382.307617,4520.384766,4485.128418,2467,0,10,2572,16208,,,,0,4,4,4,4,4,4,4,4,4,4,4,4,4,4,4,4,4,4,4,4,4,4,4,4,4,4,4,4,4,4,4,4,100,,,,,,,,,,,,,,,,,,,,,,,,,,,,,,,,,,,,,,,,,,,,,,,,,,,,,,,,,,,,,,,,,,,,,,,,,,,,,,,,,,,,,,,,,,,,,,,,,,,,,,,,,,,,,,,,,,,,,,,,,,,,,,,,,,,,,,,,,,,,,,,,,,,,,,,,,,,,,,,,,,,,,,,,,,,,,,,,,,,,,,,,,,,,,,,,,,,,,,,,,,,,,,
1764668154,6032,0,4377.436035,4380.512695,4484.743652,4507.179688,4414.358887,4511.666504,4527.692383,4377.94873,4578.461426,4380.512695,4491.538574,4497.692383,4561.025879,4380.769043,4363.461426,4491.153809,4536.922852,4521.282227,4503.205078,4379.102539,4375.128418,4557.307617,4503.333496,4483.974121,4377.94873,4572.94873,4382.563965,4552.307617,4501.922852,4379.871582,4523.717773,4483.333496,2896,0,10,2568,16216,,,,0,4,4,4,4,4,4,4,4,4,4,4,4,4,4,4,4,4,4,4,4,4,4,4,4,4,4,4,4,4,4,4,4,100,,,,,,,,,,,,,,,,,,,,,,,,,,,,,,,,,,,,,,,,,,,,,,,1.686285,1.576963,0.593386,0.447444,0.415063,1.674773,1.399381,0.510834,0.477959,0.5432,13.693268,3.82916,0.830746,0.51693,0.817939,3.173549,1.469007,0.264387,0.382325,0.581627,2.232679,1.922326,0.270789,0.457068,0.512578,1.059367,1.510913,0.629698,0.374243,0.467749,1.020032,1.267441,0.496852,0.432758,0.388397,1.194553,1.225134,0.516544,0.49693,0.570754,1.249926,2.048659,0.3618,0.540438,0.658509,0.855183,1.015796,0.521979,1.50628,1.676582,0.672777,0.666675,0.437897,0.243326,0.417785,1.046699,0.941561,0.487998,0.335288,0.374909,0.822564,0.812323,0.347739,0.252357,0.431795,0.97769,0.470725,0.675365,0.489252,0.288111,0.895818,0.818569,0.549007,0.687165,0.720614,1.006149,4.019877,2.138749,0.750401,0.940472,1.644864,1.856695,0.765482,0.324422,0.652876,1.519807,5.025093,1.83285,1.06524,1.361793,0.501677,3.073614,1.54656,0.900665,1.21034,0.563295,1.428273,2.523821,0.469518,0.775374,0.386022,2.515783,2.756791,0.70008,0.898107,1.17136,2.52421,1.998536,0.369781,0.763629,1.289248,1.180152,1.030482,0.426227,0.427712,1.329433,2.169903,1.563479,0.488672,0.720816,1.4265,3.90974,9.21768,3.883951,1.610169,0.791128,1.789926,0.939245,0.476994,0.338722,1.519049,1.842834,0.726663,0.739488,0.687887,1.858639,1.851296,1.734337,0.686993,0.59996,0.762648,0.599833,0.415297,0.265977,0.20083,2.265592,2.177945,0.591474,0.571613,0.506118,2.34904,2.86238,0.760857,1.042024,1.004889,13.541531,3.702838,1.359124,0.594764,0.67816
1764668154,6033,0,4373.333496,4376.282227,4487.692383,4507.692383,4411.025879,4506.794922,4525.897461,4376.282227,4572.307617,4391.282227,4489.487305,4493.461426,4554.358887,4378.333496,4358.717773,4488.974121,4534.743652,4515.641113,4500,4380.128418,4377.820313,4552.563965,4501.410156,4479.230957,4386.666504,4570.641113,4379.487305,4545.641113,4498.077148,4375.512695,4523.205078,4483.077148,2923,0,10,2568,16216,,,,0,4,4,4,4,4,4,4,4,4,4,4,4,4,4,4,4,4,4,4,4,4,4,4,4,4,4,4,4,4,4,4,4,100,,,,,,,,,,,,,,,,,,,,,,,,,,,,,,,,,,,17892,0,0.353534,-0.544495,-0.316345,0.691711,0.829691,-0.551337,-0.042486,-7,45.5,-6,,,,,,,,,,,,,,,,,,,,,,,,,,,,,,,,,,,,,,,,,,,,,,,,,,,,,,,,,,,,,,,,,,,,,,,,,,,,,,,,,,,,,,,,,,,,,,,,,,,,,,,,,,,,,,,,,,,,,,,,,,,,,,,,,,,,,,,,,,,,,,,,,,,,,,,,,,,,,,,,
1764668154,6034,0,4372.05127,4374.615234,4491.538574,4513.846191,4409.230957,4506.410156,4528.589844,4379.102539,4571.153809,4401.282227,4487.820313,4494.487305,4552.820313,4381.538574,4361.538574,4490.384766,4533.589844,4515.256348,4500.256348,4383.974121,4383.846191,4549.871582,4500.769043,4475.897461,4394.487305,4570.384766,4378.333496,4542.05127,4496.025879,4373.461426,4522.05127,4485.641113,1756,0,10,2567,16223,,,,0,4,4,4,4,4,4,4,4,4,4,4,4,4,4,4,4,4,4,4,4,4,4,4,4,4,4,4,4,4,4,4,4,100,,,,,,,,,,,,,,,,,,,,,,,,,,,,,,,,,,,,,,,,,,,,,,,,,,,,,,,,,,,,,,,,,,,,,,,,,,,,,,,,,,,,,,,,,,,,,,,,,,,,,,,,,,,,,,,,,,,,,,,,,,,,,,,,,,,,,,,,,,,,,,,,,,,,,,,,,,,,,,,,,,,,,,,,,,,,,,,,,,,,,,,,,,,,,,,,,,,,,,,,,,,,,,
1764668154,6035,0,4375.256348,4378.205078,4498.077148,4522.563965,4411.025879,4512.563965,4535.769043,4386.666504,4577.820313,4408.589844,4489.487305,4501.025879,4558.589844,4389.230957,4371.410156,4496.794922,4535.512695,4524.230957,4507.94873,4391.666504,4393.077148,4553.077148,4503.077148,4477.563965,4402.563965,4574.487305,4380.641113,4543.333496,4497.820313,4375.897461,4521.794922,4490.641113,2784,0,10,2567,16223,,,,0,4,4,4,4,4,4,4,4,4,4,4,4,4,4,4,4,4,4,4,4,4,4,4,4,4,4,4,4,4,4,4,4,100,,,,,,,,,,,,,,,,,,,,,,,,,,,,,,,,,,,,,,,,,,,,,,,,,,,,,,,,,,,,,,,,,,,,,,,,,,,,,,,,,,,,,,,,,,,,,,,,,,,,,,,,,,,,,,,,,,,,,,,,,,,,,,,,,,,,,,,,,,,,,,,,,,,,,,,,,,,,,,,,,,,,,,,,,,,,,,,,,,,,,,,,,,,,,,,,,,,,,,,,,,,,,,
1764668154,6036,0,4380.512695,4385.384766,4506.153809,4528.846191,4415.128418,4522.05127,4543.205078,4395.641113,4587.94873,4412.05127,4494.102539,4509.102539,4568.205078,4396.922852,4382.563965,4506.410156,4539.230957,4539.743652,4522.05127,4400.769043,4403.077148,4561.410156,4508.333496,4484.743652,4412.692383,4581.538574,4383.333496,4547.820313,4502.05127,4381.282227,4520.384766,4495.512695,2595,0,10,2568,16231,,,,0,4,4,4,4,4,4,4,4,4,4,4,4,4,4,4,4,4,4,4,4,4,4,4,4,4,4,4,4,4,4,4,4,100,,,,,,,,,,,,,,,,,,,,,,,,,,,,,,,,,,,,,,,,,,,,,,,,,,,,,,,,,,,,,,,,,,,,,,,,,,,,,,,,,,,,,,,,,,,,,,,,,,,,,,,,,,,,,,,,,,,,,,,,,,,,,,,,,,,,,,,,,,,,,,,,,,,,,,,,,,,,,,,,,,,,,,,,,,,,,,,,,,,,,,,,,,,,,,,,,,,,,,,,,,,,,,
1764668154,6037,0,4383.846191,4391.282227,4511.025879,4530,4418.717773,4528.717773,4546.410156,4401.153809,4593.717773,4410.897461,4498.077148,4513.333496,4575.769043,4399.615234,4387.94873,4514.358887,4541.922852,4553.974121,4535.512695,4407.179688,4409.358887,4570.512695,4514.230957,4493.461426,4424.358887,4587.820313,4382.179688,4551.922852,4505.384766,4385.384766,4515,4496.666504,2828,0,10,2568,16231,,,,0,4,4,4,4,4,4,4,4,4,4,4,4,4,4,4,4,4,4,4,4,4,4,4,4,4,4,4,4,4,4,4,4,100,,,,,,,,,,,,,,,,,,,,,,,,,,,,,,,,,,,17893,0,0.35356,-0.544556,-0.316345,0.69165,0.829691,-0.551337,-0.042486,-6.666667,45.166668,-6.833333,,,,,,,,,,,,,,,,,,,,,,,,,,,,,,,,,,,,,,,,,,,,,,,,,,,,,,,,,,,,,,,,,,,,,,,,,,,,,,,,,,,,,,,,,,,,,,,,,,,,,,,,,,,,,,,,,,,,,,,,,,,,,,,,,,,,,,,,,,,,,,,,,,,,,,,,,,,,,,,,
1764668154,6038,0,4382.820313,4392.436035,4509.358887,4526.794922,4420.512695,4528.717773,4543.974121,4399.871582,4591.282227,4406.410156,4498.461426,4511.666504,4576.410156,4396.025879,4385.512695,4516.410156,4541.666504,4560,4541.025879,4407.563965,4408.974121,4575.256348,4518.333496,4499.358887,4434.743652,4590.128418,4376.282227,4553.205078,4505.384766,4385.769043,4507.820313,4493.205078,2943,0,10,2563,16239,,,,0,4,4,4,4,4,4,4,4,4,4,4,4,4,4,4,4,4,4,4,4,4,4,4,4,4,4,4,4,4,4,4,4,100,,,,,,,,,,,,,,,,,,,,,,,,,,,,,,,,,,,,,,,,,,,,,,,,,,,,,,,,,,,,,,,,,,,,,,,,,,,,,,,,,,,,,,,,,,,,,,,,,,,,,,,,,,,,,,,,,,,,,,,,,,,,,,,,,,,,,,,,,,,,,,,,,,,,,,,,,,,,,,,,,,,,,,,,,,,,,,,,,,,,,,,,,,,,,,,,,,,,,,,,,,,,,,
1764668154,6039,0,4379.230957,4389.230957,4502.436035,4522.94873,4421.922852,4522.820313,4538.974121,4392.307617,4583.461426,4401.025879,4495.641113,4506.282227,4570.512695,4389.230957,4378.333496,4511.538574,4539.230957,4555.641113,4536.153809,4403.205078,4402.692383,4573.717773,4519.102539,4500.512695,4438.974121,4588.461426,4370.384766,4552.436035,4503.205078,4383.077148,4504.358887,4488.461426,2864,0,10,2563,16239,,,,0,4,4,4,4,4,4,4,4,4,4,4,4,4,4,4,4,4,4,4,4,4,4,4,4,4,4,4,4,4,4,4,4,100,,,,,,,,,,,,,,,,,,,,,,,,,,,,,,,,,,,,,,,,,,,,,,,,,,,,,,,,,,,,,,,,,,,,,,,,,,,,,,,,,,,,,,,,,,,,,,,,,,,,,,,,,,,,,,,,,,,,,,,,,,,,,,,,,,,,,,,,,,,,,,,,,,,,,,,,,,,,,,,,,,,,,,,,,,,,,,,,,,,,,,,,,,,,,,,,,,,,,,,,,,,,,,
1764668154,6040,0,4376.666504,4385.256348,4494.743652,4521.025879,4424.615234,4515.512695,4535.384766,4382.436035,4576.666504,4396.025879,4493.077148,4501.410156,4562.436035,4384.358887,4371.794922,4502.05127,4536.794922,4544.615234,4524.487305,4398.589844,4394.871582,4568.717773,4517.563965,4497.692383,4432.307617,4585.384766,4370.512695,4551.153809,4501.282227,4380.641113,4508.717773,4486.794922,2733,0,10,2563,16247,,,,0,4,4,4,4,4,4,4,4,4,4,4,4,4,4,4,4,4,4,4,4,4,4,4,4,4,4,4,4,4,4,4,4,100,,,,,,,,,,,,,,,,,,,,,,,,,,,,,,,,,,,,,,,,,,,,,,,,,,,,,,,,,,,,,,,,,,,,,,,,,,,,,,,,,,,,,,,,,,,,,,,,,,,,,,,,,,,,,,,,,,,,,,,,,,,,,,,,,,,,,,,,,,,,,,,,,,,,,,,,,,,,,,,,,,,,,,,,,,,,,,,,,,,,,,,,,,,,,,,,,,,,,,,,,,,,,,
1764668154,6041,0,4377.563965,4384.230957,4490.641113,4521.025879,4428.205078,4511.538574,4535,4374.487305,4575.384766,4391.794922,4493.589844,4499.743652,4557.563965,4383.589844,4369.358887,4492.820313,4536.153809,4533.717773,4512.94873,4397.820313,4389.871582,4565,4515.512695,4494.102539,4413.333496,4583.077148,4378.589844,4550.769043,4501.410156,4380.897461,4519.615234,4490,2888,0,10,2563,16247,,,,0,4,4,4,4,4,4,4,4,4,4,4,4,4,4,4,4,4,4,4,4,4,4,4,4,4,4,4,4,4,4,4,4,100,,,,,,,,,,,,,,,,,,,,,,,,,,,,,,,,,,,17894,0,0.353614,-0.544556,-0.316284,0.69165,0.835551,-0.562569,-0.047369,-5.833333,45.166668,-7.166667,,,,,,,,,,,,,,,,,,,,,,,,,,,,,,,,,,,,,,,,,,,,,,,,,,,,,,,,,,,,,,,,,,,,,,,,,,,,,,,,,,,,,,,,,,,,,,,,,,,,,,,,,,,,,,,,,,,,,,,,,,,,,,,,,,,,,,,,,,,,,,,,,,,,,,,,,,,,,,,,
1764668154,6042,0,4381.410156,4387.179688,4491.410156,4521.666504,4430,4513.077148,4536.922852,4371.794922,4579.487305,4388.846191,4497.94873,4501.794922,4557.820313,4386.538574,4371.153809,4488.974121,4537.563965,4528.717773,4507.05127,4400.641113,4390,4565.769043,4515.128418,4492.307617,4387.436035,4582.692383,4390.256348,4552.05127,4503.589844,4384.358887,4531.025879,4496.538574,1852,0,10,2564,16255,,,,0,4,4,4,4,4,4,4,4,4,4,4,4,4,4,4,4,4,4,4,4,4,4,4,4,4,4,4,4,4,4,4,4,100,,,,,,,,,,,,,,,,,,,,,,,,,,,,,,,,,,,,,,,,,,,,,,,,,,,,,,,,,,,,,,,,,,,,,,,,,,,,,,,,,,,,,,,,,,,,,,,,,,,,,,,,,,,,,,,,,,,,,,,,,,,,,,,,,,,,,,,,,,,,,,,,,,,,,,,,,,,,,,,,,,,,,,,,,,,,,,,,,,,,,,,,,,,,,,,,,,,,,,,,,,,,,,
1764668154,6043,0,4386.025879,4392.692383,4496.153809,4522.307617,4428.974121,4518.461426,4539.871582,4375.256348,4586.025879,4387.94873,4503.974121,4506.538574,4561.666504,4390.769043,4375.769043,4493.205078,4540.128418,4531.282227,4508.846191,4404.230957,4393.846191,4569.615234,4517.179688,4492.820313,4366.410156,4583.717773,4398.846191,4554.743652,4506.282227,4389.743652,4537.05127,4503.333496,2503,0,10,2564,16255,,,,0,4,4,4,4,4,4,4,4,4,4,4,4,4,4,4,4,4,4,4,4,4,4,4,4,4,4,4,4,4,4,4,4,100,,,,,,,,,,,,,,,,,,,,,,,,,,,,,,,,,,,,,,,,,,,,,,,,,,,,,,,,,,,,,,,,,,,,,,,,,,,,,,,,,,,,,,,,,,,,,,,,,,,,,,,,,,,,,,,,,,,,,,,,,,,,,,,,,,,,,,,,,,,,,,,,,,,,,,,,,,,,,,,,,,,,,,,,,,,,,,,,,,,,,,,,,,,,,,,,,,,,,,,,,,,,,,
1764668154,6044,0,4388.717773,4397.94873,4502.692383,4523.589844,4426.153809,4523.846191,4542.692383,4382.436035,4591.282227,4389.871582,4507.820313,4511.794922,4565.641113,4394.487305,4380.512695,4502.563965,4542.436035,4537.94873,4515.641113,4404.743652,4397.179688,4572.563965,4519.615234,4493.846191,4360.256348,4585.128418,4399.230957,4557.436035,4507.820313,4393.974121,4535.897461,4507.307617,2714,0,10,2565,16263,,,,0,4,4,4,4,4,4,4,4,4,4,4,4,4,4,4,4,4,4,4,4,4,4,4,4,4,4,4,4,4,4,4,4,100,,,,,,,,,,,,,,,,,,,,,,,,,,,,,,,,,,,,,,,,,,,,,,,,,,,,,,,,,,,,,,,,,,,,,,,,,,,,,,,,,,,,,,,,,,,,,,,,,,,,,,,,,,,,,,,,,,,,,,,,,,,,,,,,,,,,,,,,,,,,,,,,,,,,,,,,,,,,,,,,,,,,,,,,,,,,,,,,,,,,,,,,,,,,,,,,,,,,,,,,,,,,,,
1764668155,6045,0,4387.563965,4399.358887,4507.436035,4525.128418,4423.461426,4525,4543.846191,4388.589844,4592.692383,4393.077148,4506.538574,4515,4566.922852,4395.897461,4382.563965,4510.512695,4543.077148,4542.436035,4520.897461,4401.538574,4396.025879,4571.025879,4519.743652,4492.179688,4369.358887,4585.769043,4392.179688,4558.077148,4506.794922,4393.461426,4529.358887,4506.666504,2501,0,10,2565,16263,,,,0,4,4,4,4,4,4,4,4,4,4,4,4,4,4,4,4,4,4,4,4,4,4,4,4,4,4,4,4,4,4,4,4,100,,,,,,,,,,,,,,,,,,,,,,,,,,,,,,,,,,,17895,0,0.353633,-0.544495,-0.316101,0.691772,0.834086,-0.554267,-0.039067,-5.833333,45.166668,-7.166667,,,,,,,,,,,,,,,,,,,,,,,,,,,,,,,,,,,,,,,,,,,,,,,,,,,,,,,,,,,,,,,,,,,,,,,,,,,,,,,,,,,,,,,,,,,,,,,,,,,,,,,,,,,,,,,,,,,,,,,,,,,,,,,,,,,,,,,,,,,,,,,,,,,,,,,,,,,,,,,,
1764668155,6046,0,4382.307617,4395.897461,4508.077148,4526.153809,4422.179688,4520.897461,4542.307617,4389.743652,4589.487305,4395,4500.256348,4514.230957,4564.615234,4393.461426,4380.512695,4510.512695,4541.025879,4540.641113,4520,4396.282227,4389.615234,4565.128418,4516.282227,4486.922852,4385,4584.487305,4382.307617,4555.128418,4503.077148,4387.820313,4522.692383,4501.922852,2722,0,10,2566,16270,,,,0,4,4,4,4,4,4,4,4,4,4,4,4,4,4,4,4,4,4,4,4,4,4,4,4,4,4,4,4,4,4,4,4,100,,,,,,,,,,,,,,,,,,,,,,,,,,,,,,,,,,,,,,,,,,,,,,,,,,,,,,,,,,,,,,,,,,,,,,,,,,,,,,,,,,,,,,,,,,,,,,,,,,,,,,,,,,,,,,,,,,,,,,,,,,,,,,,,,,,,,,,,,,,,,,,,,,,,,,,,,,,,,,,,,,,,,,,,,,,,,,,,,,,,,,,,,,,,,,,,,,,,,,,,,,,,,,
1764668155,6047,0,4376.410156,4389.615234,4505.897461,4526.025879,4422.436035,4514.230957,4538.974121,4386.282227,4583.846191,4394.743652,4493.333496,4510,4560.641113,4388.589844,4375.897461,4502.307617,4537.820313,4533.589844,4513.205078,4391.794922,4381.794922,4558.846191,4511.282227,4480.641113,4397.179688,4581.922852,4376.025879,4550.128418,4498.589844,4380.384766,4520.512695,4495.769043,2786,0,10,2566,16270,,,,0,4,4,4,4,4,4,4,4,4,4,4,4,4,4,4,4,4,4,4,4,4,4,4,4,4,4,4,4,4,4,4,4,100,,,,,,,,,,,,,,,,,,,,,,,,,,,,,,,,,,,,,,,,,,,,,,,,,,,,,,,,,,,,,,,,,,,,,,,,,,,,,,,,,,,,,,,,,,,,,,,,,,,,,,,,,,,,,,,,,,,,,,,,,,,,,,,,,,,,,,,,,,,,,,,,,,,,,,,,,,,,,,,,,,,,,,,,,,,,,,,,,,,,,,,,,,,,,,,,,,,,,,,,,,,,,,
1764668155,6048,0,4374.230957,4384.615234,4503.846191,4525.769043,4423.461426,4510,4536.794922,4382.692383,4579.743652,4394.615234,4491.282227,4505.128418,4558.846191,4384.358887,4372.436035,4492.179688,4536.282227,4527.436035,4506.538574,4390.128418,4378.846191,4557.436035,4508.589844,4477.94873,4402.05127,4579.871582,4375.897461,4545.897461,4495.897461,4376.666504,4523.077148,4492.307617,2805,0,10,2567,16278,,,,0,4,4,4,4,4,4,4,4,4,4,4,4,4,4,4,4,4,4,4,4,4,4,4,4,4,4,4,4,4,4,4,4,100,,,,,,,,,,,,,,,,,,,,,,,,,,,,,,,,,,,,,,,,,,,,,,,,,,,,,,,,,,,,,,,,,,,,,,,,,,,,,,,,,,,,,,,,,,,,,,,,,,,,,,,,,,,,,,,,,,,,,,,,,,,,,,,,,,,,,,,,,,,,,,,,,,,,,,,,,,,,,,,,,,,,,,,,,,,,,,,,,,,,,,,,,,,,,,,,,,,,,,,,,,,,,,
1764668155,6049,0,4377.307617,4383.846191,4504.487305,4527.307617,4424.487305,4510.769043,4538.589844,4383.717773,4579.743652,4397.692383,4495.641113,4502.692383,4561.538574,4384.102539,4373.205078,4488.205078,4538.461426,4527.692383,4506.025879,4391.410156,4383.717773,4562.179688,4510.128418,4480.897461,4402.436035,4580.256348,4379.487305,4544.487305,4496.410156,4379.102539,4525.897461,4493.461426,2918,0,10,2567,16278,,,,0,4,4,4,4,4,4,4,4,4,4,4,4,4,4,4,4,4,4,4,4,4,4,4,4,4,4,4,4,4,4,4,4,100,,,,,,,,,,,,,,,,,,,,,,,,,,,,,,,,,,,17896,0,0.353558,-0.544495,-0.315918,0.691895,0.832133,-0.55915,-0.049322,-5.833333,46,-6.333333,,,,,,,,,,,,,,,,,,,,,,,,,,,,,,,,,,,,,,,,,,,,,,,,,,,,,,,,,,,,,,,,,,,,,,,,,,,,,,,,,,,,,,,,,,,,,,,,,,,,,,,,,,,,,,,,,,,,,,,,,,,,,,,,,,,,,,,,,,,,,,,,,,,,,,,,,,,,,,,,
1764668155,6050,0,4383.589844,4387.05127,4507.563965,4531.666504,4425,4515.897461,4544.230957,4390,4583.333496,4404.615234,4503.461426,4503.846191,4567.94873,4387.820313,4378.717773,4493.717773,4543.461426,4534.871582,4513.077148,4394.615234,4393.974121,4570,4514.615234,4487.436035,4403.205078,4582.820313,4381.794922,4545.512695,4499.230957,4385.641113,4522.692383,4498.077148,2688,0,10,2568,16286,,,,0,4,4,4,4,4,4,4,4,4,4,4,4,4,4,4,4,4,4,4,4,4,4,4,4,4,4,4,4,4,4,4,4,100,,,,,,,,,,,,,,,,,,,,,,,,,,,,,,,,,,,,,,,,,,,,,,,,,,,,,,,,,,,,,,,,,,,,,,,,,,,,,,,,,,,,,,,,,,,,,,,,,,,,,,,,,,,,,,,,,,,,,,,,,,,,,,,,,,,,,,,,,,,,,,,,,,,,,,,,,,,,,,,,,,,,,,,,,,,,,,,,,,,,,,,,,,,,,,,,,,,,,,,,,,,,,,
1764668155,6051,0,4389.230957,4391.794922,4511.666504,4537.05127,4425.512695,4521.794922,4550.256348,4398.461426,4588.589844,4412.563965,4509.487305,4507.05127,4574.230957,4392.563965,4385.897461,4504.743652,4548.974121,4543.461426,4522.94873,4398.846191,4402.94873,4575.641113,4518.461426,4493.846191,4407.05127,4586.282227,4380.384766,4547.692383,4502.436035,4391.794922,4512.94873,4503.717773,2864,0,10,2568,16286,,,,0,4,4,4,4,4,4,4,4,4,4,4,4,4,4,4,4,4,4,4,4,4,4,4,4,4,4,4,4,4,4,4,4,100,,,,,,,,,,,,,,,,,,,,,,,,,,,,,,,,,,,,,,,,,,,,,,,,,,,,,,,,,,,,,,,,,,,,,,,,,,,,,,,,,,,,,,,,,,,,,,,,,,,,,,,,,,,,,,,,,,,,,,,,,,,,,,,,,,,,,,,,,,,,,,,,,,,,,,,,,,,,,,,,,,,,,,,,,,,,,,,,,,,,,,,,,,,,,,,,,,,,,,,,,,,,,,
1764668155,6052,0,4392.307617,4395.641113,4515.128418,4540.769043,4426.794922,4525.256348,4553.461426,4405.512695,4593.589844,4416.282227,4511.410156,4510,4576.922852,4394.615234,4391.025879,4513.846191,4552.94873,4547.94873,4529.358887,4403.461426,4406.282227,4576.538574,4519.487305,4496.794922,4413.077148,4588.589844,4377.692383,4550.128418,4504.615234,4394.487305,4502.692383,4508.589844,2762,0,10,2569,16294,,,,0,4,4,4,4,4,4,4,4,4,4,4,4,4,4,4,4,4,4,4,4,4,4,4,4,4,4,4,4,4,4,4,4,100,,,,,,,,,,,,,,,,,,,,,,,,,,,,,,,,,,,,,,,,,,,,,,,,,,,,,,,,,,,,,,,,,,,,,,,,,,,,,,,,,,,,,,,,,,,,,,,,,,,,,,,,,,,,,,,,,,,,,,,,,,,,,,,,,,,,,,,,,,,,,,,,,,,,,,,,,,,,,,,,,,,,,,,,,,,,,,,,,,,,,,,,,,,,,,,,,,,,,,,,,,,,,,
1764668155,6053,0,4393.077148,4397.820313,4516.922852,4541.025879,4428.846191,4525.512695,4553.205078,4408.846191,4596.794922,4411.794922,4510.384766,4510.897461,4575.384766,4392.05127,4392.307617,4515.897461,4554.871582,4547.563965,4530,4408.077148,4404.102539,4573.974121,4518.077148,4496.025879,4418.846191,4587.692383,4377.563965,4552.820313,4505.769043,4393.461426,4499.743652,4511.794922,2822,0,10,2569,16294,,,,0,4,4,4,4,4,4,4,4,4,4,4,4,4,4,4,4,4,4,4,4,4,4,4,4,4,4,4,4,4,4,4,4,100,,,,,,,,,,,,,,,,,,,,,,,,,,,,,,,,,,,17897,0,0.353613,-0.544495,-0.315857,0.691895,0.817483,-0.55622,-0.052252,-6.333333,43.5,-6.833333,,,,,,,,,,,,,,,,,,,,,,,,,,,,,,,,,,,,,,,,,,,,,,,,,,,,,,,,,,,,,,,,,,,,,,,,,,,,,,,,,,,,,,,,,,,,,,,,,,,,,,,,,,,,,,,,,,,,,,,,,,,,,,,,,,,,,,,,,,,,,,,,,,,,,,,,,,,,,,,,
1764668155,6054,0,4392.692383,4398.205078,4515.641113,4538.205078,4430.128418,4523.974121,4550,4408.205078,4597.05127,4400.897461,4508.846191,4509.615234,4572.307617,4386.666504,4390.384766,4511.794922,4555.512695,4546.282227,4527.692383,4410.641113,4400,4571.666504,4516.153809,4493.589844,4420.384766,4583.589844,4380.897461,4555,4506.282227,4390.641113,4506.922852,4512.179688,2820,0,10,2570,16302,,,,0,4,4,4,4,4,4,4,4,4,4,4,4,4,4,4,4,4,4,4,4,4,4,4,4,4,4,4,4,4,4,4,4,100,,,,,,,,,,,,,,,,,,,,,,,,,,,,,,,,,,,,,,,,,,,,,,,,,,,,,,,,,,,,,,,,,,,,,,,,,,,,,,,,,,,,,,,,,,,,,,,,,,,,,,,,,,,,,,,,,,,,,,,,,,,,,,,,,,,,,,,,,,,,,,,,,,,,,,,,,,,,,,,,,,,,,,,,,,,,,,,,,,,,,,,,,,,,,,,,,,,,,,,,,,,,,,
1764668155,6055,0,4391.282227,4396.410156,4509.487305,4533.589844,4428.589844,4521.666504,4545.256348,4403.974121,4593.205078,4389.615234,4507.307617,4506.922852,4570.641113,4382.307617,4387.179688,4506.410156,4555.384766,4548.333496,4527.436035,4409.230957,4397.05127,4571.666504,4515.512695,4491.282227,4415.512695,4577.563965,4384.743652,4555.256348,4506.282227,4387.179688,4518.846191,4508.333496,3004,0,10,2570,16302,,,,0,4,4,4,4,4,4,4,4,4,4,4,4,4,4,4,4,4,4,4,4,4,4,4,4,4,4,4,4,4,4,4,4,100,,,,,,,,,,,,,,,,,,,,,,,,,,,,,,,,,,,,,,,,,,,,,,,,,,,,,,,,,,,,,,,,,,,,,,,,,,,,,,,,,,,,,,,,,,,,,,,,,,,,,,,,,,,,,,,,,,,,,,,,,,,,,,,,,,,,,,,,,,,,,,,,,,,,,,,,,,,,,,,,,,,,,,,,,,,,,,,,,,,,,,,,,,,,,,,,,,,,,,,,,,,,,,
1764668155,6056,0,4388.205078,4391.794922,4498.589844,4527.94873,4423.205078,4518.333496,4539.615234,4396.794922,4585.512695,4384.358887,4505.256348,4503.717773,4571.282227,4382.05127,4384.102539,4503.717773,4554.102539,4553.077148,4530.256348,4403.077148,4395.256348,4573.333496,4515.512695,4489.230957,4404.743652,4571.538574,4385.384766,4552.307617,4505.384766,4383.333496,4526.025879,4499.487305,2909,0,10,2565,16309,,,,0,4,4,4,4,4,4,4,4,4,4,4,4,4,4,4,4,4,4,4,4,4,4,4,4,4,4,4,4,4,4,4,4,100,,,,,,,,,,,,,,,,,,,,,,,,,,,,,,,,,,,,,,,,,,,,,,,,,,,,,,,,,,,,,,,,,,,,,,,,,,,,,,,,,,,,,,,,,,,,,,,,,,,,,,,,,,,,,,,,,,,,,,,,,,,,,,,,,,,,,,,,,,,,,,,,,,,,,,,,,,,,,,,,,,,,,,,,,,,,,,,,,,,,,,,,,,,,,,,,,,,,,,,,,,,,,,
1764668155,6057,0,4383.333496,4385.128418,4485.641113,4521.538574,4414.615234,4513.077148,4533.974121,4387.94873,4576.282227,4385.128418,4501.922852,4501.025879,4572.179688,4385.512695,4381.153809,4504.230957,4550.512695,4555.769043,4533.205078,4395.384766,4393.333496,4574.230957,4514.487305,4486.666504,4391.666504,4566.794922,4381.410156,4546.282227,4503.333496,4378.717773,4522.692383,4487.307617,2756,0,10,2565,16309,,,,0,4,4,4,4,4,4,4,4,4,4,4,4,4,4,4,4,4,4,4,4,4,4,4,4,4,4,4,4,4,4,4,4,100,,,,,,,,,,,,,,,,,,,,,,,,,,,,,,,,,,,17898,0,0.353587,-0.544434,-0.315857,0.691956,0.835551,-0.562569,-0.044439,-7.833333,45.166668,-8,,,,,,,,,,,,,,,,,,,,,,,,,,,,,,,,,,,,,,,,,,,,,,,,,,,,,,,,,,,,,,,,,,,,,,,,,,,,,,,,,,,,,,,,,,,,,,,,,,,,,,,,,,,,,,,,,,,,,,,,,,,,,,,,,,,,,,,,,,,,,,,,,,,,,,,,,,,,,,,,
1764668155,6058,0,4377.820313,4378.589844,4476.025879,4515.512695,4405.384766,4506.538574,4529.102539,4379.871582,4568.717773,4386.666504,4498.461426,4499.230957,4571.410156,4390.128418,4378.589844,4506.025879,4544.871582,4552.820313,4532.307617,4390.384766,4390.512695,4572.179688,4510.897461,4483.589844,4380.641113,4563.974121,4375.128418,4539.487305,4500.641113,4373.077148,4510.769043,4476.282227,2603,0,10,2565,16317,,,,0,4,4,4,4,4,4,4,4,4,4,4,4,4,4,4,4,4,4,4,4,4,4,4,4,4,4,4,4,4,4,4,4,100,,,,,,,,,,,,,,,,,,,,,,,,,,,,,,,,,,,,,,,,,,,,,,,,,,,,,,,,,,,,,,,,,,,,,,,,,,,,,,,,,,,,,,,,,,,,,,,,,,,,,,,,,,,,,,,,,,,,,,,,,,,,,,,,,,,,,,,,,,,,,,,,,,,,,,,,,,,,,,,,,,,,,,,,,,,,,,,,,,,,,,,,,,,,,,,,,,,,,,,,,,,,,,
1764668155,6059,0,4374.358887,4375.641113,4474.743652,4512.94873,4399.230957,4502.05127,4526.410156,4375.641113,4565.384766,4383.846191,4496.025879,4498.461426,4569.102539,4393.461426,4376.794922,4507.820313,4538.717773,4545.128418,4526.153809,4390.769043,4388.461426,4568.077148,4506.025879,4481.922852,4374.230957,4563.077148,4370.384766,4535.641113,4498.077148,4368.846191,4499.358887,4471.794922,2728,0,10,2565,16317,,,,0,4,4,4,4,4,4,4,4,4,4,4,4,4,4,4,4,4,4,4,4,4,4,4,4,4,4,4,4,4,4,4,4,100,,,,,,,,,,,,,,,,,,,,,,,,,,,,,,,,,,,,,,,,,,,,,,,,,,,,,,,,,,,,,,,,,,,,,,,,,,,,,,,,,,,,,,,,,,,,,,,,,,,,,,,,,,,,,,,,,,,,,,,,,,,,,,,,,,,,,,,,,,,,,,,,,,,,,,,,,,,,,,,,,,,,,,,,,,,,,,,,,,,,,,,,,,,,,,,,,,,,,,,,,,,,,,
1764668155,6060,0,4375.512695,4378.589844,4483.077148,4516.538574,4399.230957,4502.820313,4527.307617,4378.461426,4567.05127,4378.333496,4495.769043,4499.230957,4567.436035,4394.871582,4376.794922,4509.230957,4535.256348,4537.307617,4517.563965,4394.615234,4389.102539,4565.128418,4503.205078,4483.974121,4372.179688,4564.487305,4370.512695,4537.436035,4497.179688,4369.487305,4497.820313,4476.794922,2511,0,10,2564,16325,,,,0,4,4,4,4,4,4,4,4,4,4,4,4,4,4,4,4,4,4,4,4,4,4,4,4,4,4,4,4,4,4,4,4,100,,,,,,,,,,,,,,,,,,,,,,,,,,,,,,,,,,,,,,,,,,,,,,,,,,,,,,,,,,,,,,,,,,,,,,,,,,,,,,,,,,,,,,,,,,,,,,,,,,,,,,,,,,,,,,,,,,,,,,,,,,,,,,,,,,,,,,,,,,,,,,,,,,,,,,,,,,,,,,,,,,,,,,,,,,,,,,,,,,,,,,,,,,,,,,,,,,,,,,,,,,,,,,
1764668155,6061,0,4381.538574,4386.666504,4497.436035,4526.410156,4405.897461,4509.743652,4532.179688,4387.820313,4572.563965,4377.05127,4497.307617,4502.179688,4568.333496,4395.384766,4378.461426,4510.384766,4537.05127,4533.974121,4510.512695,4397.307617,4391.922852,4566.025879,4504.871582,4490.512695,4373.333496,4568.589844,4376.538574,4545.256348,4499.230957,4376.922852,4508.461426,4489.358887,2290,0,10,2564,16325,,,,0,4,4,4,4,4,4,4,4,4,4,4,4,4,4,4,4,4,4,4,4,4,4,4,4,4,4,4,4,4,4,4,4,100,,,,,,,,,,,,,,,,,,,,,,,,,,,,,,,,,,,17899,0,0.353577,-0.544434,-0.315735,0.692017,0.846295,-0.556709,-0.053717,-5.5,45.5,-6,,,,,,,,,,,,,,,,,,,,,,,,,,,,,,,,,,,,,,,,,,,,,,,,,,,,,,,,,,,,,,,,,,,,,,,,,,,,,,,,,,,,,,,,,,,,,,,,,,,,,,,,,,,,,,,,,,,,,,,,,,,,,,,,,,,,,,,,,,,,,,,,,,,,,,,,,,,,,,,,
1764668155,6062,0,4390,4395.512695,4510.897461,4537.94873,4415.769043,4519.487305,4539.358887,4399.487305,4579.487305,4385.128418,4498.974121,4506.666504,4571.666504,4395.769043,4380.512695,4510.512695,4543.589844,4535.641113,4506.794922,4396.025879,4393.974121,4569.871582,4510.256348,4498.717773,4376.153809,4575,4385.769043,4556.025879,4503.974121,4388.205078,4524.487305,4503.205078,2737,0,10,2564,16333,,,,0,4,4,4,4,4,4,4,4,4,4,4,4,4,4,4,4,4,4,4,4,4,4,4,4,4,4,4,4,4,4,4,4,100,,,,,,,,,,,,,,,,,,,,,,,,,,,,,,,,,,,,,,,,,,,,,,,,,,,,,,,,,,,,,,,,,,,,,,,,,,,,,,,,,,,,,,,,,,,,,,,,,,,,,,,,,,,,,,,,,,,,,,,,,,,,,,,,,,,,,,,,,,,,,,,,,,,,,,,,,,,,,,,,,,,,,,,,,,,,,,,,,,,,,,,,,,,,,,,,,,,,,,,,,,,,,,
1764668155,6063,0,4396.282227,4400.512695,4517.05127,4544.358887,4424.230957,4526.282227,4545.384766,4406.794922,4584.871582,4399.487305,4498.717773,4510.641113,4575.512695,4395.897461,4380.641113,4509.102539,4550.769043,4538.461426,4505.897461,4392.05127,4392.436035,4573.717773,4515.897461,4504.487305,4379.358887,4581.922852,4394.358887,4563.974121,4509.102539,4397.307617,4534.871582,4511.282227,2465,0,10,2564,16333,,,,0,4,4,4,4,4,4,4,4,4,4,4,4,4,4,4,4,4,4,4,4,4,4,4,4,4,4,4,4,4,4,4,4,100,,,,,,,,,,,,,,,,,,,,,,,,,,,,,,,,,,,,,,,,,,,,,,,,,,,,,,,,,,,,,,,,,,,,,,,,,,,,,,,,,,,,,,,,,,,,,,,,,,,,,,,,,,,,,,,,,,,,,,,,,,,,,,,,,,,,,,,,,,,,,,,,,,,,,,,,,,,,,,,,,,,,,,,,,,,,,,,,,,,,,,,,,,,,,,,,,,,,,,,,,,,,,,
1764668155,6064,0,4397.307617,4399.358887,4514.358887,4541.922852,4427.692383,4526.538574,4547.820313,4406.025879,4586.410156,4411.538574,4495.641113,4512.179688,4577.94873,4395.384766,4377.94873,4506.794922,4554.230957,4539.102539,4506.538574,4390,4387.436035,4575.256348,4518.717773,4505.897461,4383.077148,4586.666504,4398.717773,4565.384766,4512.05127,4400.128418,4533.333496,4510.641113,2890,0,10,2304,16341,,,,0,4,4,4,4,4,4,4,4,4,4,4,4,4,4,4,4,4,4,4,4,4,4,4,4,4,4,4,4,4,4,4,4,100,0.9375,83.333336,4,4,4,4,4,4,4,4,4,3,4,4,4,4,4,4,4,4,4,4,4,4,4,4,3,4,4,4,4,4,4,4,,,,,,,,,,,,,1.247859,1.522178,0.536941,0.465642,0.431099,2.172179,1.398495,0.493939,0.535233,0.588887,21.114759,4.947975,0.966848,0.523115,0.85578,4.062386,1.393696,0.206153,0.422041,0.621477,2.748121,1.749641,0.22299,0.521471,0.538795,0.924418,1.319967,0.549653,0.405876,0.494874,0.765229,1.084268,0.460887,0.437646,0.409448,1.325997,0.991905,0.562756,0.556387,0.595429,1.263777,1.685384,0.377147,0.543992,0.6898,0.890595,0.899118,0.54659,1.577351,1.753797,0.681821,0.74816,0.496644,0.244411,0.421934,0.781466,0.931224,0.494856,0.366087,0.373252,0.698864,0.737568,0.318072,0.278002,0.458992,0.97616,0.541506,0.750518,0.440691,0.305325,1.042246,0.782332,0.661716,0.682123,0.77422,0.748251,3.773743,2.056107,0.842731,0.943992,1.281778,1.850418,0.817379,0.378003,0.723225,1.447398,5.06251,1.903278,1.180141,1.528265,0.400382,3.042439,1.581848,0.98408,1.419203,0.568936,1.3149,2.364353,0.501493,0.925478,0.334997,2.434739,2.491426,0.73538,1.067151,0.977002,2.321924,2.162452,0.427126,0.863871,0.977554,1.082898,1.057311,0.423056,0.45196,1.356741,1.996567,1.62589,0.595813,0.77601,1.476266,3.607309,9.45676,4.204703,1.843118,1.046719,1.614093,0.84796,0.559276,0.366835,1.912184,1.491212,0.590129,0.816529,0.805505,1.710404,1.581366,1.703609,0.726623,0.638054,0.651486,0.538853,0.41909,0.281906,0.207551,3.220399,2.003976,0.627167,0.701291,0.525613,3.099815,2.431766,0.634235,1.092609,1.097489,20.933815,4.466656,1.510383,0.616183,0.698034
1764668155,6065,0,4393.333496,4394.230957,4507.05127,4532.436035,4425.769043,4521.666504,4546.922852,4398.717773,4584.358887,4413.589844,4491.666504,4511.538574,4578.974121,4394.358887,4373.846191,4506.282227,4553.077148,4538.846191,4508.846191,4392.692383,4383.846191,4575,4518.461426,4503.974121,4388.717773,4587.94873,4398.333496,4561.153809,4511.794922,4397.05127,4523.589844,4504.487305,2919,0,10,2304,16341,,,,0,4,4,4,4,4,4,4,4,4,4,4,4,4,4,4,4,4,4,4,4,4,4,4,4,4,4,4,4,4,4,4,4,100,,,,,,,,,,,,,,,,,,,,,,,,,,,,,,,,,,,17900,0,0.353389,-0.544556,-0.315735,0.692017,0.846295,-0.556709,-0.053717,-6.333333,47.166668,-6.333333,,,,,,,,,,,,,,,,,,,,,,,,,,,,,,,,,,,,,,,,,,,,,,,,,,,,,,,,,,,,,,,,,,,,,,,,,,,,,,,,,,,,,,,,,,,,,,,,,,,,,,,,,,,,,,,,,,,,,,,,,,,,,,,,,,,,,,,,,,,,,,,,,,,,,,,,,,,,,,,,
1764668155,6066,0,4388.717773,4389.358887,4501.794922,4523.205078,4421.410156,4516.922852,4545.512695,4391.538574,4581.153809,4405.512695,4490.256348,4511.153809,4580.128418,4393.974121,4371.922852,4511.025879,4550.897461,4542.436035,4515,4398.589844,4386.922852,4575.512695,4517.563965,4501.922852,4398.461426,4586.794922,4395.384766,4556.410156,4509.358887,4392.179688,4515.641113,4499.871582,1758,0,10,2560,16348,,,,0,4,4,4,4,4,4,4,4,4,4,4,4,4,4,4,4,4,4,4,4,4,4,4,4,4,4,4,4,4,4,4,4,100,,,,,,,,,,,,,,,,,,,,,,,,,,,,,,,,,,,,,,,,,,,,,,,,,,,,,,,,,,,,,,,,,,,,,,,,,,,,,,,,,,,,,,,,,,,,,,,,,,,,,,,,,,,,,,,,,,,,,,,,,,,,,,,,,,,,,,,,,,,,,,,,,,,,,,,,,,,,,,,,,,,,,,,,,,,,,,,,,,,,,,,,,,,,,,,,,,,,,,,,,,,,,,
1764668155,6067,0,4388.077148,4388.974121,4502.692383,4521.025879,4418.589844,4517.563965,4546.538574,4390.769043,4579.615234,4394.743652,4493.333496,4513.589844,4582.692383,4395.641113,4374.358887,4521.794922,4552.820313,4553.461426,4526.410156,4404.230957,4397.307617,4579.102539,4518.846191,4502.436035,4411.410156,4585.897461,4392.94873,4556.153809,4507.05127,4389.743652,4517.179688,4501.666504,2780,0,10,2560,16348,,,,0,4,4,4,4,4,4,4,4,4,4,4,4,4,4,4,4,4,4,4,4,4,4,4,4,4,4,4,4,4,4,4,4,100,,,,,,,,,,,,,,,,,,,,,,,,,,,,,,,,,,,,,,,,,,,,,,,,,,,,,,,,,,,,,,,,,,,,,,,,,,,,,,,,,,,,,,,,,,,,,,,,,,,,,,,,,,,,,,,,,,,,,,,,,,,,,,,,,,,,,,,,,,,,,,,,,,,,,,,,,,,,,,,,,,,,,,,,,,,,,,,,,,,,,,,,,,,,,,,,,,,,,,,,,,,,,,
1764668155,6068,0,4392.692383,4393.589844,4509.102539,4527.692383,4419.743652,4524.487305,4551.153809,4398.205078,4581.410156,4390.769043,4499.487305,4518.717773,4586.794922,4398.974121,4380.128418,4534.230957,4559.743652,4568.717773,4539.615234,4407.05127,4410.512695,4585.256348,4522.563965,4506.282227,4423.846191,4587.307617,4393.589844,4561.666504,4507.563965,4391.282227,4527.820313,4509.871582,2593,0,10,2560,16356,,,,0,4,4,4,4,4,4,4,4,4,4,4,4,4,4,4,4,4,4,4,4,4,4,4,4,4,4,4,4,4,4,4,4,100,,,,,,,,,,,,,,,,,,,,,,,,,,,,,,,,,,,,,,,,,,,,,,,,,,,,,,,,,,,,,,,,,,,,,,,,,,,,,,,,,,,,,,,,,,,,,,,,,,,,,,,,,,,,,,,,,,,,,,,,,,,,,,,,,,,,,,,,,,,,,,,,,,,,,,,,,,,,,,,,,,,,,,,,,,,,,,,,,,,,,,,,,,,,,,,,,,,,,,,,,,,,,,
1764668155,6069,0,4399.871582,4400.384766,4516.794922,4538.846191,4425,4533.846191,4557.436035,4410.128418,4585.641113,4398.461426,4505.512695,4523.974121,4589.871582,4401.153809,4385.128418,4540,4567.436035,4578.461426,4547.563965,4408.461426,4418.974121,4590.897461,4526.538574,4511.794922,4431.794922,4590.769043,4397.05127,4569.230957,4511.282227,4396.025879,4540.897461,4519.743652,2826,0,10,2560,16356,,,,0,4,4,4,4,4,4,4,4,4,4,4,4,4,4,4,4,4,4,4,4,4,4,4,4,4,4,4,4,4,4,4,4,100,,,,,,,,,,,,,,,,,,,,,,,,,,,,,,,,,,,17901,0,0.352784,-0.544983,-0.315674,0.692017,0.83897,-0.545477,-0.056159,-5.5,46,-6,,,,,,,,,,,,,,,,,,,,,,,,,,,,,,,,,,,,,,,,,,,,,,,,,,,,,,,,,,,,,,,,,,,,,,,,,,,,,,,,,,,,,,,,,,,,,,,,,,,,,,,,,,,,,,,,,,,,,,,,,,,,,,,,,,,,,,,,,,,,,,,,,,,,,,,,,,,,,,,,
1764668155,6070,1,4398.392578,4398.589844,4515.207031,4537.672363,4423.382813,4532.465332,4555.453613,4408.569824,4583.76709,4395.54248,4504.220703,4522.337402,4587.623047,4398.569824,4383.254395,4535.907227,4564.546387,4573.106445,4543.145996,4405.867676,4416.390625,4587.968262,4525.473145,4509.023438,4429.487305,4589.654785,4395.709961,4567.268066,4510.335449,4394.990234,4538.95459,4517.938965,0,0,10,0,0,,,,0,4,4,4,4,4,4,4,4,4,4,4,4,4,4,4,4,4,4,4,4,4,4,4,4,4,4,4,4,4,4,4,4,100,,,,,,,,,,,,,,,,,,,,,,,,,,,,,,,,,,,,,,,,,,,,,,,,,,,,,,,,,,,,,,,,,,,,,,,,,,,,,,,,,,,,,,,,,,,,,,,,,,,,,,,,,,,,,,,,,,,,,,,,,,,,,,,,,,,,,,,,,,,,,,,,,,,,,,,,,,,,,,,,,,,,,,,,,,,,,,,,,,,,,,,,,,,,,,,,,,,,,,,,,,,,,,
1764668155,6071,1,4396.913086,4396.794922,4513.619141,4536.499023,4421.765137,4531.084961,4553.471191,4407.011719,4581.893555,4392.623047,4502.929199,4520.700195,4585.374512,4395.986328,4381.380859,4531.814453,4561.656738,4567.751465,4538.728027,4403.273926,4413.806641,4585.039551,4524.408203,4506.252441,4427.179688,4588.540527,4394.368652,4565.305664,4509.388672,4393.95459,4537.011719,4516.134277,0,0,10,0,0,,,,0,4,4,4,4,4,4,4,4,4,4,4,4,4,4,4,4,4,4,4,4,4,4,4,4,4,4,4,4,4,4,4,4,100,,,,,,,,,,,,,,,,,,,,,,,,,,,,,,,,,,,,,,,,,,,,,,,,,,,,,,,,,,,,,,,,,,,,,,,,,,,,,,,,,,,,,,,,,,,,,,,,,,,,,,,,,,,,,,,,,,,,,,,,,,,,,,,,,,,,,,,,,,,,,,,,,,,,,,,,,,,,,,,,,,,,,,,,,,,,,,,,,,,,,,,,,,,,,,,,,,,,,,,,,,,,,,
1764668155,6072,1,4395.434082,4395,4512.031738,4535.325684,4420.147949,4529.704102,4551.489258,4405.453613,4580.019531,4389.704102,4501.637207,4519.062988,4583.126465,4393.402344,4379.506836,4527.72168,4558.76709,4562.396484,4534.30957,4400.680664,4411.222656,4582.110352,4523.343262,4503.481445,4424.871582,4587.42627,4393.027832,4563.343262,4508.441895,4392.918945,4535.068848,4514.32959,0,0,10,0,0,,,,0,4,4,4,4,4,4,4,4,4,4,4,4,4,4,4,4,4,4,4,4,4,4,4,4,4,4,4,4,4,4,4,4,100,,,,,,,,,,,,,,,,,,,,,,,,,,,,,,,,,,,,,,,,,,,,,,,,,,,,,,,,,,,,,,,,,,,,,,,,,,,,,,,,,,,,,,,,,,,,,,,,,,,,,,,,,,,,,,,,,,,,,,,,,,,,,,,,,,,,,,,,,,,,,,,,,,,,,,,,,,,,,,,,,,,,,,,,,,,,,,,,,,,,,,,,,,,,,,,,,,,,,,,,,,,,,,
1764668155,6073,1,4393.95459,4393.205078,4510.443848,4534.151855,4418.530762,4528.323242,4549.506836,4403.895508,4578.145996,4386.785156,4500.345215,4517.42627,4580.87793,4390.818359,4377.633301,4523.629395,4555.87793,4557.041504,4529.891602,4398.086914,4408.63916,4579.181641,4522.27832,4500.709961,4422.563965,4586.311523,4391.686523,4561.380859,4507.495117,4391.883789,4533.126465,4512.524414,0,0,10,0,0,,,,0,4,4,4,4,4,4,4,4,4,4,4,4,4,4,4,4,4,4,4,4,4,4,4,4,4,4,4,4,4,4,4,4,100,,,,,,,,,,,,,,,,,,,,,,,,,,,,,,,,,,,,,,,,,,,,,,,,,,,,,,,,,,,,,,,,,,,,,,,,,,,,,,,,,,,,,,,,,,,,,,,,,,,,,,,,,,,,,,,,,,,,,,,,,,,,,,,,,,,,,,,,,,,,,,,,,,,,,,,,,,,,,,,,,,,,,,,,,,,,,,,,,,,,,,,,,,,,,,,,,,,,,,,,,,,,,,
1764668155,6074,1,4392.475586,4391.410156,4508.855957,4532.978516,4416.913086,4526.942871,4547.524414,4402.337402,4576.271973,4383.865723,4499.053223,4515.789063,4578.629395,4388.234863,4375.759277,4519.536621,4552.988281,4551.686523,4525.473145,4395.493164,4406.055176,4576.252441,4521.212891,4497.938965,4420.256348,4585.197266,4390.345215,4559.417969,4506.54834,4390.848145,4531.183594,4510.719727,0,0,10,0,0,,,,0,4,4,4,4,4,4,4,4,4,4,4,4,4,4,4,4,4,4,4,4,4,4,4,4,4,4,4,4,4,4,4,4,100,,,,,,,,,,,,,,,,,,,,,,,,,,,,,,,,,,,,,,,,,,,,,,,,,,,,,,,,,,,,,,,,,,,,,,,,,,,,,,,,,,,,,,,,,,,,,,,,,,,,,,,,,,,,,,,,,,,,,,,,,,,,,,,,,,,,,,,,,,,,,,,,,,,,,,,,,,,,,,,,,,,,,,,,,,,,,,,,,,,,,,,,,,,,,,,,,,,,,,,,,,,,,,
1764668155,6075,1,4390.996094,4389.615234,4507.268066,4531.804688,4415.295898,4525.562012,4545.54248,4400.779297,4574.398438,4380.946777,4497.76123,4514.151855,4576.380859,4385.650879,4373.885742,4515.443848,4550.098633,4546.331543,4521.055176,4392.899414,4403.471191,4573.323242,4520.147949,4495.16748,4417.94873,4584.083008,4389.003906,4557.455566,4505.601563,4389.8125,4529.240723,4508.915039,0,0,10,0,0,,,,0,4,4,4,4,4,4,4,4,4,4,4,4,4,4,4,4,4,4,4,4,4,4,4,4,4,4,4,4,4,4,4,4,100,,,,,,,,,,,,,,,,,,,,,,,,,,,,,,,,,,,,,,,,,,,,,,,,,,,,,,,,,,,,,,,,,,,,,,,,,,,,,,,,,,,,,,,,,,,,,,,,,,,,,,,,,,,,,,,,,,,,,,,,,,,,,,,,,,,,,,,,,,,,,,,,,,,,,,,,,,,,,,,,,,,,,,,,,,,,,,,,,,,,,,,,,,,,,,,,,,,,,,,,,,,,,,
1764668155,6076,1,4389.516602,4387.820313,4505.680664,4530.631348,4413.678711,4524.181641,4543.560059,4399.220703,4572.524414,4378.027832,4496.469238,4512.514648,4574.132324,4383.066895,4372.011719,4511.351074,4547.208984,4540.976563,4516.637207,4390.305664,4400.887695,4570.394531,4519.083008,4492.396484,4415.641113,4582.968262,4387.662598,4555.493164,4504.654785,4388.777344,4527.297852,4507.110352,0,0,10,0,0,,,,0,4,4,4,4,4,4,4,4,4,4,4,4,4,4,4,4,4,4,4,4,4,4,4,4,4,4,4,4,4,4,4,4,100,,,,,,,,,,,,,,,,,,,,,,,,,,,,,,,,,,,,,,,,,,,,,,,,,,,,,,,,,,,,,,,,,,,,,,,,,,,,,,,,,,,,,,,,,,,,,,,,,,,,,,,,,,,,,,,,,,,,,,,,,,,,,,,,,,,,,,,,,,,,,,,,,,,,,,,,,,,,,,,,,,,,,,,,,,,,,,,,,,,,,,,,,,,,,,,,,,,,,,,,,,,,,,
1764668155,6077,1,4388.037598,4386.025879,4504.092773,4529.45752,4412.061035,4522.800781,4541.578125,4397.662598,4570.650879,4375.108398,4495.177734,4510.87793,4571.883789,4380.483398,4370.138184,4507.258301,4544.319336,4535.621094,4512.21875,4387.711914,4398.303711,4567.465332,4518.017578,4489.625488,4413.333496,4581.854004,4386.321289,4553.530762,4503.708008,4387.741699,4525.35498,4505.305664,0,0,10,0,0,,,,0,4,4,4,4,4,4,4,4,4,4,4,4,4,4,4,4,4,4,4,4,4,4,4,4,4,4,4,4,4,4,4,4,100,,,,,,,,,,,,,,,,,,,,,,,,,,,,,,,,,,,,,,,,,,,,,,,,,,,,,,,,,,,,,,,,,,,,,,,,,,,,,,,,,,,,,,,,,,,,,,,,,,,,,,,,,,,,,,,,,,,,,,,,,,,,,,,,,,,,,,,,,,,,,,,,,,,,,,,,,,,,,,,,,,,,,,,,,,,,,,,,,,,,,,,,,,,,,,,,,,,,,,,,,,,,,,
1764668155,6078,1,4386.558105,4384.230957,4502.504883,4528.28418,4410.443848,4521.419922,4539.595703,4396.104492,4568.777344,4372.189453,4493.885742,4509.240723,4569.635254,4377.899414,4368.26416,4503.165527,4541.430176,4530.266113,4507.800781,4385.118164,4395.719727,4564.536621,4516.952637,4486.854004,4411.025879,4580.739746,4384.980469,4551.567871,4502.76123,4386.706055,4523.412109,4503.500977,0,0,10,0,0,,,,0,4,4,4,4,4,4,4,4,4,4,4,4,4,4,4,4,4,4,4,4,4,4,4,4,4,4,4,4,4,4,4,4,100,,,,,,,,,,,,,,,,,,,,,,,,,,,,,,,,,,,,,,,,,,,,,,,,,,,,,,,,,,,,,,,,,,,,,,,,,,,,,,,,,,,,,,,,,,,,,,,,,,,,,,,,,,,,,,,,,,,,,,,,,,,,,,,,,,,,,,,,,,,,,,,,,,,,,,,,,,,,,,,,,,,,,,,,,,,,,,,,,,,,,,,,,,,,,,,,,,,,,,,,,,,,,,
1764668155,6079,1,4385.079102,4382.436035,4500.916992,4527.110352,4408.82666,4520.039551,4537.613281,4394.546387,4566.90332,4369.27002,4492.59375,4507.603516,4567.386719,4375.31543,4366.390625,4499.072754,4538.540527,4524.911133,4503.382813,4382.524414,4393.13623,4561.607422,4515.887695,4484.083008,4408.717773,4579.625488,4383.63916,4549.605469,4501.814453,4385.67041,4521.469238,4501.696289,0,0,10,0,0,,,,0,4,4,4,4,4,4,4,4,4,4,4,4,4,4,4,4,4,4,4,4,4,4,4,4,4,4,4,4,4,4,4,4,100,,,,,,,,,,,,,,,,,,,,,,,,,,,,,,,,,,,,,,,,,,,,,,,,,,,,,,,,,,,,,,,,,,,,,,,,,,,,,,,,,,,,,,,,,,,,,,,,,,,,,,,,,,,,,,,,,,,,,,,,,,,,,,,,,,,,,,,,,,,,,,,,,,,,,,,,,,,,,,,,,,,,,,,,,,,,,,,,,,,,,,,,,,,,,,,,,,,,,,,,,,,,,,
1764668155,6080,1,4383.599609,4380.641113,4499.32959,4525.937012,4407.208984,4518.658691,4535.631348,4392.988281,4565.029785,4366.351074,4491.301758,4505.966309,4565.138184,4372.731934,4364.516602,4494.980469,4535.650879,4519.556152,4498.964355,4379.931152,4390.552246,4558.678711,4514.822266,4481.311523,4406.410156,4578.510742,4382.297852,4547.643066,4500.867676,4384.635254,4519.526855,4499.891602,0,0,10,0,0,,,,0,4,4,4,4,4,4,4,4,4,4,4,4,4,4,4,4,4,4,4,4,4,4,4,4,4,4,4,4,4,4,4,4,100,,,,,,,,,,,,,,,,,,,,,,,,,,,,,,,,,,,,,,,,,,,,,,,,,,,,,,,,,,,,,,,,,,,,,,,,,,,,,,,,,,,,,,,,,,,,,,,,,,,,,,,,,,,,,,,,,,,,,,,,,,,,,,,,,,,,,,,,,,,,,,,,,,,,,,,,,,,,,,,,,,,,,,,,,,,,,,,,,,,,,,,,,,,,,,,,,,,,,,,,,,,,,,
1764668155,6081,1,4382.120117,4378.846191,4497.741699,4524.763184,4405.591797,4517.27832,4533.648926,4391.430176,4563.155762,4363.432129,4490.009766,4504.32959,4562.889648,4370.147949,4362.643066,4490.887695,4532.76123,4514.201172,4494.546387,4377.337402,4387.968262,4555.749512,4513.757324,4478.540527,4404.102539,4577.396484,4380.956543,4545.680664,4499.920898,4383.599609,4517.583984,4498.086914,0,0,10,0,0,,,,0,4,4,4,4,4,4,4,4,4,4,4,4,4,4,4,4,4,4,4,4,4,4,4,4,4,4,4,4,4,4,4,4,100,,,,,,,,,,,,,,,,,,,,,,,,,,,,,,,,,,,,,,,,,,,,,,,,,,,,,,,,,,,,,,,,,,,,,,,,,,,,,,,,,,,,,,,,,,,,,,,,,,,,,,,,,,,,,,,,,,,,,,,,,,,,,,,,,,,,,,,,,,,,,,,,,,,,,,,,,,,,,,,,,,,,,,,,,,,,,,,,,,,,,,,,,,,,,,,,,,,,,,,,,,,,,,
1764668155,6082,0,4380.641113,4377.05127,4496.153809,4523.589844,4403.974121,4515.897461,4531.666504,4389.871582,4561.282227,4360.512695,4488.717773,4502.692383,4560.641113,4367.563965,4360.769043,4486.794922,4529.871582,4508.846191,4490.128418,4374.743652,4385.384766,4552.820313,4512.692383,4475.769043,4401.794922,4576.282227,4379.615234,4543.717773,4498.974121,4382.563965,4515.641113,4496.282227,2683,0,10,2567,16411,,,,0,4,4,4,4,4,4,4,4,4,4,4,4,4,4,4,4,4,4,4,4,4,4,4,4,4,4,4,4,4,4,4,4,100,,,,,,,,,,,,,,,,,,,,,,,,,,,,,,,,,,,,,,,,,,,,,,,,,,,,,,,,,,,,,,,,,,,,,,,,,,,,,,,,,,,,,,,,,,,,,,,,,,,,,,,,,,,,,,,,,,,,,,,,,,,,,,,,,,,,,,,,,,,,,,,,,,,,,,,,,,,,,,,,,,,,,,,,,,,,,,,,,,,,,,,,,,,,,,,,,,,,,,,,,,,,,,
1764668155,6083,0,4384.743652,4381.410156,4498.974121,4525.897461,4405,4519.871582,4532.307617,4390.128418,4568.717773,4377.692383,4491.410156,4506.538574,4566.282227,4371.153809,4361.282227,4488.461426,4536.410156,4515,4495.512695,4379.871582,4388.333496,4559.743652,4519.358887,4483.717773,4404.230957,4581.666504,4385.512695,4548.333496,4500.384766,4387.820313,4524.743652,4501.153809,2858,0,10,2567,16411,,,,0,4,4,4,4,4,4,4,4,4,4,4,4,4,4,4,4,4,4,4,4,4,4,4,4,4,4,4,4,4,4,4,4,100,,,,,,,,,,,,,,,,,,,,,,,,,,,,,,,,,,,,,,,,,,,,,,,,,,,,,,,,,,,,,,,,,,,,,,,,,,,,,,,,,,,,,,,,,,,,,,,,,,,,,,,,,,,,,,,,,,,,,,,,,,,,,,,,,,,,,,,,,,,,,,,,,,,,,,,,,,,,,,,,,,,,,,,,,,,,,,,,,,,,,,,,,,,,,,,,,,,,,,,,,,,,,,
1764668155,6084,0,4396.410156,4394.487305,4506.922852,4534.230957,4415.256348,4530.512695,4543.077148,4398.205078,4583.077148,4406.282227,4500.256348,4516.922852,4578.974121,4383.717773,4370.769043,4502.563965,4554.102539,4535.128418,4514.615234,4394.871582,4400.384766,4576.282227,4529.487305,4504.102539,4412.692383,4591.410156,4397.436035,4560.384766,4507.820313,4400.769043,4537.820313,4511.794922,2758,0,10,2568,16419,,,,0,4,4,4,4,4,4,4,4,4,4,4,4,4,4,4,4,4,4,4,4,4,4,4,4,4,4,4,4,4,4,4,4,100,,,,,,,,,,,,,,,,,,,,,,,,,,,,,,,,,,,,,,,,,,,,,,,,,,,,,,,,,,,,,,,,,,,,,,,,,,,,,,,,,,,,,,,,,,,,,,,,,,,,,,,,,,,,,,,,,,,,,,,,,,,,,,,,,,,,,,,,,,,,,,,,,,,,,,,,,,,,,,,,,,,,,,,,,,,,,,,,,,,,,,,,,,,,,,,,,,,,,,,,,,,,,,
1764668155,6085,0,4408.974121,4408.717773,4514.871582,4542.692383,4429.487305,4541.538574,4557.436035,4408.077148,4596.153809,4429.871582,4508.717773,4528.205078,4590.897461,4396.282227,4382.05127,4518.589844,4572.05127,4558.077148,4536.794922,4409.743652,4414.615234,4592.94873,4537.820313,4524.230957,4421.666504,4599.358887,4408.077148,4572.436035,4516.794922,4413.974121,4548.461426,4521.410156,2822,0,10,2568,16419,,,,0,4,4,4,4,4,4,4,4,4,4,4,4,4,4,4,4,4,4,4,4,4,4,4,4,4,4,4,4,4,4,4,4,100,,,,,,,,,,,,,,,,,,,,,,,,,,,,,,,,,,,17905,0,0.351075,-0.546143,-0.314636,0.692444,0.835551,-0.548895,-0.058113,-6.5,45.333332,-5,,,,,,,,,,,,,,,,,,,,,,,,,,,,,,,,,,,,,,,,,,,,,,,,,,,,,,,,,,,,,,,,,,,,,,,,,,,,,,,,,,,,,,,,,,,,,,,,,,,,,,,,,,,,,,,,,,,,,,,,,,,,,,,,,,,,,,,,,,,,,,,,,,,,,,,,,,,,,,,,
1764668155,6086,0,4415.641113,4415.769043,4518.333496,4546.794922,4439.743652,4546.922852,4566.794922,4413.589844,4600.641113,4435.384766,4510.256348,4534.358887,4594.615234,4400.512695,4388.333496,4525.128418,4578.846191,4568.974121,4547.94873,4414.871582,4421.025879,4599.743652,4540.512695,4532.179688,4425,4600.769043,4412.05127,4577.563965,4522.179688,4419.358887,4552.05127,4524.230957,2815,0,10,2569,16427,,,,0,4,4,4,4,4,4,4,4,4,4,4,4,4,4,4,4,4,4,4,4,4,4,4,4,4,4,4,4,4,4,4,4,100,,,,,,,,,,,,,,,,,,,,,,,,,,,,,,,,,,,,,,,,,,,,,,,,,,,,,,,,,,,,,,,,,,,,,,,,,,,,,,,,,,,,,,,,,,,,,,,,,,,,,,,,,,,,,,,,,,,,,,,,,,,,,,,,,,,,,,,,,,,,,,,,,,,,,,,,,,,,,,,,,,,,,,,,,,,,,,,,,,,,,,,,,,,,,,,,,,,,,,,,,,,,,,
1764668155,6087,0,4413.077148,4412.05127,4515.897461,4544.871582,4440.897461,4544.487305,4565.897461,4411.794922,4593.974121,4421.666504,4503.846191,4531.538574,4587.820313,4395.256348,4386.410156,4517.692383,4569.871582,4560.128418,4540.128418,4407.436035,4414.615234,4593.461426,4536.410156,4524.871582,4420.641113,4595.128418,4407.692383,4573.589844,4521.410156,4413.717773,4547.94873,4518.974121,2998,0,10,2569,16427,,,,0,4,4,4,4,4,4,4,4,4,4,4,4,4,4,4,4,4,4,4,4,4,4,4,4,4,4,4,4,4,4,4,4,100,,,,,,,,,,,,,,,,,,,,,,,,,,,,,,,,,,,,,,,,,,,,,,,,,,,,,,,,,,,,,,,,,,,,,,,,,,,,,,,,,,,,,,,,,,,,,,,,,,,,,,,,,,,,,,,,,,,,,,,,,,,,,,,,,,,,,,,,,,,,,,,,,,,,,,,,,,,,,,,,,,,,,,,,,,,,,,,,,,,,,,,,,,,,,,,,,,,,,,,,,,,,,,
1764668155,6088,0,4403.205078,4400.512695,4510.256348,4539.102539,4433.461426,4536.538574,4556.538574,4404.871582,4580.641113,4398.974121,4494.102539,4522.05127,4575.256348,4386.538574,4378.846191,4501.794922,4551.282227,4537.563965,4519.358887,4393.461426,4399.230957,4579.358887,4528.077148,4509.743652,4411.282227,4585.897461,4397.820313,4563.461426,4515.641113,4401.153809,4538.974121,4509.615234,2910,0,10,2569,16434,,,,0,4,4,4,4,4,4,4,4,4,4,4,4,4,4,4,4,4,4,4,4,4,4,4,4,4,4,4,4,4,4,4,4,100,,,,,,,,,,,,,,,,,,,,,,,,,,,,,,,,,,,,,,,,,,,,,,,,,,,,,,,,,,,,,,,,,,,,,,,,,,,,,,,,,,,,,,,,,,,,,,,,,,,,,,,,,,,,,,,,,,,,,,,,,,,,,,,,,,,,,,,,,,,,,,,,,,,,,,,,,,,,,,,,,,,,,,,,,,,,,,,,,,,,,,,,,,,,,,,,,,,,,,,,,,,,,,
1764668155,6089,0,4392.05127,4388.077148,4505.256348,4532.94873,4422.563965,4528.333496,4545.128418,4397.563965,4567.820313,4380.897461,4487.563965,4512.05127,4565,4382.05127,4371.666504,4488.205078,4535.256348,4516.794922,4501.282227,4383.205078,4385.641113,4566.922852,4520.256348,4497.436035,4402.692383,4578.461426,4387.563965,4553.589844,4509.102539,4389.230957,4529.871582,4502.05127,2753,0,10,2569,16434,,,,0,4,4,4,4,4,4,4,4,4,4,4,4,4,4,4,4,4,4,4,4,4,4,4,4,4,4,4,4,4,4,4,4,100,,,,,,,,,,,,,,,,,,,,,,,,,,,,,,,,,,,17906,0,0.350753,-0.546448,-0.314331,0.692505,0.823831,-0.559639,-0.049811,-6.666667,47.5,-6,,,,,,,,,,,,,,,,,,,,,,,,,,,,,,,,,,,,,,,,,,,,,,,,,,,,,,,,,,,,,,,,,,,,,,,,,,,,,,,,,,,,,,,,,,,,,,,,,,,,,,,,,,,,,,,,,,,,,,,,,,,,,,,,,,,,,,,,,,,,,,,,,,,,,,,,,,,,,,,,
1764668155,6090,0,4386.025879,4381.538574,4503.333496,4529.871582,4414.358887,4524.358887,4538.461426,4393.589844,4562.179688,4376.538574,4487.820313,4508.333496,4562.563965,4384.743652,4369.871582,4484.743652,4531.025879,4511.410156,4498.717773,4382.563965,4381.922852,4562.563965,4516.666504,4493.846191,4397.94873,4575.128418,4381.538574,4549.487305,4505.897461,4384.487305,4524.487305,4500.256348,2600,0,10,2570,16442,,,,0,4,4,4,4,4,4,4,4,4,4,4,4,4,4,4,4,4,4,4,4,4,4,4,4,4,4,4,4,4,4,4,4,100,,,,,,,,,,,,,,,,,,,,,,,,,,,,,,,,,,,,,,,,,,,,,,,,,,,,,,,,,,,,,,,,,,,,,,,,,,,,,,,,,,,,,,,,,,,,,,,,,,,,,,,,,,,,,,,,,,,,,,,,,,,,,,,,,,,,,,,,,,,,,,,,,,,,,,,,,,,,,,,,,,,,,,,,,,,,,,,,,,,,,,,,,,,,,,,,,,,,,,,,,,,,,,
1764668155,6091,0,4387.692383,4383.717773,4504.615234,4530.769043,4412.820313,4526.025879,4539.743652,4393.717773,4565.641113,4385.897461,4493.077148,4512.563965,4566.922852,4391.282227,4374.102539,4491.666504,4538.974121,4522.820313,4511.153809,4389.871582,4387.692383,4566.410156,4518.077148,4497.307617,4395.128418,4575.384766,4382.179688,4551.922852,4507.436035,4387.820313,4523.589844,4503.846191,2733,0,10,2570,16442,,,,0,4,4,4,4,4,4,4,4,4,4,4,4,4,4,4,4,4,4,4,4,4,4,4,4,4,4,4,4,4,4,4,4,100,,,,,,,,,,,,,,,,,,,,,,,,,,,,,,,,,,,,,,,,,,,,,,,,,,,,,,,,,,,,,,,,,,,,,,,,,,,,,,,,,,,,,,,,,,,,,,,,,,,,,,,,,,,,,,,,,,,,,,,,,,,,,,,,,,,,,,,,,,,,,,,,,,,,,,,,,,,,,,,,,,,,,,,,,,,,,,,,,,,,,,,,,,,,,,,,,,,,,,,,,,,,,,
1764668155,6092,0,4394.871582,4391.794922,4507.94873,4534.487305,4417.692383,4531.282227,4546.922852,4396.794922,4575.512695,4402.307617,4498.717773,4521.282227,4572.94873,4395.897461,4380.641113,4502.436035,4551.153809,4539.615234,4525.897461,4398.205078,4395.641113,4572.820313,4522.307617,4502.307617,4392.05127,4576.410156,4387.94873,4557.563965,4512.307617,4395.641113,4525.512695,4509.487305,2513,0,10,2571,16450,,,,0,4,4,4,4,4,4,4,4,4,4,4,4,4,4,4,4,4,4,4,4,4,4,4,4,4,4,4,4,4,4,4,4,100,,,,,,,,,,,,,,,,,,,,,,,,,,,,,,,,,,,,,,,,,,,,,,,,,,,,,,,,,,,,,,,,,,,,,,,,,,,,,,,,,,,,,,,,,,,,,,,,,,,,,,,,,,,,,,,,,,,,,,,,,,,,,,,,,,,,,,,,,,,,,,,,,,,,,,,,,,,,,,,,,,,,,,,,,,,,,,,,,,,,,,,,,,,,,,,,,,,,,,,,,,,,,,
1764668155,6093,0,4402.820313,4399.871582,4511.025879,4538.077148,4424.871582,4536.794922,4554.743652,4400.512695,4585.769043,4416.025879,4501.025879,4527.94873,4575.128418,4395,4385,4508.717773,4557.820313,4547.820313,4529.615234,4401.410156,4397.692383,4576.410156,4525.384766,4504.743652,4389.871582,4575.384766,4394.230957,4561.410156,4516.794922,4401.794922,4526.794922,4512.820313,2288,0,10,2571,16450,,,,0,4,4,4,4,4,4,4,4,4,4,4,4,4,4,4,4,4,4,4,4,4,4,4,4,4,4,4,4,4,4,4,4,100,,,,,,,,,,,,,,,,,,,,,,,,,,,,,,,,,,,17907,0,0.35043,-0.546753,-0.314026,0.692566,0.828226,-0.564522,-0.059578,-7,46.333332,-7.666667,,,,,,,,,,,,,,,,,,,,,,,,,,,,,,,,,,,,,,,,,,,,,,,,,,,,,,,,,,,,,,,,,,,,,,,,,,,,,,,,,,,,,,,,,,,,,,,,,,,,,,,,,,,,,,,,,,,,,,,,,,,,,,,,,,,,,,,,,,,,,,,,,,,,,,,,,,,,,,,,
1764668155,6094,0,4406.922852,4402.692383,4511.666504,4539.487305,4429.615234,4538.846191,4557.820313,4402.94873,4590.769043,4418.461426,4499.615234,4527.563965,4572.692383,4390,4384.615234,4507.179688,4555,4542.05127,4519.615234,4397.436035,4392.563965,4574.743652,4524.871582,4503.333496,4393.077148,4572.307617,4395.641113,4560.128418,4517.94873,4401.922852,4524.230957,4510.769043,2736,0,10,2572,16458,,,,0,4,4,4,4,4,4,4,4,4,4,4,4,4,4,4,4,4,4,4,4,4,4,4,4,4,4,4,4,4,4,4,4,100,,,,,,,,,,,,,,,,,,,,,,,,,,,,,,,,,,,,,,,,,,,,,,,,,,,,,,,,,,,,,,,,,,,,,,,,,,,,,,,,,,,,,,,,,,,,,,,,,,,,,,,,,,,,,,,,,,,,,,,,,,,,,,,,,,,,,,,,,,,,,,,,,,,,,,,,,,,,,,,,,,,,,,,,,,,,,,,,,,,,,,,,,,,,,,,,,,,,,,,,,,,,,,
1764668155,6095,0,4406.666504,4400.256348,4509.102539,4539.230957,4429.615234,4536.794922,4555.128418,4403.333496,4588.589844,4407.436035,4496.922852,4521.538574,4569.102539,4386.282227,4381.282227,4501.153809,4546.922852,4529.615234,4505.897461,4390,4384.871582,4570.128418,4521.410156,4500.512695,4404.102539,4569.230957,4390.769043,4554.615234,4515.641113,4396.410156,4518.589844,4505.128418,2466,0,10,2572,16458,,,,0,4,4,4,4,4,4,4,4,4,4,4,4,4,4,4,4,4,4,4,4,4,4,4,4,4,4,4,4,4,4,4,4,100,,,,,,,,,,,,,,,,,,,,,,,,,,,,,,,,,,,,,,,,,,,,,,,,,,,,,,,,,,,,,,,,,,,,,,,,,,,,,,,,,,,,,,,,,,,,,,,,,,,,,,,,,,,,,,,,,,,,,,,,,,,,,,,,,,,,,,,,,,,,,,,,,,,,,,,,,,,,,,,,,,,,,,,,,,,,,,,,,,,,,,,,,,,,,,,,,,,,,,,,,,,,,,
1764668155,6096,0,4405.512695,4397.307617,4505.897461,4539.743652,4427.05127,4533.846191,4551.282227,4403.589844,4583.205078,4390.384766,4497.05127,4517.179688,4569.358887,4388.846191,4379.487305,4497.563965,4542.436035,4523.077148,4501.410156,4385.769043,4382.563965,4568.333496,4518.717773,4500.128418,4420.641113,4570,4384.358887,4550.128418,4513.461426,4390.769043,4515.128418,4501.282227,2890,0,10,2573,16466,,,,0,4,4,4,4,4,4,4,4,4,4,4,4,4,4,4,4,4,4,4,4,4,4,4,4,4,4,4,4,4,4,4,4,100,,,,,,,,,,,,,,,,,,,,,,,,,,,,,,,,,,,,,,,,,,,,,,,1.044536,1.319875,0.510645,0.488373,0.459884,2.935778,1.3161,0.536859,0.593204,0.629124,27.483166,5.636125,1.073776,0.516318,0.870309,4.988412,1.288221,0.239175,0.467657,0.67479,3.362648,1.590518,0.283099,0.656757,0.573237,1.01338,1.103966,0.532928,0.430418,0.525908,0.680502,0.874557,0.442533,0.43239,0.447738,1.545517,0.805206,0.643857,0.617873,0.624639,1.270743,1.267097,0.443207,0.570805,0.706786,0.99494,0.753554,0.617755,1.759972,1.926399,0.66853,0.78558,0.533122,0.260353,0.440032,0.618995,0.877149,0.525397,0.396822,0.40121,0.70823,0.675291,0.381389,0.328888,0.514819,0.928254,0.59008,0.840428,0.414745,0.336107,1.172102,0.723719,0.855189,0.725355,0.824185,0.597442,3.286993,1.938444,0.998363,0.980991,1.120169,1.731719,0.882885,0.45131,0.802013,1.443212,4.835468,1.907531,1.300027,1.732617,0.385856,2.875185,1.598095,1.028417,1.596976,0.650915,1.072536,2.038498,0.527372,1.069697,0.408325,2.22309,2.133476,0.771745,1.229859,0.940479,1.922587,2.202287,0.47943,0.968542,0.88227,0.930766,1.026327,0.421325,0.485653,1.535986,1.639778,1.57423,0.684031,0.848477,1.734017,2.980993,9.019018,4.209764,2.090944,1.404355,1.330455,0.756585,0.611565,0.407375,2.555993,1.106858,0.493594,0.885723,0.965957,1.845252,1.225678,1.560437,0.748555,0.705197,0.685848,0.446575,0.425457,0.291131,0.220686,4.40594,1.717377,0.671262,0.81814,0.564061,3.991296,1.914012,0.608209,1.113437,1.241086,27.376968,4.785559,1.56092,0.613449,0.736477
1764668155,6097,0,4407.436035,4399.615234,4506.153809,4543.717773,4427.05127,4534.487305,4553.205078,4406.794922,4581.538574,4381.282227,4502.307617,4520.897461,4576.538574,4397.94873,4383.589844,4501.538574,4547.94873,4529.871582,4511.282227,4388.974121,4389.743652,4573.333496,4520.769043,4504.615234,4434.871582,4576.538574,4383.846191,4552.436035,4515.256348,4391.282227,4520.128418,4504.102539,2911,0,10,2573,16466,,,,0,4,4,4,4,4,4,4,4,4,4,4,4,4,4,4,4,4,4,4,4,4,4,4,4,4,4,4,4,4,4,4,4,100,,,,,,,,,,,,,,,,,,,,,,,,,,,,,,,,,,,17908,0,0.350072,-0.547058,-0.313354,0.69281,0.83897,-0.56501,-0.045416,-7,45.166668,-5.5,,,,,,,,,,,,,,,,,,,,,,,,,,,,,,,,,,,,,,,,,,,,,,,,,,,,,,,,,,,,,,,,,,,,,,,,,,,,,,,,,,,,,,,,,,,,,,,,,,,,,,,,,,,,,,,,,,,,,,,,,,,,,,,,,,,,,,,,,,,,,,,,,,,,,,,,,,,,,,,,
1764668155,6098,0,4413.077148,4407.563965,4511.666504,4550.897461,4431.666504,4540,4562.692383,4412.94873,4586.922852,4390.641113,4510.384766,4532.179688,4587.563965,4408.205078,4393.077148,4511.666504,4561.025879,4546.410156,4528.846191,4397.94873,4402.94873,4583.461426,4527.05127,4511.794922,4438.205078,4586.666504,4392.05127,4562.307617,4521.410156,4399.743652,4534.358887,4513.589844,1756,0,10,2574,16473,,,,0,4,4,4,4,4,4,4,4,4,4,4,4,4,4,4,4,4,4,4,4,4,4,4,4,4,4,4,4,4,4,4,4,100,,,,,,,,,,,,,,,,,,,,,,,,,,,,,,,,,,,,,,,,,,,,,,,,,,,,,,,,,,,,,,,,,,,,,,,,,,,,,,,,,,,,,,,,,,,,,,,,,,,,,,,,,,,,,,,,,,,,,,,,,,,,,,,,,,,,,,,,,,,,,,,,,,,,,,,,,,,,,,,,,,,,,,,,,,,,,,,,,,,,,,,,,,,,,,,,,,,,,,,,,,,,,,
1764668155,6099,0,4418.077148,4415.641113,4519.230957,4557.563965,4437.436035,4546.025879,4573.589844,4418.077148,4595.641113,4415.256348,4515.769043,4542.820313,4595.256348,4412.179688,4401.922852,4520.769043,4572.05127,4559.743652,4540.128418,4405.641113,4412.436035,4590.769043,4532.436035,4515.769043,4426.666504,4594.230957,4404.743652,4573.846191,4527.563965,4410.641113,4551.025879,4524.102539,2772,0,10,2574,16473,,,,0,4,4,4,4,4,4,4,4,4,4,4,4,4,4,4,4,4,4,4,4,4,4,4,4,4,4,4,4,4,4,4,4,100,,,,,,,,,,,,,,,,,,,,,,,,,,,,,,,,,,,,,,,,,,,,,,,,,,,,,,,,,,,,,,,,,,,,,,,,,,,,,,,,,,,,,,,,,,,,,,,,,,,,,,,,,,,,,,,,,,,,,,,,,,,,,,,,,,,,,,,,,,,,,,,,,,,,,,,,,,,,,,,,,,,,,,,,,,,,,,,,,,,,,,,,,,,,,,,,,,,,,,,,,,,,,,
1764668155,6100,0,4417.179688,4417.179688,4523.205078,4558.974121,4438.333496,4546.153809,4576.153809,4417.05127,4599.615234,4438.717773,4513.846191,4543.461426,4593.077148,4406.410156,4403.077148,4522.307617,4571.922852,4558.461426,4535.256348,4404.487305,4409.871582,4587.692383,4530.897461,4511.794922,4404.358887,4593.589844,4413.589844,4578.717773,4528.589844,4415.769043,4559.102539,4528.589844,2590,0,10,2575,16481,,,,0,4,4,4,4,4,4,4,4,4,4,4,4,4,4,4,4,4,4,4,4,4,4,4,4,4,4,4,4,4,4,4,4,100,,,,,,,,,,,,,,,,,,,,,,,,,,,,,,,,,,,,,,,,,,,,,,,,,,,,,,,,,,,,,,,,,,,,,,,,,,,,,,,,,,,,,,,,,,,,,,,,,,,,,,,,,,,,,,,,,,,,,,,,,,,,,,,,,,,,,,,,,,,,,,,,,,,,,,,,,,,,,,,,,,,,,,,,,,,,,,,,,,,,,,,,,,,,,,,,,,,,,,,,,,,,,,
1764668155,6101,0,4408.589844,4409.743652,4520.128418,4552.94873,4431.153809,4537.692383,4565.897461,4408.846191,4593.974121,4444.102539,4505,4532.179688,4581.410156,4393.589844,4394.358887,4515.897461,4559.615234,4542.820313,4516.153809,4393.589844,4395.384766,4574.615234,4521.538574,4501.025879,4382.820313,4584.102539,4412.94873,4573.461426,4522.94873,4411.410156,4553.205078,4524.743652,2821,0,10,2575,16481,,,,0,4,4,4,4,4,4,4,4,4,4,4,4,4,4,4,4,4,4,4,4,4,4,4,4,4,4,4,4,4,4,4,4,100,,,,,,,,,,,,,,,,,,,,,,,,,,,,,,,,,,,17909,0,0.349884,-0.547241,-0.31311,0.692871,0.837993,-0.57087,-0.043951,-6.666667,44,-6,,,,,,,,,,,,,,,,,,,,,,,,,,,,,,,,,,,,,,,,,,,,,,,,,,,,,,,,,,,,,,,,,,,,,,,,,,,,,,,,,,,,,,,,,,,,,,,,,,,,,,,,,,,,,,,,,,,,,,,,,,,,,,,,,,,,,,,,,,,,,,,,,,,,,,,,,,,,,,,,
1764668155,6102,1,4407.856934,4408.663086,4518.681152,4552.014648,4430,4536.88623,4564.34082,4409.084473,4593.60791,4440.915527,4504.780273,4530.458008,4581.208984,4394.322266,4394.267578,4514.688477,4558.461426,4541.959473,4516.483398,4394.358887,4395.494629,4574.34082,4520.98877,4501.318848,4388.992676,4583.736328,4410.348145,4572.326172,4522.545898,4409.761719,4550.20166,4522.783691,0,0,10,0,0,,,,0,4,4,4,4,4,4,4,4,4,4,4,4,4,4,4,4,4,4,4,4,4,4,4,4,4,4,4,4,4,4,4,4,100,,,,,,,,,,,,,,,,,,,,,,,,,,,,,,,,,,,,,,,,,,,,,,,,,,,,,,,,,,,,,,,,,,,,,,,,,,,,,,,,,,,,,,,,,,,,,,,,,,,,,,,,,,,,,,,,,,,,,,,,,,,,,,,,,,,,,,,,,,,,,,,,,,,,,,,,,,,,,,,,,,,,,,,,,,,,,,,,,,,,,,,,,,,,,,,,,,,,,,,,,,,,,,
1764668155,6103,1,4407.124512,4407.58252,4517.234375,4551.080566,4428.846191,4536.080566,4562.783691,4409.322266,4593.241699,4437.729004,4504.560547,4528.736328,4581.007324,4395.055176,4394.175781,4513.47998,4557.307617,4541.099121,4516.812988,4395.128418,4395.604492,4574.065918,4520.439453,4501.611816,4395.165039,4583.370117,4407.74707,4571.19043,4522.143066,4408.11377,4547.197754,4520.824219,0,0,10,0,0,,,,0,4,4,4,4,4,4,4,4,4,4,4,4,4,4,4,4,4,4,4,4,4,4,4,4,4,4,4,4,4,4,4,4,100,,,,,,,,,,,,,,,,,,,,,,,,,,,,,,,,,,,,,,,,,,,,,,,,,,,,,,,,,,,,,,,,,,,,,,,,,,,,,,,,,,,,,,,,,,,,,,,,,,,,,,,,,,,,,,,,,,,,,,,,,,,,,,,,,,,,,,,,,,,,,,,,,,,,,,,,,,,,,,,,,,,,,,,,,,,,,,,,,,,,,,,,,,,,,,,,,,,,,,,,,,,,,,
1764668155,6104,1,4406.39209,4406.501953,4515.787598,4550.146484,4427.692383,4535.274902,4561.227051,4409.560547,4592.875488,4434.541992,4504.34082,4527.014648,4580.805664,4395.787598,4394.084473,4512.270996,4556.153809,4540.238281,4517.143066,4395.897461,4395.714355,4573.791016,4519.890137,4501.904785,4401.336914,4583.003906,4405.146484,4570.055176,4521.739746,4406.465332,4544.194336,4518.864258,0,0,10,0,0,,,,0,4,4,4,4,4,4,4,4,4,4,4,4,4,4,4,4,4,4,4,4,4,4,4,4,4,4,4,4,4,4,4,4,100,,,,,,,,,,,,,,,,,,,,,,,,,,,,,,,,,,,,,,,,,,,,,,,,,,,,,,,,,,,,,,,,,,,,,,,,,,,,,,,,,,,,,,,,,,,,,,,,,,,,,,,,,,,,,,,,,,,,,,,,,,,,,,,,,,,,,,,,,,,,,,,,,,,,,,,,,,,,,,,,,,,,,,,,,,,,,,,,,,,,,,,,,,,,,,,,,,,,,,,,,,,,,,
1764668155,6105,1,4405.65918,4405.421387,4514.34082,4549.212402,4426.538574,4534.46875,4559.67041,4409.79834,4592.509277,4431.355469,4504.121094,4525.292969,4580.604492,4396.52002,4393.992676,4511.0625,4555,4539.377441,4517.472656,4396.666504,4395.824219,4573.516602,4519.34082,4502.197754,4407.509277,4582.637207,4402.545898,4568.919434,4521.336914,4404.816895,4541.19043,4516.904785,0,0,10,0,0,,,,0,4,4,4,4,4,4,4,4,4,4,4,4,4,4,4,4,4,4,4,4,4,4,4,4,4,4,4,4,4,4,4,4,100,,,,,,,,,,,,,,,,,,,,,,,,,,,,,,,,,,,,,,,,,,,,,,,,,,,,,,,,,,,,,,,,,,,,,,,,,,,,,,,,,,,,,,,,,,,,,,,,,,,,,,,,,,,,,,,,,,,,,,,,,,,,,,,,,,,,,,,,,,,,,,,,,,,,,,,,,,,,,,,,,,,,,,,,,,,,,,,,,,,,,,,,,,,,,,,,,,,,,,,,,,,,,,
1764668155,6106,1,4404.926758,4404.34082,4512.893555,4548.27832,4425.384766,4533.663086,4558.11377,4410.036621,4592.143066,4428.168457,4503.900879,4523.571289,4580.402832,4397.25293,4393.900879,4509.853516,4553.846191,4538.516602,4517.802246,4397.436035,4395.934082,4573.241699,4518.791016,4502.490723,4413.681152,4582.270996,4399.944824,4567.783691,4520.934082,4403.168457,4538.187012,4514.944824,0,0,10,0,0,,,,0,4,4,4,4,4,4,4,4,4,4,4,4,4,4,4,4,4,4,4,4,4,4,4,4,4,4,4,4,4,4,4,4,100,,,,,,,,,,,,,,,,,,,,,,,,,,,,,,,,,,,,,,,,,,,,,,,,,,,,,,,,,,,,,,,,,,,,,,,,,,,,,,,,,,,,,,,,,,,,,,,,,,,,,,,,,,,,,,,,,,,,,,,,,,,,,,,,,,,,,,,,,,,,,,,,,,,,,,,,,,,,,,,,,,,,,,,,,,,,,,,,,,,,,,,,,,,,,,,,,,,,,,,,,,,,,,
1764668155,6107,1,4404.194336,4403.260254,4511.446777,4547.344238,4424.230957,4532.856934,4556.556641,4410.274902,4591.776367,4424.981445,4503.681152,4521.849609,4580.20166,4397.985352,4393.80957,4508.644531,4552.692383,4537.655762,4518.131836,4398.205078,4396.043945,4572.966797,4518.241699,4502.783691,4419.853516,4581.904785,4397.344238,4566.648438,4520.53125,4401.52002,4535.183105,4512.985352,0,0,10,0,0,,,,0,4,4,4,4,4,4,4,4,4,4,4,4,4,4,4,4,4,4,4,4,4,4,4,4,4,4,4,4,4,4,4,4,100,,,,,,,,,,,,,,,,,,,,,,,,,,,,,,,,,,,17910,1,0.349715,-0.547394,-0.312897,0.692932,0.834086,-0.576975,-0.047125,-7.666667,44.75,-6.166667,,,,,,,,,,,,,,,,,,,,,,,,,,,,,,,,,,,,,,,,,,,,,,,,,,,,,,,,,,,,,,,,,,,,,,,,,,,,,,,,,,,,,,,,,,,,,,,,,,,,,,,,,,,,,,,,,,,,,,,,,,,,,,,,,,,,,,,,,,,,,,,,,,,,,,,,,,,,,,,,
1764668155,6108,0,4403.461426,4402.179688,4510,4546.410156,4423.077148,4532.05127,4555,4410.512695,4591.410156,4421.794922,4503.461426,4520.128418,4580,4398.717773,4393.717773,4507.436035,4551.538574,4536.794922,4518.461426,4398.974121,4396.153809,4572.692383,4517.692383,4503.077148,4426.025879,4581.538574,4394.743652,4565.512695,4520.128418,4399.871582,4532.179688,4511.025879,2714,0,10,2576,16513,,,,0,4,4,4,4,4,4,4,4,4,4,4,4,4,4,4,4,4,4,4,4,4,4,4,4,4,4,4,4,4,4,4,4,100,,,,,,,,,,,,,,,,,,,,,,,,,,,,,,,,,,,,,,,,,,,,,,,,,,,,,,,,,,,,,,,,,,,,,,,,,,,,,,,,,,,,,,,,,,,,,,,,,,,,,,,,,,,,,,,,,,,,,,,,,,,,,,,,,,,,,,,,,,,,,,,,,,,,,,,,,,,,,,,,,,,,,,,,,,,,,,,,,,,,,,,,,,,,,,,,,,,,,,,,,,,,,,
1764668155,6109,0,4397.05127,4396.153809,4505,4537.563965,4416.666504,4525.512695,4544.615234,4402.820313,4584.487305,4414.871582,4495.512695,4509.487305,4565.512695,4386.410156,4378.205078,4493.205078,4540.769043,4516.538574,4500.641113,4390.641113,4387.692383,4560.384766,4508.205078,4496.666504,4428.717773,4576.538574,4390.769043,4557.94873,4515,4396.153809,4529.230957,4503.333496,2506,0,10,2576,16513,,,,0,4,4,4,4,4,4,4,4,4,4,4,4,4,4,4,4,4,4,4,4,4,4,4,4,4,4,4,4,4,4,4,4,100,,,,,,,,,,,,,,,,,,,,,,,,,,,,,,,,,,,17911,0,0.349546,-0.547546,-0.312683,0.692993,0.830179,-0.583079,-0.050299,-8.666667,45.5,-6.333333,,,,,,,,,,,,,,,,,,,,,,,,,,,,,,,,,,,,,,,,,,,,,,,,,,,,,,,,,,,,,,,,,,,,,,,,,,,,,,,,,,,,,,,,,,,,,,,,,,,,,,,,,,,,,,,,,,,,,,,,,,,,,,,,,,,,,,,,,,,,,,,,,,,,,,,,,,,,,,,,
1764668155,6110,1,4397.763672,4396.794922,4505.826172,4538.518555,4417.692383,4526.794922,4545.555664,4403.133789,4584.515625,4415.156738,4496.908691,4510.555664,4565.797852,4386.96582,4379.401855,4494.558594,4542.094238,4518.832031,4502.820313,4391.538574,4388.589844,4561.922852,4509.04541,4497.179688,4426.453125,4576.595215,4391.994141,4559.01709,4515.555664,4397.136719,4529.729492,4504.145508,0,0,10,0,0,,,,0,4,4,4,4,4,4,4,4,4,4,4,4,4,4,4,4,4,4,4,4,4,4,4,4,4,4,4,4,4,4,4,4,100,,,,,,,,,,,,,,,,,,,,,,,,,,,,,,,,,,,,,,,,,,,,,,,,,,,,,,,,,,,,,,,,,,,,,,,,,,,,,,,,,,,,,,,,,,,,,,,,,,,,,,,,,,,,,,,,,,,,,,,,,,,,,,,,,,,,,,,,,,,,,,,,,,,,,,,,,,,,,,,,,,,,,,,,,,,,,,,,,,,,,,,,,,,,,,,,,,,,,,,,,,,,,,
1764668155,6111,1,4398.475586,4397.436035,4506.652344,4539.473145,4418.717773,4528.077148,4546.495605,4403.447266,4584.543945,4415.441406,4498.304688,4511.624023,4566.08252,4387.521484,4380.598145,4495.911621,4543.418945,4521.125488,4505,4392.436035,4389.487305,4563.461426,4509.88623,4497.692383,4424.187988,4576.652344,4393.219238,4560.085449,4516.111328,4398.119629,4530.228027,4504.957031,0,0,10,0,0,,,,0,4,4,4,4,4,4,4,4,4,4,4,4,4,4,4,4,4,4,4,4,4,4,4,4,4,4,4,4,4,4,4,4,100,,,,,,,,,,,,,,,,,,,,,,,,,,,,,,,,,,,,,,,,,,,,,,,,,,,,,,,,,,,,,,,,,,,,,,,,,,,,,,,,,,,,,,,,,,,,,,,,,,,,,,,,,,,,,,,,,,,,,,,,,,,,,,,,,,,,,,,,,,,,,,,,,,,,,,,,,,,,,,,,,,,,,,,,,,,,,,,,,,,,,,,,,,,,,,,,,,,,,,,,,,,,,,
1764668155,6112,1,4399.187988,4398.077148,4507.478516,4540.427246,4419.743652,4529.358887,4547.436035,4403.760742,4584.572754,4415.726563,4499.700684,4512.692383,4566.367676,4388.077148,4381.794922,4497.265137,4544.743652,4523.418945,4507.179688,4393.333496,4390.384766,4565,4510.726563,4498.205078,4421.922852,4576.709473,4394.444336,4561.153809,4516.666504,4399.102539,4530.726563,4505.769043,0,0,10,0,0,,,,0,4,4,4,4,4,4,4,4,4,4,4,4,4,4,4,4,4,4,4,4,4,4,4,4,4,4,4,4,4,4,4,4,100,,,,,,,,,,,,,,,,,,,,,,,,,,,,,,,,,,,,,,,,,,,,,,,,,,,,,,,,,,,,,,,,,,,,,,,,,,,,,,,,,,,,,,,,,,,,,,,,,,,,,,,,,,,,,,,,,,,,,,,,,,,,,,,,,,,,,,,,,,,,,,,,,,,,,,,,,,,,,,,,,,,,,,,,,,,,,,,,,,,,,,,,,,,,,,,,,,,,,,,,,,,,,,
1764668155,6113,1,4399.900391,4398.717773,4508.304688,4541.381836,4420.769043,4530.641113,4548.375977,4404.074219,4584.601074,4416.01123,4501.09668,4513.760742,4566.652344,4388.632324,4382.991211,4498.618164,4546.068359,4525.712402,4509.358887,4394.230957,4391.282227,4566.538574,4511.566895,4498.717773,4419.658203,4576.766602,4395.669434,4562.222168,4517.222168,4400.085449,4531.225098,4506.581055,0,0,10,0,0,,,,0,4,4,4,4,4,4,4,4,4,4,4,4,4,4,4,4,4,4,4,4,4,4,4,4,4,4,4,4,4,4,4,4,100,,,,,,,,,,,,,,,,,,,,,,,,,,,,,,,,,,,,,,,,,,,,,,,,,,,,,,,,,,,,,,,,,,,,,,,,,,,,,,,,,,,,,,,,,,,,,,,,,,,,,,,,,,,,,,,,,,,,,,,,,,,,,,,,,,,,,,,,,,,,,,,,,,,,,,,,,,,,,,,,,,,,,,,,,,,,,,,,,,,,,,,,,,,,,,,,,,,,,,,,,,,,,,
1764668155,6114,1,4400.612305,4399.358887,4509.130859,4542.336426,4421.794922,4531.922852,4549.316406,4404.387695,4584.629395,4416.296387,4502.492676,4514.829102,4566.9375,4389.187988,4384.187988,4499.97168,4547.393066,4528.005859,4511.538574,4395.128418,4392.179688,4568.077148,4512.407227,4499.230957,4417.393066,4576.823242,4396.894531,4563.290527,4517.777832,4401.068359,4531.723633,4507.393066,0,0,10,0,0,,,,0,4,4,4,4,4,4,4,4,4,4,4,4,4,4,4,4,4,4,4,4,4,4,4,4,4,4,4,4,4,4,4,4,100,,,,,,,,,,,,,,,,,,,,,,,,,,,,,,,,,,,,,,,,,,,,,,,,,,,,,,,,,,,,,,,,,,,,,,,,,,,,,,,,,,,,,,,,,,,,,,,,,,,,,,,,,,,,,,,,,,,,,,,,,,,,,,,,,,,,,,,,,,,,,,,,,,,,,,,,,,,,,,,,,,,,,,,,,,,,,,,,,,,,,,,,,,,,,,,,,,,,,,,,,,,,,,
1764668155,6115,1,4401.324707,4400,4509.957031,4543.290527,4422.820313,4533.205078,4550.256348,4404.700684,4584.658203,4416.581055,4503.888672,4515.897461,4567.222168,4389.743652,4385.384766,4501.324707,4548.717773,4530.299316,4513.717773,4396.025879,4393.077148,4569.615234,4513.248047,4499.743652,4415.128418,4576.880371,4398.119629,4564.358887,4518.333496,4402.05127,4532.222168,4508.205078,0,0,10,0,0,,,,0,4,4,4,4,4,4,4,4,4,4,4,4,4,4,4,4,4,4,4,4,4,4,4,4,4,4,4,4,4,4,4,4,100,,,,,,,,,,,,,,,,,,,,,,,,,,,,,,,,,,,,,,,,,,,,,,,,,,,,,,,,,,,,,,,,,,,,,,,,,,,,,,,,,,,,,,,,,,,,,,,,,,,,,,,,,,,,,,,,,,,,,,,,,,,,,,,,,,,,,,,,,,,,,,,,,,,,,,,,,,,,,,,,,,,,,,,,,,,,,,,,,,,,,,,,,,,,,,,,,,,,,,,,,,,,,,
1764668155,6116,1,4402.037109,4400.641113,4510.783691,4544.245117,4423.846191,4534.487305,4551.196777,4405.01416,4584.686523,4416.866211,4505.284668,4516.96582,4567.507324,4390.299316,4386.581055,4502.678223,4550.042969,4532.592773,4515.897461,4396.922852,4393.974121,4571.153809,4514.088379,4500.256348,4412.863281,4576.9375,4399.344727,4565.427246,4518.888672,4403.03418,4532.720703,4509.01709,0,0,10,0,0,,,,0,4,4,4,4,4,4,4,4,4,4,4,4,4,4,4,4,4,4,4,4,4,4,4,4,4,4,4,4,4,4,4,4,100,,,,,,,,,,,,,,,,,,,,,,,,,,,,,,,,,,,,,,,,,,,,,,,,,,,,,,,,,,,,,,,,,,,,,,,,,,,,,,,,,,,,,,,,,,,,,,,,,,,,,,,,,,,,,,,,,,,,,,,,,,,,,,,,,,,,,,,,,,,,,,,,,,,,,,,,,,,,,,,,,,,,,,,,,,,,,,,,,,,,,,,,,,,,,,,,,,,,,,,,,,,,,,
1764668155,6117,1,4402.749512,4401.282227,4511.609863,4545.199219,4424.871582,4535.769043,4552.136719,4405.327637,4584.715332,4417.150879,4506.681152,4518.03418,4567.791992,4390.854492,4387.777832,4504.03125,4551.367676,4534.88623,4518.077148,4397.820313,4394.871582,4572.692383,4514.928711,4500.769043,4410.598145,4576.994141,4400.569824,4566.495605,4519.444336,4404.01709,4533.219238,4509.829102,0,0,10,0,0,,,,0,4,4,4,4,4,4,4,4,4,4,4,4,4,4,4,4,4,4,4,4,4,4,4,4,4,4,4,4,4,4,4,4,100,,,,,,,,,,,,,,,,,,,,,,,,,,,,,,,,,,,,,,,,,,,,,,,,,,,,,,,,,,,,,,,,,,,,,,,,,,,,,,,,,,,,,,,,,,,,,,,,,,,,,,,,,,,,,,,,,,,,,,,,,,,,,,,,,,,,,,,,,,,,,,,,,,,,,,,,,,,,,,,,,,,,,,,,,,,,,,,,,,,,,,,,,,,,,,,,,,,,,,,,,,,,,,
1764668155,6118,0,4403.461426,4401.922852,4512.436035,4546.153809,4425.897461,4537.05127,4553.077148,4405.641113,4584.743652,4417.436035,4508.077148,4519.102539,4568.077148,4391.410156,4388.974121,4505.384766,4552.692383,4537.179688,4520.256348,4398.717773,4395.769043,4574.230957,4515.769043,4501.282227,4408.333496,4577.05127,4401.794922,4567.563965,4520,4405,4533.717773,4510.641113,2815,0,10,2572,16552,,,,0,4,4,4,4,4,4,4,4,4,4,4,4,4,4,4,4,4,4,4,4,4,4,4,4,4,4,4,4,4,4,4,4,100,,,,,,,,,,,,,,,,,,,,,,,,,,,,,,,,,,,,,,,,,,,,,,,,,,,,,,,,,,,,,,,,,,,,,,,,,,,,,,,,,,,,,,,,,,,,,,,,,,,,,,,,,,,,,,,,,,,,,,,,,,,,,,,,,,,,,,,,,,,,,,,,,,,,,,,,,,,,,,,,,,,,,,,,,,,,,,,,,,,,,,,,,,,,,,,,,,,,,,,,,,,,,,
1764668155,6119,0,4395.769043,4396.153809,4503.974121,4537.179688,4419.358887,4529.102539,4546.282227,4398.461426,4576.538574,4420.769043,4505.897461,4513.589844,4562.05127,4387.94873,4392.563965,4504.230957,4541.794922,4530.128418,4510,4390.512695,4387.307617,4562.307617,4507.94873,4488.717773,4384.743652,4570,4393.077148,4558.205078,4516.538574,4396.282227,4523.974121,4504.102539,2995,0,10,2572,16552,,,,0,4,4,4,4,4,4,4,4,4,4,4,4,4,4,4,4,4,4,4,4,4,4,4,4,4,4,4,4,4,4,4,4,100,,,,,,,,,,,,,,,,,,,,,,,,,,,,,,,,,,,,,,,,,,,,,,,,,,,,,,,,,,,,,,,,,,,,,,,,,,,,,,,,,,,,,,,,,,,,,,,,,,,,,,,,,,,,,,,,,,,,,,,,,,,,,,,,,,,,,,,,,,,,,,,,,,,,,,,,,,,,,,,,,,,,,,,,,,,,,,,,,,,,,,,,,,,,,,,,,,,,,,,,,,,,,,
1764668155,6120,0,4389.230957,4389.615234,4495.769043,4532.436035,4413.589844,4521.282227,4538.846191,4393.333496,4570,4416.922852,4501.282227,4507.692383,4555,4384.230957,4392.436035,4500,4527.94873,4517.692383,4497.05127,4379.615234,4378.205078,4551.794922,4500.512695,4476.666504,4375.769043,4565.128418,4386.666504,4547.563965,4512.05127,4389.487305,4518.846191,4495.512695,2913,0,10,2569,16559,,,,0,4,4,4,4,4,4,4,4,4,4,4,4,4,4,4,4,4,4,4,4,4,4,4,4,4,4,4,4,4,4,4,4,100,,,,,,,,,,,,,,,,,,,,,,,,,,,,,,,,,,,,,,,,,,,,,,,,,,,,,,,,,,,,,,,,,,,,,,,,,,,,,,,,,,,,,,,,,,,,,,,,,,,,,,,,,,,,,,,,,,,,,,,,,,,,,,,,,,,,,,,,,,,,,,,,,,,,,,,,,,,,,,,,,,,,,,,,,,,,,,,,,,,,,,,,,,,,,,,,,,,,,,,,,,,,,,
1764668155,6121,0,4385.256348,4385,4491.666504,4532.436035,4410.512695,4516.666504,4533.205078,4391.282227,4567.307617,4410.512695,4495.897461,4503.077148,4549.230957,4380.641113,4386.666504,4492.05127,4517.820313,4505,4486.666504,4370.128418,4372.05127,4545.897461,4495.897461,4468.717773,4383.846191,4563.333496,4383.077148,4537.94873,4507.820313,4386.410156,4519.230957,4487.692383,2754,0,10,2569,16559,,,,0,4,4,4,4,4,4,4,4,4,4,4,4,4,4,4,4,4,4,4,4,4,4,4,4,4,4,4,4,4,4,4,4,100,,,,,,,,,,,,,,,,,,,,,,,,,,,,,,,,,,,17914,0,0.34953,-0.547302,-0.312317,0.693359,0.827249,-0.569405,-0.040044,-6,45.666668,-7.833333,,,,,,,,,,,,,,,,,,,,,,,,,,,,,,,,,,,,,,,,,,,,,,,,,,,,,,,,,,,,,,,,,,,,,,,,,,,,,,,,,,,,,,,,,,,,,,,,,,,,,,,,,,,,,,,,,,,,,,,,,,,,,,,,,,,,,,,,,,,,,,,,,,,,,,,,,,,,,,,,
1764668155,6122,0,4384.358887,4383.846191,4493.205078,4535.641113,4410.128418,4515.769043,4531.410156,4392.179688,4568.205078,4406.538574,4492.436035,4501.153809,4547.179688,4378.717773,4378.717773,4484.871582,4516.410156,4500.128418,4485.128418,4367.05127,4372.05127,4546.410156,4495.769043,4467.820313,4397.307617,4564.230957,4381.153809,4532.692383,4505.128418,4387.179688,4521.410156,4484.358887,2609,0,10,2570,16567,,,,0,4,4,4,4,4,4,4,4,4,4,4,4,4,4,4,4,4,4,4,4,4,4,4,4,4,4,4,4,4,4,4,4,100,,,,,,,,,,,,,,,,,,,,,,,,,,,,,,,,,,,,,,,,,,,,,,,,,,,,,,,,,,,,,,,,,,,,,,,,,,,,,,,,,,,,,,,,,,,,,,,,,,,,,,,,,,,,,,,,,,,,,,,,,,,,,,,,,,,,,,,,,,,,,,,,,,,,,,,,,,,,,,,,,,,,,,,,,,,,,,,,,,,,,,,,,,,,,,,,,,,,,,,,,,,,,,
1764668155,6123,0,4387.563965,4387.436035,4500.256348,4540.897461,4412.179688,4518.205078,4534.487305,4395.769043,4572.692383,4408.077148,4493.077148,4503.461426,4551.025879,4380,4374.615234,4485,4524.871582,4508.205078,4495.128418,4373.717773,4379.358887,4553.205078,4501.538574,4474.743652,4404.102539,4567.94873,4381.025879,4535.128418,4505.641113,4391.282227,4522.692383,4488.974121,2726,0,10,2570,16567,,,,0,4,4,4,4,4,4,4,4,4,4,4,4,4,4,4,4,4,4,4,4,4,4,4,4,4,4,4,4,4,4,4,4,100,,,,,,,,,,,,,,,,,,,,,,,,,,,,,,,,,,,,,,,,,,,,,,,,,,,,,,,,,,,,,,,,,,,,,,,,,,,,,,,,,,,,,,,,,,,,,,,,,,,,,,,,,,,,,,,,,,,,,,,,,,,,,,,,,,,,,,,,,,,,,,,,,,,,,,,,,,,,,,,,,,,,,,,,,,,,,,,,,,,,,,,,,,,,,,,,,,,,,,,,,,,,,,
1764668155,6124,0,4395.641113,4396.153809,4511.025879,4547.94873,4416.666504,4523.717773,4542.436035,4402.820313,4580.641113,4413.846191,4498.333496,4511.922852,4560.641113,4385.769043,4378.461426,4495.641113,4539.871582,4527.563965,4513.205078,4388.974121,4392.179688,4565.256348,4512.820313,4487.563965,4403.077148,4574.871582,4384.358887,4546.666504,4510.769043,4398.333496,4525,4501.282227,2510,0,10,2571,16575,,,,0,4,4,4,4,4,4,4,4,4,4,4,4,4,4,4,4,4,4,4,4,4,4,4,4,4,4,4,4,4,4,4,4,100,,,,,,,,,,,,,,,,,,,,,,,,,,,,,,,,,,,,,,,,,,,,,,,,,,,,,,,,,,,,,,,,,,,,,,,,,,,,,,,,,,,,,,,,,,,,,,,,,,,,,,,,,,,,,,,,,,,,,,,,,,,,,,,,,,,,,,,,,,,,,,,,,,,,,,,,,,,,,,,,,,,,,,,,,,,,,,,,,,,,,,,,,,,,,,,,,,,,,,,,,,,,,,
1764668155,6125,0,4407.307617,4407.692383,4522.179688,4555.641113,4423.461426,4531.922852,4553.205078,4412.563965,4591.153809,4420.256348,4506.410156,4525.128418,4573.077148,4393.974121,4389.358887,4512.436035,4555.512695,4549.871582,4531.282227,4405.641113,4405.512695,4579.358887,4526.410156,4501.922852,4402.307617,4583.846191,4391.410156,4563.846191,4519.871582,4406.538574,4532.05127,4516.794922,2282,0,10,2571,16575,,,,0,4,4,4,4,4,4,4,4,4,4,4,4,4,4,4,4,4,4,4,4,4,4,4,4,4,4,4,4,4,4,4,4,100,,,,,,,,,,,,,,,,,,,,,,,,,,,,,,,,,,,17915,0,0.349448,-0.547424,-0.312195,0.693359,0.827249,-0.579172,-0.047857,-7.333333,45,-4.5,,,,,,,,,,,,,,,,,,,,,,,,,,,,,,,,,,,,,,,,,,,,,,,,,,,,,,,,,,,,,,,,,,,,,,,,,,,,,,,,,,,,,,,,,,,,,,,,,,,,,,,,,,,,,,,,,,,,,,,,,,,,,,,,,,,,,,,,,,,,,,,,,,,,,,,,,,,,,,,,
1764668155,6126,1,4408.157715,4408.333496,4522.496582,4555.762695,4424.197266,4532.665527,4553.798828,4412.719238,4591.140137,4419.385742,4506.875977,4525.607422,4573.461426,4394.473633,4389.871582,4513.576172,4556.160645,4550.087891,4530.836914,4405.236328,4405.762695,4579.844727,4526.922852,4502.496582,4404.041992,4584.642578,4392.759766,4564.648926,4520.499512,4407.64502,4532.699219,4516.929688,0,0,10,0,0,,,,0,4,4,4,4,4,4,4,4,4,4,4,4,4,4,4,4,4,4,4,4,4,4,4,4,4,4,4,4,4,4,4,4,100,,,,,,,,,,,,,,,,,,,,,,,,,,,,,,,,,,,,,,,,,,,,,,,,,,,,,,,,,,,,,,,,,,,,,,,,,,,,,,,,,,,,,,,,,,,,,,,,,,,,,,,,,,,,,,,,,,,,,,,,,,,,,,,,,,,,,,,,,,,,,,,,,,,,,,,,,,,,,,,,,,,,,,,,,,,,,,,,,,,,,,,,,,,,,,,,,,,,,,,,,,,,,,
1764668155,6127,1,4409.008301,4408.974121,4522.813965,4555.883789,4424.932617,4533.407715,4554.392578,4412.874512,4591.126953,4418.515625,4507.341309,4526.086426,4573.846191,4394.973145,4390.384766,4514.716797,4556.808594,4550.303711,4530.391602,4404.831543,4406.012207,4580.330566,4527.436035,4503.070313,4405.775879,4585.438477,4394.109375,4565.452148,4521.126953,4408.751465,4533.34668,4517.064941,0,0,10,0,0,,,,0,4,4,4,4,4,4,4,4,4,4,4,4,4,4,4,4,4,4,4,4,4,4,4,4,4,4,4,4,4,4,4,4,100,,,,,,,,,,,,,,,,,,,,,,,,,,,,,,,,,,,,,,,,,,,,,,,,,,,,,,,,,,,,,,,,,,,,,,,,,,,,,,,,,,,,,,,,,,,,,,,,,,,,,,,,,,,,,,,,,,,,,,,,,,,,,,,,,,,,,,,,,,,,,,,,,,,,,,,,,,,,,,,,,,,,,,,,,,,,,,,,,,,,,,,,,,,,,,,,,,,,,,,,,,,,,,
1764668155,6128,1,4409.858398,4409.615234,4523.130859,4556.005371,4425.667969,4534.149902,4554.986328,4413.029785,4591.113281,4417.64502,4507.807129,4526.56543,4574.230957,4395.472168,4390.897461,4515.856934,4557.456055,4550.519531,4529.945801,4404.42627,4406.261719,4580.816406,4527.94873,4503.643555,4407.510254,4586.234863,4395.458984,4566.254883,4521.754395,4409.858398,4533.994629,4517.199707,0,0,10,0,0,,,,0,4,4,4,4,4,4,4,4,4,4,4,4,4,4,4,4,4,4,4,4,4,4,4,4,4,4,4,4,4,4,4,4,100,,,,,,,,,,,,,,,,,,,,,,,,,,,,,,,,,,,,,,,,,,,,,,,1.045976,1.031328,0.521409,0.518814,0.492184,3.756655,1.168953,0.639195,0.645349,0.654068,30.616556,5.636719,1.147797,0.511525,0.856557,5.642612,1.145616,0.351109,0.515267,0.728349,3.821454,1.424884,0.434627,0.837706,0.605687,1.236881,0.886713,0.586544,0.448898,0.553962,0.740874,0.679383,0.46601,0.431514,0.490306,1.751695,0.677263,0.759973,0.678685,0.652194,1.262037,0.886976,0.552995,0.625098,0.704795,1.125091,0.611137,0.753491,1.966143,2.111511,0.658756,0.763818,0.548249,0.28765,0.465612,0.576182,0.796391,0.590672,0.419709,0.448771,0.78862,0.628862,0.552362,0.385049,0.585717,0.840047,0.613147,0.979355,0.402848,0.370964,1.254484,0.659277,1.156301,0.794456,0.859237,0.557404,2.704565,1.924889,1.175115,1.043877,1.101708,1.5403,0.98637,0.531036,0.865319,1.497609,4.40239,1.987844,1.389924,1.912401,0.471611,2.638468,1.703467,1.031154,1.68943,0.822061,0.782693,1.662988,0.54776,1.164547,0.575143,1.936363,1.826486,0.799179,1.335892,1.018921,1.447705,2.194631,0.5184,1.044521,0.959429,0.755895,0.972708,0.426709,0.5151,1.763412,1.208124,1.457344,0.739732,0.915881,2.175427,2.246416,8.212643,4.029932,2.294919,1.787591,1.016285,0.701301,0.623074,0.441435,3.285774,0.77344,0.458314,0.948697,1.125375,2.158142,0.87112,1.366037,0.764131,0.777276,0.839105,0.347485,0.4397,0.296579,0.235565,5.476353,1.378314,0.714969,0.904597,0.607412,4.776082,1.446341,0.704092,1.108924,1.403128,30.707403,4.520246,1.520188,0.589895,0.775744
1764668155,6129,1,4410.708496,4410.256348,4523.448242,4556.126953,4426.40332,4534.89209,4555.580078,4413.185059,4591.100098,4416.774414,4508.272461,4527.044434,4574.615234,4395.97168,4391.410156,4516.99707,4558.104004,4550.735352,4529.500488,4404.021484,4406.51123,4581.302246,4528.461426,4504.217285,4409.244141,4587.03125,4396.808594,4567.058105,4522.381836,4410.964844,4534.642578,4517.334473,0,0,10,0,0,,,,0,4,4,4,4,4,4,4,4,4,4,4,4,4,4,4,4,4,4,4,4,4,4,4,4,4,4,4,4,4,4,4,4,100,,,,,,,,,,,,,,,,,,,,,,,,,,,,,,,,,,,,,,,,,,,,,,,,,,,,,,,,,,,,,,,,,,,,,,,,,,,,,,,,,,,,,,,,,,,,,,,,,,,,,,,,,,,,,,,,,,,,,,,,,,,,,,,,,,,,,,,,,,,,,,,,,,,,,,,,,,,,,,,,,,,,,,,,,,,,,,,,,,,,,,,,,,,,,,,,,,,,,,,,,,,,,,
1764668155,6130,1,4411.558594,4410.897461,4523.765137,4556.248535,4427.13916,4535.634277,4556.174316,4413.339844,4591.086426,4415.904297,4508.738281,4527.523438,4575,4396.471191,4391.922852,4518.137695,4558.751465,4550.95166,4529.055176,4403.616699,4406.76123,4581.788086,4528.974121,4504.791016,4410.978516,4587.827148,4398.157715,4567.86084,4523.009277,4412.071289,4535.290039,4517.469727,0,0,10,0,0,,,,0,4,4,4,4,4,4,4,4,4,4,4,4,4,4,4,4,4,4,4,4,4,4,4,4,4,4,4,4,4,4,4,4,100,,,,,,,,,,,,,,,,,,,,,,,,,,,,,,,,,,,,,,,,,,,,,,,,,,,,,,,,,,,,,,,,,,,,,,,,,,,,,,,,,,,,,,,,,,,,,,,,,,,,,,,,,,,,,,,,,,,,,,,,,,,,,,,,,,,,,,,,,,,,,,,,,,,,,,,,,,,,,,,,,,,,,,,,,,,,,,,,,,,,,,,,,,,,,,,,,,,,,,,,,,,,,,
1764668155,6131,1,4412.408691,4411.538574,4524.08252,4556.369629,4427.874512,4536.376465,4556.768066,4413.495117,4591.072754,4415.033691,4509.203613,4528.00293,4575.384766,4396.970215,4392.436035,4519.277832,4559.399414,4551.16748,4528.609863,4403.211914,4407.010742,4582.273926,4529.487305,4505.364258,4412.712402,4588.623535,4399.507324,4568.664063,4523.637207,4413.178223,4535.937988,4517.604492,0,0,10,0,0,,,,0,4,4,4,4,4,4,4,4,4,4,4,4,4,4,4,4,4,4,4,4,4,4,4,4,4,4,4,4,4,4,4,4,100,,,,,,,,,,,,,,,,,,,,,,,,,,,,,,,,,,,,,,,,,,,,,,,,,,,,,,,,,,,,,,,,,,,,,,,,,,,,,,,,,,,,,,,,,,,,,,,,,,,,,,,,,,,,,,,,,,,,,,,,,,,,,,,,,,,,,,,,,,,,,,,,,,,,,,,,,,,,,,,,,,,,,,,,,,,,,,,,,,,,,,,,,,,,,,,,,,,,,,,,,,,,,,
1764668155,6132,1,4413.259277,4412.179688,4524.399414,4556.491211,4428.609863,4537.118652,4557.361816,4413.650391,4591.05957,4414.163086,4509.669434,4528.481934,4575.769043,4397.469727,4392.94873,4520.418457,4560.047363,4551.383301,4528.164551,4402.807129,4407.260254,4582.759766,4530,4505.937988,4414.446777,4589.419922,4400.856934,4569.466797,4524.264648,4414.284668,4536.585938,4517.739746,0,0,10,0,0,,,,0,4,4,4,4,4,4,4,4,4,4,4,4,4,4,4,4,4,4,4,4,4,4,4,4,4,4,4,4,4,4,4,4,100,,,,,,,,,,,,,,,,,,,,,,,,,,,,,,,,,,,,,,,,,,,,,,,,,,,,,,,,,,,,,,,,,,,,,,,,,,,,,,,,,,,,,,,,,,,,,,,,,,,,,,,,,,,,,,,,,,,,,,,,,,,,,,,,,,,,,,,,,,,,,,,,,,,,,,,,,,,,,,,,,,,,,,,,,,,,,,,,,,,,,,,,,,,,,,,,,,,,,,,,,,,,,,
1764668155,6133,1,4414.109375,4412.820313,4524.716797,4556.612793,4429.345703,4537.86084,4557.955566,4413.805664,4591.045898,4413.292969,4510.134766,4528.960938,4576.153809,4397.96875,4393.461426,4521.558594,4560.694824,4551.599121,4527.719238,4402.402344,4407.510254,4583.245605,4530.512695,4506.51123,4416.180664,4590.21582,4402.206543,4570.27002,4524.89209,4415.391602,4537.233398,4517.874512,0,0,10,0,0,,,,0,4,4,4,4,4,4,4,4,4,4,4,4,4,4,4,4,4,4,4,4,4,4,4,4,4,4,4,4,4,4,4,4,100,,,,,,,,,,,,,,,,,,,,,,,,,,,,,,,,,,,,,,,,,,,,,,,,,,,,,,,,,,,,,,,,,,,,,,,,,,,,,,,,,,,,,,,,,,,,,,,,,,,,,,,,,,,,,,,,,,,,,,,,,,,,,,,,,,,,,,,,,,,,,,,,,,,,,,,,,,,,,,,,,,,,,,,,,,,,,,,,,,,,,,,,,,,,,,,,,,,,,,,,,,,,,,
1764668155,6134,1,4414.959473,4413.461426,4525.033691,4556.734375,4430.081055,4538.603027,4558.549316,4413.960938,4591.032227,4412.422363,4510.600586,4529.439941,4576.538574,4398.468262,4393.974121,4522.699219,4561.342773,4551.814941,4527.273926,4401.99707,4407.759766,4583.731445,4531.025879,4507.084961,4417.915039,4591.012207,4403.556152,4571.072754,4525.519531,4416.498047,4537.881348,4518.009277,0,0,10,0,0,,,,0,4,4,4,4,4,4,4,4,4,4,4,4,4,4,4,4,4,4,4,4,4,4,4,4,4,4,4,4,4,4,4,4,100,,,,,,,,,,,,,,,,,,,,,,,,,,,,,,,,,,,,,,,,,,,,,,,,,,,,,,,,,,,,,,,,,,,,,,,,,,,,,,,,,,,,,,,,,,,,,,,,,,,,,,,,,,,,,,,,,,,,,,,,,,,,,,,,,,,,,,,,,,,,,,,,,,,,,,,,,,,,,,,,,,,,,,,,,,,,,,,,,,,,,,,,,,,,,,,,,,,,,,,,,,,,,,
1764668155,6135,1,4415.80957,4414.102539,4525.351074,4556.855469,4430.816406,4539.345703,4559.143066,4414.116211,4591.019043,4411.551758,4511.065918,4529.918945,4576.922852,4398.967773,4394.487305,4523.839355,4561.990723,4552.03125,4526.828613,4401.592285,4408.009277,4584.217285,4531.538574,4507.658691,4419.648926,4591.808594,4404.905762,4571.875977,4526.146973,4417.604492,4538.528809,4518.144531,0,0,10,0,0,,,,0,4,4,4,4,4,4,4,4,4,4,4,4,4,4,4,4,4,4,4,4,4,4,4,4,4,4,4,4,4,4,4,4,100,,,,,,,,,,,,,,,,,,,,,,,,,,,,,,,,,,,,,,,,,,,,,,,,,,,,,,,,,,,,,,,,,,,,,,,,,,,,,,,,,,,,,,,,,,,,,,,,,,,,,,,,,,,,,,,,,,,,,,,,,,,,,,,,,,,,,,,,,,,,,,,,,,,,,,,,,,,,,,,,,,,,,,,,,,,,,,,,,,,,,,,,,,,,,,,,,,,,,,,,,,,,,,
1764668155,6136,1,4416.660156,4414.743652,4525.667969,4556.977051,4431.551758,4540.087891,4559.736816,4414.271484,4591.005371,4410.681641,4511.531738,4530.397949,4577.307617,4399.466797,4395,4524.97998,4562.638184,4552.24707,4526.383301,4401.1875,4408.259277,4584.703125,4532.05127,4508.231934,4421.383301,4592.604492,4406.254883,4572.678711,4526.774414,4418.711426,4539.176758,4518.279297,0,0,10,0,0,,,,0,4,4,4,4,4,4,4,4,4,4,4,4,4,4,4,4,4,4,4,4,4,4,4,4,4,4,4,4,4,4,4,4,100,,,,,,,,,,,,,,,,,,,,,,,,,,,,,,,,,,,,,,,,,,,,,,,,,,,,,,,,,,,,,,,,,,,,,,,,,,,,,,,,,,,,,,,,,,,,,,,,,,,,,,,,,,,,,,,,,,,,,,,,,,,,,,,,,,,,,,,,,,,,,,,,,,,,,,,,,,,,,,,,,,,,,,,,,,,,,,,,,,,,,,,,,,,,,,,,,,,,,,,,,,,,,,
1764668155,6137,1,4417.510254,4415.384766,4525.985352,4557.098633,4432.287598,4540.830078,4560.330566,4414.42627,4590.991699,4409.811035,4511.99707,4530.876953,4577.692383,4399.966309,4395.512695,4526.120117,4563.286133,4552.462891,4525.937988,4400.782715,4408.508789,4585.188965,4532.563965,4508.805664,4423.117188,4593.400879,4407.604492,4573.481934,4527.402344,4419.817871,4539.824707,4518.414063,0,0,10,0,0,,,,0,4,4,4,4,4,4,4,4,4,4,4,4,4,4,4,4,4,4,4,4,4,4,4,4,4,4,4,4,4,4,4,4,100,,,,,,,,,,,,,,,,,,,,,,,,,,,,,,,,,,,17916,1,0.349401,-0.547461,-0.312183,0.693359,0.827152,-0.578196,-0.047174,-7.4,45.066666,-4.933333,,,,,,,,,,,,,,,,,,,,,,,,,,,,,,,,,,,,,,,,,,,,,,,,,,,,,,,,,,,,,,,,,,,,,,,,,,,,,,,,,,,,,,,,,,,,,,,,,,,,,,,,,,,,,,,,,,,,,,,,,,,,,,,,,,,,,,,,,,,,,,,,,,,,,,,,,,,,,,,,
1764668155,6138,1,4418.360352,4416.025879,4526.302246,4557.220215,4433.022949,4541.572266,4560.924316,4414.581543,4590.978516,4408.94043,4512.462891,4531.356445,4578.077148,4400.46582,4396.025879,4527.260254,4563.934082,4552.678711,4525.492676,4400.37793,4408.758301,4585.674805,4533.077148,4509.379395,4424.851563,4594.197266,4408.954102,4574.284668,4528.029785,4420.924316,4540.472168,4518.549316,0,0,10,0,0,,,,0,4,4,4,4,4,4,4,4,4,4,4,4,4,4,4,4,4,4,4,4,4,4,4,4,4,4,4,4,4,4,4,4,100,,,,,,,,,,,,,,,,,,,,,,,,,,,,,,,,,,,,,,,,,,,,,,,,,,,,,,,,,,,,,,,,,,,,,,,,,,,,,,,,,,,,,,,,,,,,,,,,,,,,,,,,,,,,,,,,,,,,,,,,,,,,,,,,,,,,,,,,,,,,,,,,,,,,,,,,,,,,,,,,,,,,,,,,,,,,,,,,,,,,,,,,,,,,,,,,,,,,,,,,,,,,,,
1764668155,6139,1,4419.210449,4416.666504,4526.619629,4557.341309,4433.758301,4542.314453,4561.518066,4414.736816,4590.964844,4408.070313,4512.928711,4531.835449,4578.461426,4400.964844,4396.538574,4528.400879,4564.581543,4552.894531,4525.047363,4399.973145,4409.008301,4586.160645,4533.589844,4509.952637,4426.585938,4594.993164,4410.303711,4575.087891,4528.657227,4422.03125,4541.120117,4518.684082,0,0,10,0,0,,,,0,4,4,4,4,4,4,4,4,4,4,4,4,4,4,4,4,4,4,4,4,4,4,4,4,4,4,4,4,4,4,4,4,100,,,,,,,,,,,,,,,,,,,,,,,,,,,,,,,,,,,17917,1,0.349355,-0.547498,-0.31217,0.693359,0.827054,-0.577219,-0.04649,-7.466667,45.133335,-5.366667,,,,,,,,,,,,,,,,,,,,,,,,,,,,,,,,,,,,,,,,,,,,,,,,,,,,,,,,,,,,,,,,,,,,,,,,,,,,,,,,,,,,,,,,,,,,,,,,,,,,,,,,,,,,,,,,,,,,,,,,,,,,,,,,,,,,,,,,,,,,,,,,,,,,,,,,,,,,,,,,
1764668155,6140,1,4420.060547,4417.307617,4526.936523,4557.462891,4434.494141,4543.056641,4562.111816,4414.89209,4590.95166,4407.199707,4513.394043,4532.314453,4578.846191,4401.464355,4397.05127,4529.541016,4565.229492,4553.11084,4524.602051,4399.568359,4409.257813,4586.646484,4534.102539,4510.526367,4428.319824,4595.789551,4411.65332,4575.890625,4529.284668,4423.137695,4541.768066,4518.819336,0,0,10,0,0,,,,0,4,4,4,4,4,4,4,4,4,4,4,4,4,4,4,4,4,4,4,4,4,4,4,4,4,4,4,4,4,4,4,4,100,,,,,,,,,,,,,,,,,,,,,,,,,,,,,,,,,,,,,,,,,,,,,,,,,,,,,,,,,,,,,,,,,,,,,,,,,,,,,,,,,,,,,,,,,,,,,,,,,,,,,,,,,,,,,,,,,,,,,,,,,,,,,,,,,,,,,,,,,,,,,,,,,,,,,,,,,,,,,,,,,,,,,,,,,,,,,,,,,,,,,,,,,,,,,,,,,,,,,,,,,,,,,,
1764668155,6141,1,4420.911133,4417.94873,4527.253906,4557.584473,4435.229492,4543.798828,4562.705566,4415.047363,4590.937988,4406.329102,4513.859863,4532.793457,4579.230957,4401.963379,4397.563965,4530.681641,4565.876953,4553.32666,4524.156738,4399.163086,4409.507324,4587.132324,4534.615234,4511.100098,4430.054199,4596.585938,4413.00293,4576.693848,4529.912109,4424.244141,4542.415527,4518.954102,0,0,10,0,0,,,,0,4,4,4,4,4,4,4,4,4,4,4,4,4,4,4,4,4,4,4,4,4,4,4,4,4,4,4,4,4,4,4,4,100,,,,,,,,,,,,,,,,,,,,,,,,,,,,,,,,,,,17918,1,0.349308,-0.547534,-0.312158,0.693359,0.826956,-0.576242,-0.045806,-7.533333,45.200001,-5.8,,,,,,,,,,,,,,,,,,,,,,,,,,,,,,,,,,,,,,,,,,,,,,,,,,,,,,,,,,,,,,,,,,,,,,,,,,,,,,,,,,,,,,,,,,,,,,,,,,,,,,,,,,,,,,,,,,,,,,,,,,,,,,,,,,,,,,,,,,,,,,,,,,,,,,,,,,,,,,,,
1764668155,6142,1,4421.76123,4418.589844,4527.570801,4557.705566,4435.964844,4544.541016,4563.299805,4415.202637,4590.924316,4405.458984,4514.325195,4533.272461,4579.615234,4402.462891,4398.077148,4531.821777,4566.524902,4553.54248,4523.711426,4398.758301,4409.757324,4587.618164,4535.128418,4511.67334,4431.788086,4597.381836,4414.352051,4577.496582,4530.540039,4425.351074,4543.063477,4519.088867,0,0,10,0,0,,,,0,4,4,4,4,4,4,4,4,4,4,4,4,4,4,4,4,4,4,4,4,4,4,4,4,4,4,4,4,4,4,4,4,100,,,,,,,,,,,,,,,,,,,,,,,,,,,,,,,,,,,,,,,,,,,,,,,,,,,,,,,,,,,,,,,,,,,,,,,,,,,,,,,,,,,,,,,,,,,,,,,,,,,,,,,,,,,,,,,,,,,,,,,,,,,,,,,,,,,,,,,,,,,,,,,,,,,,,,,,,,,,,,,,,,,,,,,,,,,,,,,,,,,,,,,,,,,,,,,,,,,,,,,,,,,,,,
1764668155,6143,1,4422.611328,4419.230957,4527.888184,4557.827148,4436.700195,4545.283203,4563.893555,4415.357422,4590.911133,4404.588379,4514.791016,4533.751465,4580,4402.962402,4398.589844,4532.962402,4567.172852,4553.758301,4523.265625,4398.353516,4410.006836,4588.104004,4535.641113,4512.24707,4433.522461,4598.178223,4415.70166,4578.299805,4531.16748,4426.45752,4543.711426,4519.224121,0,0,10,0,0,,,,0,4,4,4,4,4,4,4,4,4,4,4,4,4,4,4,4,4,4,4,4,4,4,4,4,4,4,4,4,4,4,4,4,100,,,,,,,,,,,,,,,,,,,,,,,,,,,,,,,,,,,17919,1,0.349262,-0.547571,-0.312146,0.693359,0.826859,-0.575266,-0.045123,-7.6,45.266666,-6.233333,,,,,,,,,,,,,,,,,,,,,,,,,,,,,,,,,,,,,,,,,,,,,,,,,,,,,,,,,,,,,,,,,,,,,,,,,,,,,,,,,,,,,,,,,,,,,,,,,,,,,,,,,,,,,,,,,,,,,,,,,,,,,,,,,,,,,,,,,,,,,,,,,,,,,,,,,,,,,,,,
1764668155,6144,0,4423.461426,4419.871582,4528.205078,4557.94873,4437.436035,4546.025879,4564.487305,4415.512695,4590.897461,4403.717773,4515.256348,4534.230957,4580.384766,4403.461426,4399.102539,4534.102539,4567.820313,4553.974121,4522.820313,4397.94873,4410.256348,4588.589844,4536.153809,4512.820313,4435.256348,4598.974121,4417.05127,4579.102539,4531.794922,4427.563965,4544.358887,4519.358887,2802,0,10,2576,16653,,,,0,4,4,4,4,4,4,4,4,4,4,4,4,4,4,4,4,4,4,4,4,4,4,4,4,4,4,4,4,4,4,4,4,100,,,,,,,,,,,,,,,,,,,,,,,,,,,,,,,,,,,,,,,,,,,,,,,,,,,,,,,,,,,,,,,,,,,,,,,,,,,,,,,,,,,,,,,,,,,,,,,,,,,,,,,,,,,,,,,,,,,,,,,,,,,,,,,,,,,,,,,,,,,,,,,,,,,,,,,,,,,,,,,,,,,,,,,,,,,,,,,,,,,,,,,,,,,,,,,,,,,,,,,,,,,,,,
1764668155,6145,0,4423.333496,4420.769043,4527.692383,4563.461426,4437.94873,4548.205078,4563.205078,4416.794922,4592.307617,4401.410156,4514.743652,4534.102539,4577.307617,4401.025879,4395.897461,4530.897461,4567.563965,4548.333496,4518.717773,4396.794922,4408.077148,4590.512695,4533.846191,4513.077148,4431.794922,4598.461426,4413.205078,4578.717773,4531.538574,4423.077148,4544.871582,4519.102539,2908,0,10,2576,16653,,,,0,4,4,4,4,4,4,4,4,4,4,4,4,4,4,4,4,4,4,4,4,4,4,4,4,4,4,4,4,4,4,4,4,100,,,,,,,,,,,,,,,,,,,,,,,,,,,,,,,,,,,17920,0,0.349215,-0.547607,-0.312134,0.693359,0.826761,-0.574289,-0.044439,-7.666667,45.333332,-6.666667,,,,,,,,,,,,,,,,,,,,,,,,,,,,,,,,,,,,,,,,,,,,,,,,,,,,,,,,,,,,,,,,,,,,,,,,,,,,,,,,,,,,,,,,,,,,,,,,,,,,,,,,,,,,,,,,,,,,,,,,,,,,,,,,,,,,,,,,,,,,,,,,,,,,,,,,,,,,,,,,
1764668155,6146,0,4417.179688,4415.384766,4522.820313,4561.538574,4432.05127,4542.692383,4556.025879,4412.05127,4588.333496,4403.077148,4507.307617,4526.794922,4571.410156,4393.717773,4387.307617,4522.05127,4559.487305,4538.205078,4513.974121,4393.077148,4399.230957,4586.794922,4526.538574,4509.102539,4416.666504,4592.563965,4404.615234,4574.358887,4526.282227,4412.820313,4541.410156,4520.128418,2679,0,10,2576,16661,,,,0,4,4,4,4,4,4,4,4,4,4,4,4,4,4,4,4,4,4,4,4,4,4,4,4,4,4,4,4,4,4,4,4,100,,,,,,,,,,,,,,,,,,,,,,,,,,,,,,,,,,,,,,,,,,,,,,,,,,,,,,,,,,,,,,,,,,,,,,,,,,,,,,,,,,,,,,,,,,,,,,,,,,,,,,,,,,,,,,,,,,,,,,,,,,,,,,,,,,,,,,,,,,,,,,,,,,,,,,,,,,,,,,,,,,,,,,,,,,,,,,,,,,,,,,,,,,,,,,,,,,,,,,,,,,,,,,
1764668155,6147,0,4408.589844,4406.410156,4515.641113,4552.307617,4423.077148,4531.666504,4546.153809,4403.205078,4581.153809,4406.666504,4497.436035,4515.769043,4566.282227,4385.641113,4377.692383,4511.922852,4548.205078,4531.410156,4513.333496,4389.871582,4388.205078,4580.641113,4518.974121,4503.461426,4397.436035,4583.846191,4394.615234,4568.461426,4518.717773,4401.153809,4534.743652,4521.153809,2849,0,10,2576,16661,,,,0,4,4,4,4,4,4,4,4,4,4,4,4,4,4,4,4,4,4,4,4,4,4,4,4,4,4,4,4,4,4,4,4,100,,,,,,,,,,,,,,,,,,,,,,,,,,,,,,,,,,,,,,,,,,,,,,,,,,,,,,,,,,,,,,,,,,,,,,,,,,,,,,,,,,,,,,,,,,,,,,,,,,,,,,,,,,,,,,,,,,,,,,,,,,,,,,,,,,,,,,,,,,,,,,,,,,,,,,,,,,,,,,,,,,,,,,,,,,,,,,,,,,,,,,,,,,,,,,,,,,,,,,,,,,,,,,
1764668155,6148,0,4403.077148,4400.256348,4510.769043,4542.179688,4416.794922,4521.922852,4539.615234,4395.512695,4575.256348,4408.846191,4491.538574,4507.820313,4564.743652,4382.05127,4372.94873,4505,4540.512695,4532.563965,4518.461426,4391.153809,4382.436035,4576.794922,4516.282227,4501.025879,4387.05127,4577.94873,4388.846191,4565.128418,4513.333496,4393.974121,4530,4521.410156,2751,0,10,2576,16669,,,,0,4,4,4,4,4,4,4,4,4,4,4,4,4,4,4,4,4,4,4,4,4,4,4,4,4,4,4,4,4,4,4,4,100,,,,,,,,,,,,,,,,,,,,,,,,,,,,,,,,,,,,,,,,,,,,,,,,,,,,,,,,,,,,,,,,,,,,,,,,,,,,,,,,,,,,,,,,,,,,,,,,,,,,,,,,,,,,,,,,,,,,,,,,,,,,,,,,,,,,,,,,,,,,,,,,,,,,,,,,,,,,,,,,,,,,,,,,,,,,,,,,,,,,,,,,,,,,,,,,,,,,,,,,,,,,,,
1764668155,6149,0,4403.846191,4402.179688,4512.179688,4538.974121,4417.05127,4520,4540.897461,4394.230957,4574.871582,4408.077148,4493.461426,4507.563965,4567.563965,4385.897461,4376.025879,4503.589844,4540.897461,4538.974121,4525.641113,4397.307617,4386.538574,4577.94873,4520.769043,4504.871582,4393.846191,4579.358887,4391.410156,4566.410156,4513.717773,4394.358887,4532.94873,4521.410156,2816,0,10,2576,16669,,,,0,4,4,4,4,4,4,4,4,4,4,4,4,4,4,4,4,4,4,4,4,4,4,4,4,4,4,4,4,4,4,4,4,100,,,,,,,,,,,,,,,,,,,,,,,,,,,,,,,,,,,17921,0,0.349465,-0.547363,-0.312012,0.693481,0.821878,-0.574289,-0.041997,-7,44.333332,-7.666667,,,,,,,,,,,,,,,,,,,,,,,,,,,,,,,,,,,,,,,,,,,,,,,,,,,,,,,,,,,,,,,,,,,,,,,,,,,,,,,,,,,,,,,,,,,,,,,,,,,,,,,,,,,,,,,,,,,,,,,,,,,,,,,,,,,,,,,,,,,,,,,,,,,,,,,,,,,,,,,,
1764668155,6150,0,4409.615234,4411.794922,4519.230957,4545,4423.077148,4526.794922,4550.128418,4399.871582,4580.641113,4406.282227,4502.05127,4514.615234,4572.563965,4395.384766,4384.615234,4507.307617,4548.077148,4544.102539,4529.230957,4404.358887,4397.820313,4582.436035,4529.871582,4513.333496,4414.230957,4588.333496,4401.666504,4571.410156,4519.358887,4401.025879,4544.358887,4522.563965,2812,0,10,2574,16677,,,,0,4,4,4,4,4,4,4,4,4,4,4,4,4,4,4,4,4,4,4,4,4,4,4,4,4,4,4,4,4,4,4,4,100,,,,,,,,,,,,,,,,,,,,,,,,,,,,,,,,,,,,,,,,,,,,,,,,,,,,,,,,,,,,,,,,,,,,,,,,,,,,,,,,,,,,,,,,,,,,,,,,,,,,,,,,,,,,,,,,,,,,,,,,,,,,,,,,,,,,,,,,,,,,,,,,,,,,,,,,,,,,,,,,,,,,,,,,,,,,,,,,,,,,,,,,,,,,,,,,,,,,,,,,,,,,,,
1764668155,6151,0,4415.256348,4422.820313,4527.563965,4554.358887,4429.743652,4536.922852,4561.538574,4408.205078,4588.461426,4407.563965,4511.153809,4523.077148,4576.025879,4404.743652,4392.436035,4512.563965,4556.282227,4543.205078,4526.794922,4406.538574,4408.461426,4585.769043,4537.436035,4520.384766,4434.871582,4599.743652,4414.230957,4576.025879,4526.025879,4409.230957,4557.692383,4524.743652,2991,0,10,2574,16677,,,,0,4,4,4,4,4,4,4,4,4,4,4,4,4,4,4,4,4,4,4,4,4,4,4,4,4,4,4,4,4,4,4,4,100,,,,,,,,,,,,,,,,,,,,,,,,,,,,,,,,,,,,,,,,,,,,,,,,,,,,,,,,,,,,,,,,,,,,,,,,,,,,,,,,,,,,,,,,,,,,,,,,,,,,,,,,,,,,,,,,,,,,,,,,,,,,,,,,,,,,,,,,,,,,,,,,,,,,,,,,,,,,,,,,,,,,,,,,,,,,,,,,,,,,,,,,,,,,,,,,,,,,,,,,,,,,,,
1764668155,6152,0,4416.666504,4427.563965,4531.410156,4558.717773,4432.436035,4543.077148,4567.563965,4413.333496,4593.461426,4414.487305,4514.487305,4527.307617,4575.512695,4408.205078,4393.717773,4515.897461,4559.230957,4537.436035,4520.384766,4401.666504,4411.410156,4584.743652,4538.974121,4520.512695,4442.307617,4606.153809,4422.692383,4576.666504,4529.102539,4414.230957,4563.589844,4526.025879,2905,0,10,2573,16684,,,,0,4,4,4,4,4,4,4,4,4,4,4,4,4,4,4,4,4,4,4,4,4,4,4,4,4,4,4,4,4,4,4,4,100,,,,,,,,,,,,,,,,,,,,,,,,,,,,,,,,,,,,,,,,,,,,,,,,,,,,,,,,,,,,,,,,,,,,,,,,,,,,,,,,,,,,,,,,,,,,,,,,,,,,,,,,,,,,,,,,,,,,,,,,,,,,,,,,,,,,,,,,,,,,,,,,,,,,,,,,,,,,,,,,,,,,,,,,,,,,,,,,,,,,,,,,,,,,,,,,,,,,,,,,,,,,,,
1764668155,6153,0,4413.333496,4423.333496,4528.846191,4554.487305,4429.871582,4542.563965,4565,4412.307617,4593.205078,4424.743652,4510.384766,4525.512695,4571.153809,4404.230957,4387.94873,4515.384766,4555,4532.692383,4515.512695,4393.589844,4406.666504,4579.743652,4534.102539,4513.205078,4434.358887,4603.077148,4423.461426,4572.05127,4527.436035,4414.102539,4557.179688,4524.743652,2747,0,10,2573,16684,,,,0,4,4,4,4,4,4,4,4,4,4,4,4,4,4,4,4,4,4,4,4,4,4,4,4,4,4,4,4,4,4,4,4,100,,,,,,,,,,,,,,,,,,,,,,,,,,,,,,,,,,,17922,0,0.349461,-0.547485,-0.312073,0.693359,0.817971,-0.575754,-0.048834,-7.333333,45.333332,-5.333333,,,,,,,,,,,,,,,,,,,,,,,,,,,,,,,,,,,,,,,,,,,,,,,,,,,,,,,,,,,,,,,,,,,,,,,,,,,,,,,,,,,,,,,,,,,,,,,,,,,,,,,,,,,,,,,,,,,,,,,,,,,,,,,,,,,,,,,,,,,,,,,,,,,,,,,,,,,,,,,,
1764668155,6154,0,4408.461426,4413.205078,4522.307617,4545.384766,4424.871582,4537.307617,4556.666504,4406.410156,4589.871582,4431.666504,4503.077148,4520.769043,4566.410156,4396.282227,4379.102539,4512.436035,4547.307617,4533.589844,4515.384766,4388.974121,4400.384766,4574.102539,4526.922852,4503.461426,4419.871582,4592.307617,4417.179688,4565,4523.205078,4410.384766,4542.692383,4520.769043,2604,0,10,2574,16692,,,,0,4,4,4,4,4,4,4,4,4,4,4,4,4,4,4,4,4,4,4,4,4,4,4,4,4,4,4,4,4,4,4,4,100,,,,,,,,,,,,,,,,,,,,,,,,,,,,,,,,,,,,,,,,,,,,,,,,,,,,,,,,,,,,,,,,,,,,,,,,,,,,,,,,,,,,,,,,,,,,,,,,,,,,,,,,,,,,,,,,,,,,,,,,,,,,,,,,,,,,,,,,,,,,,,,,,,,,,,,,,,,,,,,,,,,,,,,,,,,,,,,,,,,,,,,,,,,,,,,,,,,,,,,,,,,,,,
1764668155,6155,0,4404.743652,4403.846191,4516.153809,4537.94873,4420.512695,4531.666504,4548.077148,4399.871582,4586.282227,4428.333496,4498.205078,4516.794922,4563.846191,4390.256348,4373.205078,4510.641113,4541.153809,4539.230957,4518.846191,4391.410156,4398.333496,4570.641113,4521.794922,4496.922852,4410.641113,4579.743652,4406.922852,4558.717773,4518.846191,4405.897461,4528.974121,4515.256348,2727,0,10,2574,16692,,,,0,4,4,4,4,4,4,4,4,4,4,4,4,4,4,4,4,4,4,4,4,4,4,4,4,4,4,4,4,4,4,4,4,100,,,,,,,,,,,,,,,,,,,,,,,,,,,,,,,,,,,,,,,,,,,,,,,,,,,,,,,,,,,,,,,,,,,,,,,,,,,,,,,,,,,,,,,,,,,,,,,,,,,,,,,,,,,,,,,,,,,,,,,,,,,,,,,,,,,,,,,,,,,,,,,,,,,,,,,,,,,,,,,,,,,,,,,,,,,,,,,,,,,,,,,,,,,,,,,,,,,,,,,,,,,,,,
1764668155,6156,0,4401.922852,4399.230957,4512.820313,4535.256348,4417.179688,4527.563965,4542.94873,4395.897461,4583.717773,4412.94873,4497.692383,4514.871582,4563.077148,4389.358887,4372.94873,4512.307617,4538.717773,4543.846191,4520.897461,4397.436035,4400.256348,4569.230957,4519.358887,4494.871582,4410.769043,4570.769043,4395.897461,4554.743652,4515.128418,4401.538574,4522.05127,4509.102539,2511,0,10,2575,16700,,,,0,4,4,4,4,4,4,4,4,4,4,4,4,4,4,4,4,4,4,4,4,4,4,4,4,4,4,4,4,4,4,4,4,100,,,,,,,,,,,,,,,,,,,,,,,,,,,,,,,,,,,,,,,,,,,,,,,,,,,,,,,,,,,,,,,,,,,,,,,,,,,,,,,,,,,,,,,,,,,,,,,,,,,,,,,,,,,,,,,,,,,,,,,,,,,,,,,,,,,,,,,,,,,,,,,,,,,,,,,,,,,,,,,,,,,,,,,,,,,,,,,,,,,,,,,,,,,,,,,,,,,,,,,,,,,,,,
1764668155,6157,0,4397.94873,4398.461426,4510.897461,4535.641113,4413.077148,4524.487305,4540.641113,4394.871582,4580.769043,4391.282227,4498.846191,4513.461426,4561.922852,4392.307617,4376.282227,4515.897461,4538.205078,4542.05127,4518.461426,4399.487305,4401.025879,4567.820313,4516.922852,4494.102539,4414.743652,4566.666504,4386.153809,4551.538574,4511.282227,4396.666504,4520.512695,4503.077148,2287,0,10,2575,16700,,,,0,4,4,4,4,4,4,4,4,4,4,4,4,4,4,4,4,4,4,4,4,4,4,4,4,4,4,4,4,4,4,4,4,100,,,,,,,,,,,,,,,,,,,,,,,,,,,,,,,,,,,17923,0,0.349483,-0.547668,-0.312134,0.693176,0.817971,-0.579661,-0.042974,-5.833333,45.5,-4.666667,,,,,,,,,,,,,,,,,,,,,,,,,,,,,,,,,,,,,,,,,,,,,,,,,,,,,,,,,,,,,,,,,,,,,,,,,,,,,,,,,,,,,,,,,,,,,,,,,,,,,,,,,,,,,,,,,,,,,,,,,,,,,,,,,,,,,,,,,,,,,,,,,,,,,,,,,,,,,,,,
1764668155,6158,0,4391.666504,4397.94873,4507.94873,4535.128418,4406.922852,4520.256348,4538.205078,4394.615234,4575.897461,4373.589844,4498.205078,4510.641113,4558.717773,4394.871582,4378.974121,4517.820313,4537.05127,4533.974121,4512.692383,4393.717773,4396.410156,4565,4512.563965,4491.538574,4415.512695,4565.897461,4379.743652,4548.077148,4506.794922,4391.153809,4519.487305,4497.820313,2731,0,10,2576,16708,,,,0,4,4,4,4,4,4,4,4,4,4,4,4,4,4,4,4,4,4,4,4,4,4,4,4,4,4,4,4,4,4,4,4,100,,,,,,,,,,,,,,,,,,,,,,,,,,,,,,,,,,,,,,,,,,,,,,,,,,,,,,,,,,,,,,,,,,,,,,,,,,,,,,,,,,,,,,,,,,,,,,,,,,,,,,,,,,,,,,,,,,,,,,,,,,,,,,,,,,,,,,,,,,,,,,,,,,,,,,,,,,,,,,,,,,,,,,,,,,,,,,,,,,,,,,,,,,,,,,,,,,,,,,,,,,,,,,
1764668155,6159,0,4385.512695,4396.025879,4504.230957,4532.307617,4400.897461,4515.512695,4534.102539,4393.333496,4570.512695,4368.974121,4495.256348,4507.436035,4555.128418,4394.102539,4378.717773,4515.512695,4534.615234,4526.153809,4508.974121,4385.128418,4388.974121,4561.794922,4508.589844,4488.461426,4413.205078,4567.436035,4379.615234,4545.641113,4503.846191,4387.563965,4517.692383,4495.769043,2462,0,10,2576,16708,,,,0,4,4,4,4,4,4,4,4,4,4,4,4,4,4,4,4,4,4,4,4,4,4,4,4,4,4,4,4,4,4,4,4,100,,,,,,,,,,,,,,,,,,,,,,,,,,,,,,,,,,,,,,,,,,,,,,,,,,,,,,,,,,,,,,,,,,,,,,,,,,,,,,,,,,,,,,,,,,,,,,,,,,,,,,,,,,,,,,,,,,,,,,,,,,,,,,,,,,,,,,,,,,,,,,,,,,,,,,,,,,,,,,,,,,,,,,,,,,,,,,,,,,,,,,,,,,,,,,,,,,,,,,,,,,,,,,
1764668155,6160,0,4384.358887,4395.384766,4503.205078,4530.256348,4399.487305,4513.846191,4531.410156,4392.436035,4568.077148,4379.871582,4493.461426,4507.179688,4554.871582,4391.025879,4376.666504,4511.410156,4534.358887,4526.282227,4512.692383,4383.589844,4386.794922,4562.436035,4509.487305,4490,4413.333496,4571.666504,4386.794922,4548.077148,4505.384766,4389.615234,4519.358887,4499.615234,2885,0,10,2576,16716,,,,0,4,4,4,4,4,4,4,4,4,4,4,4,4,4,4,4,4,4,4,4,4,4,4,4,4,4,4,4,4,4,4,4,100,,,,,,,,,,,,,,,,,,,,,,,,,,,,,,,,,,,,,,,,,,,,,,,1.188974,0.745277,0.561684,0.55523,0.514689,4.399363,0.996587,0.788725,0.682505,0.657826,29.450169,4.968753,1.210314,0.52665,0.821166,5.808452,0.969537,0.519568,0.561916,0.764684,3.982113,1.234767,0.641429,1.011431,0.623186,1.477873,0.691042,0.695735,0.463576,0.570886,0.89248,0.540997,0.556121,0.445971,0.523059,1.867725,0.585498,0.910225,0.730876,0.671058,1.254472,0.60272,0.685805,0.701265,0.68711,1.277453,0.493624,0.998725,2.146245,2.232407,0.681035,0.691383,0.549435,0.320358,0.487464,0.618826,0.718408,0.694042,0.428649,0.496481,0.865981,0.584301,0.808624,0.427819,0.649076,0.735958,0.620023,1.169778,0.391966,0.400661,1.287194,0.601653,1.537163,0.85616,0.868953,0.614133,2.178787,2.101813,1.319115,1.109251,1.145364,1.319657,1.14698,0.60862,0.892213,1.567737,3.848865,2.290102,1.441703,2.005633,0.623559,2.396403,2.020522,1.019774,1.672315,1.060151,0.537916,1.3624,0.568481,1.182208,0.775372,1.645069,1.697398,0.817147,1.350788,1.132835,1.023989,2.218123,0.549599,1.065168,1.10602,0.596704,0.935655,0.442347,0.526249,1.924992,0.831201,1.339372,0.77094,0.951966,2.71329,1.657073,7.448435,3.883599,2.403438,2.112825,0.753913,0.706382,0.601174,0.454504,3.89592,0.539372,0.496928,1.000903,1.236099,2.48192,0.586452,1.192038,0.781044,0.827186,1.045095,0.267719,0.460741,0.299902,0.246627,6.093944,1.061649,0.760247,0.950998,0.640568,5.215612,1.115249,0.918896,1.097752,1.539677,29.764685,3.764815,1.436566,0.5592,0.801011
1764668155,6161,0,4391.410156,4399.743652,4507.563965,4533.717773,4406.153809,4518.589844,4534.102539,4394.230957,4571.538574,4400,4496.282227,4513.077148,4560.769043,4389.487305,4376.666504,4510.384766,4539.871582,4536.538574,4523.205078,4394.615234,4395.256348,4569.743652,4517.436035,4498.974121,4419.743652,4579.871582,4399.358887,4557.436035,4512.692383,4398.461426,4529.230957,4509.487305,2924,0,10,2576,16716,,,,0,4,4,4,4,4,4,4,4,4,4,4,4,4,4,4,4,4,4,4,4,4,4,4,4,4,4,4,4,4,4,4,4,100,,,,,,,,,,,,,,,,,,,,,,,,,,,,,,,,,,,17924,0,0.349396,-0.547852,-0.312317,0.692993,0.817971,-0.579661,-0.042974,-7.5,44.333332,-4.666667,,,,,,,,,,,,,,,,,,,,,,,,,,,,,,,,,,,,,,,,,,,,,,,,,,,,,,,,,,,,,,,,,,,,,,,,,,,,,,,,,,,,,,,,,,,,,,,,,,,,,,,,,,,,,,,,,,,,,,,,,,,,,,,,,,,,,,,,,,,,,,,,,,,,,,,,,,,,,,,,
1764668155,6162,0,4403.461426,4408.589844,4516.025879,4543.717773,4418.461426,4528.461426,4543.077148,4400,4580.512695,4418.461426,4502.820313,4523.846191,4571.410156,4391.922852,4380.641113,4515.256348,4550.256348,4550.256348,4533.589844,4412.563965,4411.153809,4581.282227,4528.461426,4511.410156,4428.077148,4590.384766,4411.410156,4570,4522.563965,4410.128418,4545.128418,4521.538574,1755,0,10,2576,16723,,,,0,4,4,4,4,4,4,4,4,4,4,4,4,4,4,4,4,4,4,4,4,4,4,4,4,4,4,4,4,4,4,4,4,100,,,,,,,,,,,,,,,,,,,,,,,,,,,,,,,,,,,,,,,,,,,,,,,,,,,,,,,,,,,,,,,,,,,,,,,,,,,,,,,,,,,,,,,,,,,,,,,,,,,,,,,,,,,,,,,,,,,,,,,,,,,,,,,,,,,,,,,,,,,,,,,,,,,,,,,,,,,,,,,,,,,,,,,,,,,,,,,,,,,,,,,,,,,,,,,,,,,,,,,,,,,,,,
1764668155,6163,0,4412.692383,4416.538574,4522.563965,4555.897461,4429.871582,4536.922852,4553.461426,4407.307617,4590.512695,4425.384766,4507.820313,4533.333496,4580.897461,4397.179688,4387.436035,4522.563965,4559.871582,4556.794922,4534.743652,4424.487305,4422.94873,4589.871582,4535,4519.358887,4429.487305,4598.205078,4416.538574,4578.717773,4529.102539,4417.692383,4557.94873,4530,2776,0,10,2576,16723,,,,0,4,4,4,4,4,4,4,4,4,4,4,4,4,4,4,4,4,4,4,4,4,4,4,4,4,4,4,4,4,4,4,4,100,,,,,,,,,,,,,,,,,,,,,,,,,,,,,,,,,,,,,,,,,,,,,,,,,,,,,,,,,,,,,,,,,,,,,,,,,,,,,,,,,,,,,,,,,,,,,,,,,,,,,,,,,,,,,,,,,,,,,,,,,,,,,,,,,,,,,,,,,,,,,,,,,,,,,,,,,,,,,,,,,,,,,,,,,,,,,,,,,,,,,,,,,,,,,,,,,,,,,,,,,,,,,,
1764668155,6164,0,4412.94873,4417.307617,4522.563965,4562.179688,4433.589844,4537.563965,4557.820313,4411.666504,4595.897461,4418.974121,4506.410156,4535,4583.974121,4401.666504,4392.820313,4526.282227,4561.666504,4550.384766,4523.205078,4420,4420.769043,4589.487305,4531.794922,4516.794922,4418.974121,4597.563965,4411.922852,4577.94873,4527.692383,4415.897461,4558.461426,4530.128418,2586,0,10,2576,16731,,,,0,4,4,4,4,4,4,4,4,4,4,4,4,4,4,4,4,4,4,4,4,4,4,4,4,4,4,4,4,4,4,4,4,100,,,,,,,,,,,,,,,,,,,,,,,,,,,,,,,,,,,,,,,,,,,,,,,,,,,,,,,,,,,,,,,,,,,,,,,,,,,,,,,,,,,,,,,,,,,,,,,,,,,,,,,,,,,,,,,,,,,,,,,,,,,,,,,,,,,,,,,,,,,,,,,,,,,,,,,,,,,,,,,,,,,,,,,,,,,,,,,,,,,,,,,,,,,,,,,,,,,,,,,,,,,,,,
1764668155,6165,0,4404.615234,4409.615234,4516.538574,4558.461426,4427.820313,4529.871582,4553.205078,4410.256348,4593.589844,4406.282227,4498.974121,4528.333496,4579.487305,4402.820313,4393.717773,4523.333496,4554.615234,4536.153809,4506.025879,4400.897461,4404.487305,4580,4521.025879,4505.384766,4400.641113,4587.179688,4400.512695,4569.102539,4519.487305,4406.538574,4545.641113,4522.05127,2817,0,10,2576,16731,,,,0,4,4,4,4,4,4,4,4,4,4,4,4,4,4,4,4,4,4,4,4,4,4,4,4,4,4,4,4,4,4,4,4,100,,,,,,,,,,,,,,,,,,,,,,,,,,,,,,,,,,,17925,0,0.349192,-0.54834,-0.3125,0.692627,0.836528,-0.569894,-0.035649,-6.833333,46.166668,-4.166667,,,,,,,,,,,,,,,,,,,,,,,,,,,,,,,,,,,,,,,,,,,,,,,,,,,,,,,,,,,,,,,,,,,,,,,,,,,,,,,,,,,,,,,,,,,,,,,,,,,,,,,,,,,,,,,,,,,,,,,,,,,,,,,,,,,,,,,,,,,,,,,,,,,,,,,,,,,,,,,,
1764668155,6166,0,4394.743652,4398.589844,4510.897461,4547.436035,4417.563965,4520,4543.974121,4404.358887,4586.025879,4398.461426,4491.922852,4518.974121,4572.179688,4400.769043,4390,4516.666504,4544.615234,4526.794922,4496.410156,4380.897461,4385.641113,4568.205078,4510.769043,4493.461426,4386.282227,4572.820313,4389.743652,4559.487305,4510.384766,4396.922852,4528.974121,4511.025879,2927,0,10,2576,16739,,,,0,4,4,4,4,4,4,4,4,4,4,4,4,4,4,4,4,4,4,4,4,4,4,4,4,4,4,4,4,4,4,4,4,100,,,,,,,,,,,,,,,,,,,,,,,,,,,,,,,,,,,,,,,,,,,,,,,,,,,,,,,,,,,,,,,,,,,,,,,,,,,,,,,,,,,,,,,,,,,,,,,,,,,,,,,,,,,,,,,,,,,,,,,,,,,,,,,,,,,,,,,,,,,,,,,,,,,,,,,,,,,,,,,,,,,,,,,,,,,,,,,,,,,,,,,,,,,,,,,,,,,,,,,,,,,,,,
