title:Neutral2, start timestamp:1764665215.682741, stop timestamp:1764665224.952757, headset type:FLEX2, headset serial:F30002B4, headset firmware:2f10, channels:283, sampling rate:eeg_256;mot_64;pow_8, samples:2373      , version:2.2, ,,,,,,,,,,,,,,,,,,,,,,,,,,,,,,,,,,,,,,,,,,,,,,,,,,,,,,,,,,,,,,,,,,,,,,,,,,,,,,,,,,,,,,,,,,,,,,,,,,,,,,,,,,,,,,,,,,,,,,,,,,,,,,,,,,,,,,,,,,,,,,,,,,,,,,,,,,,,,,,,,,,,,,,,,,,,,,,,,,,,,,,,,,,,,,,,,,,,,,,,,,,,,,,,,,,,,,,,,,,,,,,,,,,,,,,,,,,,,,,,,,,,,,,,,,,,,,,,,,,,,,,,,,,,,,,,,
Timestamp,OriginalTimestamp,EEG.Counter,EEG.Interpolated,EEG.Cz,EEG.Fz,EEG.Fp1,EEG.F7,EEG.F3,EEG.FC1,EEG.C3,EEG.FC5,EEG.FT9,EEG.T7,EEG.CP5,EEG.CP1,EEG.P3,EEG.P7,EEG.PO9,EEG.O1,EEG.Pz,EEG.Oz,EEG.O2,EEG.PO10,EEG.P8,EEG.P4,EEG.CP2,EEG.CP6,EEG.T8,EEG.FT10,EEG.FC6,EEG.C4,EEG.FC2,EEG.F4,EEG.F8,EEG.Fp2,EEG.RawCq,EEG.Battery,EEG.BatteryPercent,EEG.FwBufferSize,EEG.FwClockTime,MarkerIndex,MarkerType,MarkerValueInt,EEG.MarkerHardware,CQ.Cz,CQ.Fz,CQ.Fp1,CQ.F7,CQ.F3,CQ.FC1,CQ.C3,CQ.FC5,CQ.FT9,CQ.T7,CQ.CP5,CQ.CP1,CQ.P3,CQ.P7,CQ.PO9,CQ.O1,CQ.Pz,CQ.Oz,CQ.O2,CQ.PO10,CQ.P8,CQ.P4,CQ.CP2,CQ.CP6,CQ.T8,CQ.FT10,CQ.FC6,CQ.C4,CQ.FC2,CQ.F4,CQ.F8,CQ.Fp2,CQ.Overall,EQ.SampleRateQuality,EQ.OVERALL,EQ.Cz,EQ.Fz,EQ.Fp1,EQ.F7,EQ.F3,EQ.FC1,EQ.C3,EQ.FC5,EQ.FT9,EQ.T7,EQ.CP5,EQ.CP1,EQ.P3,EQ.P7,EQ.PO9,EQ.O1,EQ.Pz,EQ.Oz,EQ.O2,EQ.PO10,EQ.P8,EQ.P4,EQ.CP2,EQ.CP6,EQ.T8,EQ.FT10,EQ.FC6,EQ.C4,EQ.FC2,EQ.F4,EQ.F8,EQ.Fp2,MOT.CounterMems,MOT.InterpolatedMems,MOT.Q0,MOT.Q1,MOT.Q2,MOT.Q3,MOT.AccX,MOT.AccY,MOT.AccZ,MOT.MagX,MOT.MagY,MOT.MagZ,POW.Cz.Theta,POW.Cz.Alpha,POW.Cz.BetaL,POW.Cz.BetaH,POW.Cz.Gamma,POW.Fz.Theta,POW.Fz.Alpha,POW.Fz.BetaL,POW.Fz.BetaH,POW.Fz.Gamma,POW.Fp1.Theta,POW.Fp1.Alpha,POW.Fp1.BetaL,POW.Fp1.BetaH,POW.Fp1.Gamma,POW.F7.Theta,POW.F7.Alpha,POW.F7.BetaL,POW.F7.BetaH,POW.F7.Gamma,POW.F3.Theta,POW.F3.Alpha,POW.F3.BetaL,POW.F3.BetaH,POW.F3.Gamma,POW.FC1.Theta,POW.FC1.Alpha,POW.FC1.BetaL,POW.FC1.BetaH,POW.FC1.Gamma,POW.C3.Theta,POW.C3.Alpha,POW.C3.BetaL,POW.C3.BetaH,POW.C3.Gamma,POW.FC5.Theta,POW.FC5.Alpha,POW.FC5.BetaL,POW.FC5.BetaH,POW.FC5.Gamma,POW.FT9.Theta,POW.FT9.Alpha,POW.FT9.BetaL,POW.FT9.BetaH,POW.FT9.Gamma,POW.T7.Theta,POW.T7.Alpha,POW.T7.BetaL,POW.T7.BetaH,POW.T7.Gamma,POW.CP5.Theta,POW.CP5.Alpha,POW.CP5.BetaL,POW.CP5.BetaH,POW.CP5.Gamma,POW.CP1.Theta,POW.CP1.Alpha,POW.CP1.BetaL,POW.CP1.BetaH,POW.CP1.Gamma,POW.P3.Theta,POW.P3.Alpha,POW.P3.BetaL,POW.P3.BetaH,POW.P3.Gamma,POW.P7.Theta,POW.P7.Alpha,POW.P7.BetaL,POW.P7.BetaH,POW.P7.Gamma,POW.PO9.Theta,POW.PO9.Alpha,POW.PO9.BetaL,POW.PO9.BetaH,POW.PO9.Gamma,POW.O1.Theta,POW.O1.Alpha,POW.O1.BetaL,POW.O1.BetaH,POW.O1.Gamma,POW.Pz.Theta,POW.Pz.Alpha,POW.Pz.BetaL,POW.Pz.BetaH,POW.Pz.Gamma,POW.Oz.Theta,POW.Oz.Alpha,POW.Oz.BetaL,POW.Oz.BetaH,POW.Oz.Gamma,POW.O2.Theta,POW.O2.Alpha,POW.O2.BetaL,POW.O2.BetaH,POW.O2.Gamma,POW.PO10.Theta,POW.PO10.Alpha,POW.PO10.BetaL,POW.PO10.BetaH,POW.PO10.Gamma,POW.P8.Theta,POW.P8.Alpha,POW.P8.BetaL,POW.P8.BetaH,POW.P8.Gamma,POW.P4.Theta,POW.P4.Alpha,POW.P4.BetaL,POW.P4.BetaH,POW.P4.Gamma,POW.CP2.Theta,POW.CP2.Alpha,POW.CP2.BetaL,POW.CP2.BetaH,POW.CP2.Gamma,POW.CP6.Theta,POW.CP6.Alpha,POW.CP6.BetaL,POW.CP6.BetaH,POW.CP6.Gamma,POW.T8.Theta,POW.T8.Alpha,POW.T8.BetaL,POW.T8.BetaH,POW.T8.Gamma,POW.FT10.Theta,POW.FT10.Alpha,POW.FT10.BetaL,POW.FT10.BetaH,POW.FT10.Gamma,POW.FC6.Theta,POW.FC6.Alpha,POW.FC6.BetaL,POW.FC6.BetaH,POW.FC6.Gamma,POW.C4.Theta,POW.C4.Alpha,POW.C4.BetaL,POW.C4.BetaH,POW.C4.Gamma,POW.FC2.Theta,POW.FC2.Alpha,POW.FC2.BetaL,POW.FC2.BetaH,POW.FC2.Gamma,POW.F4.Theta,POW.F4.Alpha,POW.F4.BetaL,POW.F4.BetaH,POW.F4.Gamma,POW.F8.Theta,POW.F8.Alpha,POW.F8.BetaL,POW.F8.BetaH,POW.F8.Gamma,POW.Fp2.Theta,POW.Fp2.Alpha,POW.Fp2.BetaL,POW.Fp2.BetaH,POW.Fp2.Gamma
1764665217.699321,1764665217.697183,40573,0,4390,4395.384766,4498.077148,4533.461426,4407.436035,4507.692383,4551.794922,4392.307617,4582.94873,4391.282227,4523.461426,4519.102539,4575.897461,4422.563965,4397.179688,4513.717773,4544.230957,4544.871582,4516.922852,4383.846191,4394.230957,4573.846191,4513.974121,4500.641113,4389.358887,4577.179688,4396.538574,4559.615234,4512.692383,4414.615234,4534.871582,4502.692383,2501,1,25,2048,28696,1,1,3,0,4,4,4,4,4,4,4,4,4,4,4,4,4,4,4,4,4,4,4,4,4,4,4,4,4,4,4,4,4,4,4,4,100,,,,,,,,,,,,,,,,,,,,,,,,,,,,,,,,,,,26527,0,0.260783,-0.6026,-0.729492,0.191589,0.982542,0.185081,0.0293,22.666666,29.166666,44.333332,,,,,,,,,,,,,,,,,,,,,,,,,,,,,,,,,,,,,,,,,,,,,,,,,,,,,,,,,,,,,,,,,,,,,,,,,,,,,,,,,,,,,,,,,,,,,,,,,,,,,,,,,,,,,,,,,,,,,,,,,,,,,,,,,,,,,,,,,,,,,,,,,,,,,,,,,,,,,,,,
1764665217.703229,1764665217.701090,40574,0,4383.077148,4387.563965,4488.333496,4525.641113,4398.205078,4499.615234,4544.615234,4383.205078,4576.666504,4391.922852,4521.410156,4511.025879,4568.589844,4416.025879,4392.05127,4507.820313,4537.820313,4540.256348,4511.922852,4379.487305,4388.589844,4568.589844,4508.461426,4496.410156,4381.538574,4572.307617,4389.743652,4553.589844,4508.077148,4406.666504,4529.230957,4492.820313,2649,1,25,2304,28704,,,,0,4,4,4,4,4,4,4,4,4,4,4,4,4,4,4,4,4,4,4,4,4,4,4,4,4,4,4,4,4,4,4,4,100,,,,,,,,,,,,,,,,,,,,,,,,,,,,,,,,,,,,,,,,,,,,,,,,,,,,,,,,,,,,,,,,,,,,,,,,,,,,,,,,,,,,,,,,,,,,,,,,,,,,,,,,,,,,,,,,,,,,,,,,,,,,,,,,,,,,,,,,,,,,,,,,,,,,,,,,,,,,,,,,,,,,,,,,,,,,,,,,,,,,,,,,,,,,,,,,,,,,,,,,,,,,,,
1764665217.707137,1764665217.704997,40575,0,4378.461426,4384.230957,4485.512695,4521.410156,4391.794922,4495.384766,4538.077148,4378.333496,4573.717773,4392.05127,4518.717773,4506.153809,4564.358887,4411.794922,4387.692383,4503.589844,4534.102539,4536.666504,4509.743652,4380,4386.794922,4566.538574,4506.666504,4496.410156,4383.589844,4573.846191,4386.025879,4549.871582,4503.717773,4402.563965,4527.05127,4488.717773,2819,1,25,2304,28704,,,,0,4,4,4,4,4,4,4,4,4,4,4,4,4,4,4,4,4,4,4,4,4,4,4,4,4,4,4,4,4,4,4,4,100,,,,,,,,,,,,,,,,,,,,,,,,,,,,,,,,,,,,,,,,,,,,,,,,,,,,,,,,,,,,,,,,,,,,,,,,,,,,,,,,,,,,,,,,,,,,,,,,,,,,,,,,,,,,,,,,,,,,,,,,,,,,,,,,,,,,,,,,,,,,,,,,,,,,,,,,,,,,,,,,,,,,,,,,,,,,,,,,,,,,,,,,,,,,,,,,,,,,,,,,,,,,,,
1764665217.711046,1764665217.708904,40576,0,4377.436035,4385.641113,4491.282227,4524.102539,4391.282227,4496.153809,4534.871582,4380.384766,4576.410156,4389.358887,4516.282227,4507.307617,4564.358887,4411.538574,4385,4502.05127,4533.846191,4534.871582,4510.641113,4384.487305,4389.230957,4567.94873,4507.94873,4499.615234,4392.307617,4580.897461,4387.05127,4549.871582,4500.897461,4403.717773,4530,4492.94873,2744,1,25,2560,28712,,,,0,4,4,4,4,4,4,4,4,4,4,4,4,4,4,4,4,4,4,4,4,4,4,4,4,4,4,4,4,4,4,4,4,100,,,,,,,,,,,,,,,,,,,,,,,,,,,,,,,,,,,,,,,,,,,,,,,,,,,,,,,,,,,,,,,,,,,,,,,,,,,,,,,,,,,,,,,,,,,,,,,,,,,,,,,,,,,,,,,,,,,,,,,,,,,,,,,,,,,,,,,,,,,,,,,,,,,,,,,,,,,,,,,,,,,,,,,,,,,,,,,,,,,,,,,,,,,,,,,,,,,,,,,,,,,,,,
1764665217.714954,1764665217.712811,40577,0,4379.487305,4389.102539,4501.410156,4532.05127,4395.128418,4500.512695,4535.641113,4387.692383,4583.333496,4384.487305,4515.384766,4513.205078,4567.179688,4414.230957,4383.974121,4503.333496,4535.512695,4535.384766,4513.717773,4390.897461,4394.487305,4571.282227,4510.769043,4503.846191,4401.410156,4589.487305,4391.666504,4553.461426,4500.769043,4408.846191,4535.897461,4502.05127,2907,1,25,2560,28712,,,,0,4,4,4,4,4,4,4,4,4,4,4,4,4,4,4,4,4,4,4,4,4,4,4,4,4,4,4,4,4,4,4,4,100,,,,,,,,,,,,,,,,,,,,,,,,,,,,,,,,,,,26528,0,0.260945,-0.6026,-0.72937,0.191833,0.980588,0.196801,0.036137,23.666666,30.166666,43.666668,,,,,,,,,,,,,,,,,,,,,,,,,,,,,,,,,,,,,,,,,,,,,,,,,,,,,,,,,,,,,,,,,,,,,,,,,,,,,,,,,,,,,,,,,,,,,,,,,,,,,,,,,,,,,,,,,,,,,,,,,,,,,,,,,,,,,,,,,,,,,,,,,,,,,,,,,,,,,,,,
1764665217.718862,1764665217.716718,40578,0,4382.94873,4391.922852,4509.358887,4540.256348,4400.256348,4505.384766,4539.358887,4396.153809,4590.512695,4381.410156,4516.410156,4519.743652,4570.512695,4417.820313,4384.743652,4506.025879,4538.205078,4538.846191,4518.461426,4396.794922,4401.153809,4575.128418,4513.461426,4507.820313,4407.436035,4595.512695,4397.179688,4559.487305,4503.717773,4414.487305,4540.897461,4509.743652,2588,1,25,2560,28719,,,,0,4,4,4,4,4,4,4,4,4,4,4,4,4,4,4,4,4,4,4,4,4,4,4,4,4,4,4,4,4,4,4,4,100,,,,,,,,,,,,,,,,,,,,,,,,,,,,,,,,,,,,,,,,,,,,,,,,,,,,,,,,,,,,,,,,,,,,,,,,,,,,,,,,,,,,,,,,,,,,,,,,,,,,,,,,,,,,,,,,,,,,,,,,,,,,,,,,,,,,,,,,,,,,,,,,,,,,,,,,,,,,,,,,,,,,,,,,,,,,,,,,,,,,,,,,,,,,,,,,,,,,,,,,,,,,,,
1764665217.722770,1764665217.720625,40579,0,4386.153809,4393.461426,4511.410156,4544.615234,4403.974121,4508.461426,4543.589844,4401.922852,4595.128418,4385.256348,4519.358887,4523.077148,4572.563965,4420.769043,4387.820313,4508.846191,4541.538574,4545.128418,4524.102539,4400.897461,4407.94873,4579.230957,4515.769043,4511.794922,4412.692383,4597.179688,4401.282227,4565.641113,4508.717773,4417.94873,4543.077148,4512.307617,2843,1,25,2560,28719,,,,0,4,4,4,4,4,4,4,4,4,4,4,4,4,4,4,4,4,4,4,4,4,4,4,4,4,4,4,4,4,4,4,4,100,,,,,,,,,,,,,,,,,,,,,,,,,,,,,,,,,,,,,,,,,,,,,,,,,,,,,,,,,,,,,,,,,,,,,,,,,,,,,,,,,,,,,,,,,,,,,,,,,,,,,,,,,,,,,,,,,,,,,,,,,,,,,,,,,,,,,,,,,,,,,,,,,,,,,,,,,,,,,,,,,,,,,,,,,,,,,,,,,,,,,,,,,,,,,,,,,,,,,,,,,,,,,,
1764665217.726678,1764665217.724532,40580,0,4388.077148,4394.743652,4508.974121,4544.743652,4405.641113,4508.717773,4546.282227,4403.461426,4596.282227,4397.307617,4523.077148,4522.307617,4572.820313,4422.307617,4392.692383,4510.641113,4545.384766,4551.666504,4529.230957,4402.820313,4413.077148,4583.333496,4517.05127,4515.641113,4420.384766,4596.025879,4403.205078,4570.128418,4513.333496,4418.589844,4542.820313,4510,2736,1,25,2561,28727,,,,0,4,4,4,4,4,4,4,4,4,4,4,4,4,4,4,4,4,4,4,4,4,4,4,4,4,4,4,4,4,4,4,4,100,,,,,,,,,,,,,,,,,,,,,,,,,,,,,,,,,,,,,,,,,,,,,,,,,,,,,,,,,,,,,,,,,,,,,,,,,,,,,,,,,,,,,,,,,,,,,,,,,,,,,,,,,,,,,,,,,,,,,,,,,,,,,,,,,,,,,,,,,,,,,,,,,,,,,,,,,,,,,,,,,,,,,,,,,,,,,,,,,,,,,,,,,,,,,,,,,,,,,,,,,,,,,,
1764665217.730586,1764665217.728439,40581,0,4387.436035,4396.410156,4506.153809,4542.692383,4405.256348,4507.179688,4546.538574,4401.666504,4594.615234,4412.436035,4526.025879,4518.974121,4571.794922,4421.922852,4397.179688,4510,4547.436035,4554.743652,4531.666504,4401.922852,4414.615234,4586.153809,4516.538574,4517.692383,4428.974121,4594.230957,4402.820313,4571.153809,4514.487305,4416.538574,4541.025879,4506.025879,2772,1,25,2561,28727,,,,0,4,4,4,4,4,4,4,4,4,4,4,4,4,4,4,4,4,4,4,4,4,4,4,4,4,4,4,4,4,4,4,4,100,,,,,,,,,,,,,,,,,,,,,,,,,,,,,,,,,,,26529,0,0.261167,-0.602539,-0.729309,0.191956,0.957636,0.196801,0.030765,23,30,43.833332,,,,,,,,,,,,,,,,,,,,,,,,,,,,,,,,,,,,,,,,,,,,,,,,,,,,,,,,,,,,,,,,,,,,,,,,,,,,,,,,,,,,,,,,,,,,,,,,,,,,,,,,,,,,,,,,,,,,,,,,,,,,,,,,,,,,,,,,,,,,,,,,,,,,,,,,,,,,,,,,
1764665217.734494,1764665217.732346,40582,0,4383.589844,4396.794922,4505.256348,4539.871582,4402.436035,4505,4544.615234,4397.94873,4590.897461,4421.025879,4527.179688,4515.128418,4570,4419.743652,4398.333496,4506.666504,4545.256348,4551.282227,4529.487305,4398.333496,4411.410156,4585.897461,4513.974121,4515.256348,4430.897461,4592.94873,4400.256348,4568.205078,4511.538574,4412.820313,4538.077148,4502.436035,2778,1,25,2562,28735,,,,0,4,4,4,4,4,4,4,4,4,4,4,4,4,4,4,4,4,4,4,4,4,4,4,4,4,4,4,4,4,4,4,4,100,,,,,,,,,,,,,,,,,,,,,,,,,,,,,,,,,,,,,,,,,,,,,,,,,,,,,,,,,,,,,,,,,,,,,,,,,,,,,,,,,,,,,,,,,,,,,,,,,,,,,,,,,,,,,,,,,,,,,,,,,,,,,,,,,,,,,,,,,,,,,,,,,,,,,,,,,,,,,,,,,,,,,,,,,,,,,,,,,,,,,,,,,,,,,,,,,,,,,,,,,,,,,,
1764665217.738402,1764665217.736253,40583,0,4377.692383,4394.102539,4504.743652,4536.282227,4397.563965,4503.461426,4541.410156,4393.077148,4585.769043,4416.922852,4526.153809,4511.666504,4567.692383,4415.641113,4394.615234,4501.538574,4538.461426,4542.179688,4522.563965,4392.94873,4404.230957,4581.666504,4509.743652,4507.179688,4419.871582,4590.769043,4396.025879,4562.05127,4506.025879,4407.94873,4533.846191,4499.230957,2966,1,25,2562,28735,,,,0,4,4,4,4,4,4,4,4,4,4,4,4,4,4,4,4,4,4,4,4,4,4,4,4,4,4,4,4,4,4,4,4,100,,,,,,,,,,,,,,,,,,,,,,,,,,,,,,,,,,,,,,,,,,,,,,,,,,,,,,,,,,,,,,,,,,,,,,,,,,,,,,,,,,,,,,,,,,,,,,,,,,,,,,,,,,,,,,,,,,,,,,,,,,,,,,,,,,,,,,,,,,,,,,,,,,,,,,,,,,,,,,,,,,,,,,,,,,,,,,,,,,,,,,,,,,,,,,,,,,,,,,,,,,,,,,
1764665217.742310,1764665217.740160,40584,0,4372.563965,4388.846191,4501.794922,4531.153809,4392.05127,4502.692383,4538.333496,4387.563965,4579.615234,4403.205078,4523.846191,4508.205078,4564.871582,4411.282227,4387.307617,4497.05127,4530,4531.153809,4514.230957,4387.94873,4396.666504,4574.871582,4505.769043,4496.666504,4399.743652,4587.436035,4391.025879,4555,4501.282227,4403.077148,4529.102539,4495.512695,2849,1,25,2563,28743,,,,0,4,4,4,4,4,4,4,4,4,4,4,4,4,4,4,4,4,4,4,4,4,4,4,4,4,4,4,4,4,4,4,4,100,,,,,,,,,,,,,,,,,,,,,,,,,,,,,,,,,,,,,,,,,,,,,,,,,,,,,,,,,,,,,,,,,,,,,,,,,,,,,,,,,,,,,,,,,,,,,,,,,,,,,,,,,,,,,,,,,,,,,,,,,,,,,,,,,,,,,,,,,,,,,,,,,,,,,,,,,,,,,,,,,,,,,,,,,,,,,,,,,,,,,,,,,,,,,,,,,,,,,,,,,,,,,,
1764665217.746219,1764665217.744067,40585,0,4370.769043,4384.230957,4496.153809,4525.512695,4388.461426,4502.179688,4536.025879,4382.05127,4573.077148,4389.358887,4521.538574,4504.743652,4561.922852,4408.461426,4380.256348,4494.871582,4523.846191,4523.589844,4508.974121,4385.256348,4393.205078,4568.846191,4503.974121,4489.358887,4383.077148,4583.717773,4387.563965,4550.512695,4500.512695,4400,4525.512695,4492.179688,2702,1,25,2563,28743,,,,0,4,4,4,4,4,4,4,4,4,4,4,4,4,4,4,4,4,4,4,4,4,4,4,4,4,4,4,4,4,4,4,4,100,,,,,,,,,,,,,,,,,,,,,,,,,,,,,,,,,,,26530,0,0.261122,-0.602539,-0.729309,0.192017,0.957636,0.196801,0.030765,22.333334,30.166666,45.333332,,,,,,,,,,,,,,,,,,,,,,,,,,,,,,,,,,,,,,,,,,,,,,,,,,,,,,,,,,,,,,,,,,,,,,,,,,,,,,,,,,,,,,,,,,,,,,,,,,,,,,,,,,,,,,,,,,,,,,,,,,,,,,,,,,,,,,,,,,,,,,,,,,,,,,,,,,,,,,,,
1764665217.750126,1764665217.747974,40586,0,4373.333496,4383.589844,4490.897461,4521.794922,4388.461426,4501.922852,4534.743652,4378.589844,4567.563965,4384.102539,4520.769043,4502.307617,4560.128418,4408.461426,4377.179688,4495.897461,4523.077148,4523.205078,4510,4386.025879,4395.769043,4566.666504,4505.641113,4489.230957,4382.179688,4581.666504,4386.922852,4550.641113,4504.230957,4400.384766,4525.384766,4492.05127,2268,1,25,2561,28751,,,,0,4,4,4,4,4,4,4,4,4,4,4,4,4,4,4,4,4,4,4,4,4,4,4,4,4,4,4,4,4,4,4,4,100,,,,,,,,,,,,,,,,,,,,,,,,,,,,,,,,,,,,,,,,,,,,,,,,,,,,,,,,,,,,,,,,,,,,,,,,,,,,,,,,,,,,,,,,,,,,,,,,,,,,,,,,,,,,,,,,,,,,,,,,,,,,,,,,,,,,,,,,,,,,,,,,,,,,,,,,,,,,,,,,,,,,,,,,,,,,,,,,,,,,,,,,,,,,,,,,,,,,,,,,,,,,,,
1764665217.754035,1764665217.751881,40587,0,4378.974121,4388.077148,4490.128418,4522.436035,4391.666504,4503.077148,4535,4379.102539,4565.128418,4388.333496,4522.307617,4502.820313,4560.641113,4410.641113,4379.871582,4499.615234,4528.077148,4530.128418,4516.410156,4390,4402.436035,4569.358887,4510.256348,4496.410156,4397.179688,4582.692383,4389.871582,4555.769043,4510.641113,4404.487305,4529.743652,4496.538574,2674,1,25,2561,28751,,,,0,4,4,4,4,4,4,4,4,4,4,4,4,4,4,4,4,4,4,4,4,4,4,4,4,4,4,4,4,4,4,4,4,100,,,,,,,,,,,,,,,,,,,,,,,,,,,,,,,,,,,,,,,,,,,,,,,,,,,,,,,,,,,,,,,,,,,,,,,,,,,,,,,,,,,,,,,,,,,,,,,,,,,,,,,,,,,,,,,,,,,,,,,,,,,,,,,,,,,,,,,,,,,,,,,,,,,,,,,,,,,,,,,,,,,,,,,,,,,,,,,,,,,,,,,,,,,,,,,,,,,,,,,,,,,,,,
1764665217.757943,1764665217.755788,40588,0,4386.153809,4395.641113,4495.512695,4528.077148,4396.282227,4506.538574,4537.94873,4383.589844,4567.307617,4396.538574,4525.641113,4506.794922,4564.102539,4412.94873,4387.05127,4505.128418,4536.794922,4540.769043,4525,4395.384766,4409.230957,4575.897461,4515.641113,4506.666504,4416.794922,4586.538574,4395.641113,4563.717773,4516.538574,4411.282227,4537.307617,4503.974121,2479,1,25,2048,28759,,,,0,4,4,4,4,4,4,4,4,4,4,4,4,4,4,4,4,4,4,4,4,4,4,4,4,4,4,4,4,4,4,4,4,100,,,,,,,,,,,,,,,,,,,,,,,,,,,,,,,,,,,,,,,,,,,,,,,,,,,,,,,,,,,,,,,,,,,,,,,,,,,,,,,,,,,,,,,,,,,,,,,,,,,,,,,,,,,,,,,,,,,,,,,,,,,,,,,,,,,,,,,,,,,,,,,,,,,,,,,,,,,,,,,,,,,,,,,,,,,,,,,,,,,,,,,,,,,,,,,,,,,,,,,,,,,,,,
1764665217.761851,1764665217.759695,40589,0,4392.563965,4402.179688,4503.974121,4535.384766,4400.128418,4511.410156,4543.077148,4390.128418,4573.717773,4401.153809,4528.974121,4513.205078,4569.358887,4413.333496,4394.743652,4510.897461,4545.897461,4549.871582,4531.282227,4399.230957,4412.94873,4583.461426,4519.230957,4514.230957,4427.05127,4590.641113,4402.05127,4571.153809,4519.615234,4417.436035,4543.974121,4509.615234,2221,1,25,2048,28759,,,,0,4,4,4,4,4,4,4,4,4,4,4,4,4,4,4,4,4,4,4,4,4,4,4,4,4,4,4,4,4,4,4,4,100,,,,,,,,,,,,,,,,,,,,,,,,,,,,,,,,,,,26531,0,0.261122,-0.602539,-0.729309,0.192017,0.986449,0.21194,0.025394,23,28,43,,,,,,,,,,,,,,,,,,,,,,,,,,,,,,,,,,,,,,,,,,,,,,,,,,,,,,,,,,,,,,,,,,,,,,,,,,,,,,,,,,,,,,,,,,,,,,,,,,,,,,,,,,,,,,,,,,,,,,,,,,,,,,,,,,,,,,,,,,,,,,,,,,,,,,,,,,,,,,,,
1764665217.765759,1764665217.763602,40590,0,4396.410156,4404.230957,4509.230957,4540.256348,4401.282227,4515.128418,4548.461426,4394.615234,4581.666504,4398.589844,4530.128418,4519.487305,4573.461426,4411.666504,4399.743652,4515.512695,4551.666504,4553.589844,4532.692383,4399.871582,4413.077148,4588.333496,4519.743652,4515,4422.563965,4591.538574,4406.153809,4575,4518.974121,4419.615234,4545.897461,4509.615234,2690,1,25,2304,28766,,,,0,4,4,4,4,4,4,4,4,4,4,4,4,4,4,4,4,4,4,4,4,4,4,4,4,4,4,4,4,4,4,4,4,100,,,,,,,,,,,,,,,,,,,,,,,,,,,,,,,,,,,,,,,,,,,,,,,,,,,,,,,,,,,,,,,,,,,,,,,,,,,,,,,,,,,,,,,,,,,,,,,,,,,,,,,,,,,,,,,,,,,,,,,,,,,,,,,,,,,,,,,,,,,,,,,,,,,,,,,,,,,,,,,,,,,,,,,,,,,,,,,,,,,,,,,,,,,,,,,,,,,,,,,,,,,,,,
1764665217.769667,1764665217.767509,40591,0,4396.794922,4400.512695,4507.307617,4540.128418,4399.230957,4515.384766,4551.410156,4394.230957,4587.563965,4390.641113,4528.974121,4523.333496,4573.717773,4408.846191,4401.153809,4517.820313,4552.179688,4551.538574,4529.743652,4397.179688,4410.641113,4587.94873,4517.692383,4509.615234,4409.487305,4588.077148,4405.256348,4573.717773,4516.025879,4416.153809,4541.922852,4503.846191,2475,1,25,2304,28766,,,,0,4,4,4,4,4,4,4,4,4,4,4,4,4,4,4,4,4,4,4,4,4,4,4,4,4,4,4,4,4,4,4,4,100,,,,,,,,,,,,,,,,,,,,,,,,,,,,,,,,,,,,,,,,,,,,,,,,,,,,,,,,,,,,,,,,,,,,,,,,,,,,,,,,,,,,,,,,,,,,,,,,,,,,,,,,,,,,,,,,,,,,,,,,,,,,,,,,,,,,,,,,,,,,,,,,,,,,,,,,,,,,,,,,,,,,,,,,,,,,,,,,,,,,,,,,,,,,,,,,,,,,,,,,,,,,,,
1764665217.773575,1764665217.771416,40592,0,4394.102539,4393.205078,4499.743652,4535.897461,4395.384766,4512.179688,4550.897461,4389.743652,4589.102539,4382.820313,4526.794922,4523.461426,4570,4406.282227,4400.128418,4517.692383,4548.589844,4546.666504,4524.871582,4393.205078,4407.05127,4582.820313,4514.871582,4502.179688,4399.230957,4582.307617,4399.358887,4568.333496,4512.820313,4408.717773,4533.974121,4495.897461,2843,1,25,2304,28774,,,,0,4,4,4,4,4,4,4,4,4,4,4,4,4,4,4,4,4,4,4,4,4,4,4,4,4,4,4,4,4,4,4,4,100,,,,,,,,,,,,,,,,,,,,,,,,,,,,,,,,,,,,,,,,,,,,,,,,,,,,,,,,,,,,,,,,,,,,,,,,,,,,,,,,,,,,,,,,,,,,,,,,,,,,,,,,,,,,,,,,,,,,,,,,,,,,,,,,,,,,,,,,,,,,,,,,,,,,,,,,,,,,,,,,,,,,,,,,,,,,,,,,,,,,,,,,,,,,,,,,,,,,,,,,,,,,,,
1764665217.777483,1764665217.775323,40593,0,4389.487305,4385.769043,4492.307617,4530.641113,4391.666504,4507.179688,4547.307617,4383.846191,4586.153809,4379.871582,4524.871582,4519.871582,4564.487305,4404.230957,4398.077148,4515.769043,4544.102539,4542.436035,4520.769043,4389.871582,4402.692383,4575.641113,4511.922852,4496.794922,4399.487305,4577.94873,4391.410156,4561.538574,4510.256348,4400.384766,4526.025879,4490.128418,2901,1,25,2304,28774,,,,0,4,4,4,4,4,4,4,4,4,4,4,4,4,4,4,4,4,4,4,4,4,4,4,4,4,4,4,4,4,4,4,4,100,,,,,,,,,,,,,,,,,,,,,,,,,,,,,,,,,,,26532,0,0.260996,-0.602539,-0.72937,0.191956,0.973263,0.204126,0.043462,22.333334,28.666666,43.333332,,,,,,,,,,,,,,,,,,,,,,,,,,,,,,,,,,,,,,,,,,,,,,,,,,,,,,,,,,,,,,,,,,,,,,,,,,,,,,,,,,,,,,,,,,,,,,,,,,,,,,,,,,,,,,,,,,,,,,,,,,,,,,,,,,,,,,,,,,,,,,,,,,,,,,,,,,,,,,,,
1764665217.781392,1764665217.779230,40594,0,4383.974121,4380.384766,4489.230957,4526.538574,4389.358887,4502.436035,4542.436035,4379.230957,4580.384766,4382.179688,4523.589844,4513.589844,4559.615234,4402.179688,4395.128418,4512.820313,4540.641113,4540.256348,4518.077148,4387.692383,4397.563965,4569.102539,4508.461426,4494.487305,4407.94873,4576.922852,4384.487305,4555.512695,4508.333496,4394.102539,4520.641113,4488.333496,1743,1,25,1536,28782,,,,0,4,4,4,4,4,4,4,4,4,4,4,4,4,4,4,4,4,4,4,4,4,4,4,4,4,4,4,4,4,4,4,4,100,,,,,,,,,,,,,,,,,,,,,,,,,,,,,,,,,,,,,,,,,,,,,,,,,,,,,,,,,,,,,,,,,,,,,,,,,,,,,,,,,,,,,,,,,,,,,,,,,,,,,,,,,,,,,,,,,,,,,,,,,,,,,,,,,,,,,,,,,,,,,,,,,,,,,,,,,,,,,,,,,,,,,,,,,,,,,,,,,,,,,,,,,,,,,,,,,,,,,,,,,,,,,,
1764665217.785299,1764665217.783137,40595,0,4377.692383,4377.307617,4490,4523.974121,4387.820313,4498.846191,4537.563965,4376.538574,4573.717773,4385.384766,4522.05127,4506.922852,4556.666504,4399.487305,4390.512695,4509.358887,4538.077148,4538.974121,4516.153809,4385.384766,4392.436035,4564.358887,4503.717773,4493.205078,4416.153809,4577.94873,4380.256348,4550.641113,4506.282227,4391.025879,4518.974121,4488.717773,2935,1,25,1536,28782,,,,0,4,4,4,4,4,4,4,4,4,4,4,4,4,4,4,4,4,4,4,4,4,4,4,4,4,4,4,4,4,4,4,4,100,,,,,,,,,,,,,,,,,,,,,,,,,,,,,,,,,,,,,,,,,,,,,,,,,,,,,,,,,,,,,,,,,,,,,,,,,,,,,,,,,,,,,,,,,,,,,,,,,,,,,,,,,,,,,,,,,,,,,,,,,,,,,,,,,,,,,,,,,,,,,,,,,,,,,,,,,,,,,,,,,,,,,,,,,,,,,,,,,,,,,,,,,,,,,,,,,,,,,,,,,,,,,,
1764665217.789208,1764665217.787044,40596,0,4371.282227,4375.769043,4491.282227,4522.307617,4386.025879,4496.538574,4533.717773,4375.256348,4568.333496,4385.384766,4519.230957,4502.179688,4554.871582,4396.410156,4385,4506.025879,4535.256348,4536.666504,4514.230957,4382.05127,4389.230957,4561.025879,4498.589844,4490.128418,4416.538574,4578.974121,4378.333496,4546.025879,4503.461426,4390.641113,4519.743652,4489.230957,2500,1,25,768,28790,,,,0,4,4,4,4,4,4,4,4,4,4,4,4,4,4,4,4,4,4,4,4,4,4,4,4,4,4,4,4,4,4,4,4,100,,,,,,,,,,,,,,,,,,,,,,,,,,,,,,,,,,,,,,,,,,,,,,,,,,,,,,,,,,,,,,,,,,,,,,,,,,,,,,,,,,,,,,,,,,,,,,,,,,,,,,,,,,,,,,,,,,,,,,,,,,,,,,,,,,,,,,,,,,,,,,,,,,,,,,,,,,,,,,,,,,,,,,,,,,,,,,,,,,,,,,,,,,,,,,,,,,,,,,,,,,,,,,
1764665217.793116,1764665217.790951,40597,0,4366.153809,4375.128418,4490.769043,4521.153809,4384.102539,4495.128418,4531.410156,4375.256348,4566.153809,4381.666504,4515.769043,4500.769043,4553.846191,4393.461426,4381.153809,4503.461426,4531.666504,4532.820313,4512.307617,4378.461426,4389.615234,4558.589844,4495.384766,4484.871582,4409.615234,4578.846191,4377.692383,4541.538574,4500.512695,4392.307617,4521.282227,4489.102539,2795,1,25,768,28790,,,,0,4,4,4,4,4,4,4,4,4,4,4,4,4,4,4,4,4,4,4,4,4,4,4,4,4,4,4,4,4,4,4,4,100,,,,,,,,,,,,,,,,,,,,,,,,,,,,,,,,,,,26533,0,0.261077,-0.602539,-0.729309,0.192078,0.98596,0.199243,0.025394,23.5,29.666666,43.5,,,,,,,,,,,,,,,,,,,,,,,,,,,,,,,,,,,,,,,,,,,,,,,,,,,,,,,,,,,,,,,,,,,,,,,,,,,,,,,,,,,,,,,,,,,,,,,,,,,,,,,,,,,,,,,,,,,,,,,,,,,,,,,,,,,,,,,,,,,,,,,,,,,,,,,,,,,,,,,,
1764665217.797024,1764665217.794858,40598,0,4364.743652,4375.641113,4489.743652,4521.025879,4383.461426,4495,4530.897461,4376.922852,4567.94873,4378.333496,4513.974121,4502.179688,4553.974121,4391.794922,4381.282227,4502.94873,4528.974121,4529.615234,4511.282227,4377.179688,4393.717773,4557.692383,4496.538574,4479.871582,4402.307617,4578.461426,4378.205078,4538.974121,4498.589844,4395.384766,4522.563965,4489.743652,2907,1,25,256,28798,,,,0,4,4,4,4,4,4,4,4,4,4,4,4,4,4,4,4,4,4,4,4,4,4,4,4,4,4,4,4,4,4,4,4,100,,,,,,,,,,,,,,,,,,,,,,,,,,,,,,,,,,,,,,,,,,,,,,,,,,,,,,,,,,,,,,,,,,,,,,,,,,,,,,,,,,,,,,,,,,,,,,,,,,,,,,,,,,,,,,,,,,,,,,,,,,,,,,,,,,,,,,,,,,,,,,,,,,,,,,,,,,,,,,,,,,,,,,,,,,,,,,,,,,,,,,,,,,,,,,,,,,,,,,,,,,,,,,
1764665217.800932,1764665217.798765,40599,0,4367.563965,4377.94873,4490.897461,4522.692383,4385.641113,4496.410156,4532.436035,4380.256348,4572.820313,4380.256348,4515.769043,4505,4556.410156,4392.05127,4385.512695,4505.256348,4529.230957,4529.487305,4511.794922,4380.256348,4399.358887,4559.102539,4501.794922,4478.974121,4401.025879,4579.487305,4380.641113,4540.641113,4498.717773,4399.743652,4523.717773,4492.820313,2822,1,25,256,28798,,,,0,4,4,4,4,4,4,4,4,4,4,4,4,4,4,4,4,4,4,4,4,4,4,4,4,4,4,4,4,4,4,4,4,100,,,,,,,,,,,,,,,,,,,,,,,,,,,,,,,,,,,,,,,,,,,,,,,,,,,,,,,,,,,,,,,,,,,,,,,,,,,,,,,,,,,,,,,,,,,,,,,,,,,,,,,,,,,,,,,,,,,,,,,,,,,,,,,,,,,,,,,,,,,,,,,,,,,,,,,,,,,,,,,,,,,,,,,,,,,,,,,,,,,,,,,,,,,,,,,,,,,,,,,,,,,,,,
1764665217.804840,1764665217.802672,40600,0,4372.820313,4381.025879,4495.641113,4525.256348,4391.025879,4499.871582,4535.641113,4383.846191,4577.94873,4388.333496,4520.128418,4507.692383,4560.641113,4393.846191,4391.153809,4509.358887,4532.307617,4532.563965,4513.846191,4386.666504,4403.589844,4562.692383,4508.717773,4483.333496,4406.410156,4582.436035,4385,4546.538574,4500.897461,4403.974121,4525,4497.692383,2739,1,25,512,28805,,,,0,4,4,4,4,4,4,4,4,4,4,4,4,4,4,4,4,4,4,4,4,4,4,4,4,4,4,4,4,4,4,4,4,100,,,,,,,,,,,,,,,,,,,,,,,,,,,,,,,,,,,,,,,,,,,,,,,,,,,,,,,,,,,,,,,,,,,,,,,,,,,,,,,,,,,,,,,,,,,,,,,,,,,,,,,,,,,,,,,,,,,,,,,,,,,,,,,,,,,,,,,,,,,,,,,,,,,,,,,,,,,,,,,,,,,,,,,,,,,,,,,,,,,,,,,,,,,,,,,,,,,,,,,,,,,,,,
1764665217.808748,1764665217.806578,40601,0,4377.05127,4383.461426,4501.538574,4527.179688,4396.794922,4505.128418,4538.846191,4385.769043,4580.256348,4397.436035,4523.589844,4508.974121,4564.871582,4396.410156,4393.717773,4512.94873,4536.282227,4537.05127,4516.025879,4392.94873,4403.846191,4566.794922,4514.230957,4490,4413.461426,4584.871582,4389.102539,4553.205078,4503.461426,4406.025879,4525.256348,4501.153809,2800,1,25,512,28805,,,,0,4,4,4,4,4,4,4,4,4,4,4,4,4,4,4,4,4,4,4,4,4,4,4,4,4,4,4,4,4,4,4,4,100,,,,,,,,,,,,,,,,,,,,,,,,,,,,,,,,,,,26534,0,0.261298,-0.602478,-0.729248,0.1922,0.971798,0.196313,0.038091,22.333334,30.166666,42.833332,,,,,,,,,,,,,,,,,,,,,,,,,,,,,,,,,,,,,,,,,,,,,,,,,,,,,,,,,,,,,,,,,,,,,,,,,,,,,,,,,,,,,,,,,,,,,,,,,,,,,,,,,,,,,,,,,,,,,,,,,,,,,,,,,,,,,,,,,,,,,,,,,,,,,,,,,,,,,,,,
1764665217.812656,1764665217.810485,40602,0,4377.307617,4383.333496,4503.846191,4526.794922,4399.358887,4509.743652,4539.102539,4383.846191,4578.589844,4399.743652,4522.307617,4507.94873,4566.153809,4397.820313,4390.641113,4513.589844,4537.820313,4539.487305,4516.666504,4394.358887,4399.743652,4568.589844,4516.153809,4493.333496,4415.897461,4583.589844,4390.128418,4555.769043,4504.487305,4403.846191,4523.461426,4500.641113,1936,1,25,768,28813,,,,0,4,4,4,4,4,4,4,4,4,4,4,4,4,4,4,4,4,4,4,4,4,4,4,4,4,4,4,4,4,4,4,4,100,,,,,,,,,,,,,,,,,,,,,,,,,,,,,,,,,,,,,,,,,,,,,,,1.389315,2.446074,0.731824,0.563893,0.626388,1.593651,2.064656,1.248279,0.759585,0.651163,1.741078,2.547761,0.862643,0.866259,0.850622,1.398677,1.746233,0.866947,0.821572,0.854061,2.420063,1.939675,0.848912,0.744725,0.710881,1.076764,2.385225,0.903704,0.568039,0.584961,1.500295,1.603237,0.859455,0.63917,0.771845,0.779875,1.792632,0.821913,0.722205,0.870793,0.720652,0.904704,0.687703,0.534509,0.770162,0.777758,1.400908,0.277154,1.048106,1.560654,0.685432,1.413065,0.65732,0.459629,0.568795,1.666434,2.736073,0.767483,0.655802,0.655369,1.274449,4.113934,0.785834,0.375917,0.579762,0.571294,2.151461,1.291066,0.28137,0.384012,0.500511,1.47587,0.612147,0.450809,0.707848,0.682597,6.931446,0.564017,0.361015,0.415354,1.614868,4.172583,1.291889,0.662261,0.676122,1.319971,7.85217,0.866748,0.612404,0.635244,0.794209,3.915529,0.428205,0.310149,0.38382,0.800425,1.502526,0.718742,0.384645,0.505557,1.31075,2.469606,0.532658,0.428275,0.517294,1.512838,4.627565,0.975014,0.59126,0.626206,1.690563,2.071653,0.638747,0.551974,0.698659,1.295138,1.559561,0.863707,0.756281,0.697278,1.489887,3.053672,2.128613,2.507526,1.380062,1.761566,0.654642,0.758444,0.691299,0.675054,1.857722,1.575852,0.968215,0.834582,0.781311,1.834398,1.517906,1.009658,0.61535,0.73579,0.625934,1.200939,0.356701,0.299226,0.379976,1.084977,2.331901,1.307717,0.972824,0.660129,1.975091,2.287744,1.058504,1.038231,0.624264,1.624489,2.428141,0.80328,1.109129,0.698999
1764665217.816564,1764665217.814392,40603,0,4373.717773,4380.256348,4499.487305,4523.461426,4397.05127,4511.025879,4535.641113,4378.333496,4573.461426,4391.922852,4515.384766,4504.358887,4562.692383,4397.05127,4382.820313,4510.128418,4534.871582,4537.179688,4514.743652,4389.102539,4393.333496,4566.282227,4513.717773,4490.128418,4410.128418,4577.692383,4386.153809,4551.794922,4503.077148,4398.077148,4520,4495.384766,2612,1,25,768,28813,,,,0,4,4,4,4,4,4,4,4,4,4,4,4,4,4,4,4,4,4,4,4,4,4,4,4,4,4,4,4,4,4,4,4,100,,,,,,,,,,,,,,,,,,,,,,,,,,,,,,,,,,,,,,,,,,,,,,,,,,,,,,,,,,,,,,,,,,,,,,,,,,,,,,,,,,,,,,,,,,,,,,,,,,,,,,,,,,,,,,,,,,,,,,,,,,,,,,,,,,,,,,,,,,,,,,,,,,,,,,,,,,,,,,,,,,,,,,,,,,,,,,,,,,,,,,,,,,,,,,,,,,,,,,,,,,,,,,
1764665217.820472,1764665217.818299,40604,0,4369.487305,4376.538574,4490.641113,4519.102539,4391.794922,4507.820313,4530.769043,4372.05127,4567.692383,4378.717773,4506.794922,4500.641113,4556.794922,4394.358887,4374.871582,4503.461426,4528.589844,4530.897461,4511.153809,4380,4387.307617,4560.512695,4508.589844,4482.179688,4397.563965,4570.512695,4379.615234,4544.230957,4500.384766,4391.922852,4517.179688,4488.974121,2671,1,25,1024,28821,,,,0,4,4,4,4,4,4,4,4,4,4,4,4,4,4,4,4,4,4,4,4,4,4,4,4,4,4,4,4,4,4,4,4,100,,,,,,,,,,,,,,,,,,,,,,,,,,,,,,,,,,,,,,,,,,,,,,,,,,,,,,,,,,,,,,,,,,,,,,,,,,,,,,,,,,,,,,,,,,,,,,,,,,,,,,,,,,,,,,,,,,,,,,,,,,,,,,,,,,,,,,,,,,,,,,,,,,,,,,,,,,,,,,,,,,,,,,,,,,,,,,,,,,,,,,,,,,,,,,,,,,,,,,,,,,,,,,
1764665217.824381,1764665217.822206,40605,0,4369.615234,4375.897461,4483.974121,4516.666504,4387.94873,4502.563965,4529.102539,4369.615234,4564.358887,4370.256348,4502.436035,4500.256348,4552.94873,4392.05127,4372.05127,4496.794922,4523.333496,4524.358887,4509.102539,4373.205078,4384.615234,4555.256348,4504.102539,4476.025879,4383.205078,4567.820313,4375.897461,4539.487305,4498.974121,4390.128418,4517.94873,4486.538574,2489,1,25,1024,28821,,,,0,4,4,4,4,4,4,4,4,4,4,4,4,4,4,4,4,4,4,4,4,4,4,4,4,4,4,4,4,4,4,4,4,100,,,,,,,,,,,,,,,,,,,,,,,,,,,,,,,,,,,26535,0,0.261304,-0.602417,-0.729248,0.192383,0.972775,0.201196,0.012209,22.666666,28,42.666668,,,,,,,,,,,,,,,,,,,,,,,,,,,,,,,,,,,,,,,,,,,,,,,,,,,,,,,,,,,,,,,,,,,,,,,,,,,,,,,,,,,,,,,,,,,,,,,,,,,,,,,,,,,,,,,,,,,,,,,,,,,,,,,,,,,,,,,,,,,,,,,,,,,,,,,,,,,,,,,,
1764665217.828289,1764665217.826113,40606,0,4376.538574,4381.538574,4485.384766,4518.461426,4389.615234,4500.128418,4534.102539,4373.717773,4565.384766,4373.717773,4506.538574,4505.128418,4555.128418,4392.820313,4376.922852,4494.487305,4523.717773,4523.205078,4510.897461,4374.102539,4387.307617,4555.256348,4504.743652,4477.692383,4373.461426,4572.307617,4379.358887,4543.077148,4501.410156,4395,4523.974121,4491.410156,2638,1,25,1280,28829,,,,0,4,4,4,4,4,4,4,4,4,4,4,4,4,4,4,4,4,4,4,4,4,4,4,4,4,4,4,4,4,4,4,4,100,,,,,,,,,,,,,,,,,,,,,,,,,,,,,,,,,,,,,,,,,,,,,,,,,,,,,,,,,,,,,,,,,,,,,,,,,,,,,,,,,,,,,,,,,,,,,,,,,,,,,,,,,,,,,,,,,,,,,,,,,,,,,,,,,,,,,,,,,,,,,,,,,,,,,,,,,,,,,,,,,,,,,,,,,,,,,,,,,,,,,,,,,,,,,,,,,,,,,,,,,,,,,,
1764665217.832197,1764665217.830020,40607,0,4388.077148,4393.077148,4495.256348,4524.102539,4397.436035,4503.846191,4545,4382.94873,4570.384766,4387.307617,4517.94873,4513.846191,4562.436035,4397.307617,4386.666504,4498.717773,4531.666504,4529.615234,4516.025879,4382.692383,4394.615234,4562.436035,4512.05127,4488.205078,4373.077148,4582.179688,4389.743652,4555.256348,4508.077148,4405,4533.589844,4501.922852,2807,1,25,1280,28829,,,,0,4,4,4,4,4,4,4,4,4,4,4,4,4,4,4,4,4,4,4,4,4,4,4,4,4,4,4,4,4,4,4,4,100,,,,,,,,,,,,,,,,,,,,,,,,,,,,,,,,,,,,,,,,,,,,,,,,,,,,,,,,,,,,,,,,,,,,,,,,,,,,,,,,,,,,,,,,,,,,,,,,,,,,,,,,,,,,,,,,,,,,,,,,,,,,,,,,,,,,,,,,,,,,,,,,,,,,,,,,,,,,,,,,,,,,,,,,,,,,,,,,,,,,,,,,,,,,,,,,,,,,,,,,,,,,,,
1764665217.836105,1764665217.833927,40608,0,4398.333496,4405.256348,4507.05127,4530.384766,4407.692383,4511.666504,4556.153809,4391.922852,4576.410156,4400.512695,4529.743652,4521.922852,4570.256348,4403.077148,4395.897461,4506.794922,4542.563965,4539.871582,4521.922852,4392.94873,4402.94873,4573.333496,4522.820313,4501.794922,4382.436035,4591.025879,4401.282227,4570.256348,4516.025879,4414.358887,4541.025879,4512.307617,2738,1,25,1536,28837,,,,0,4,4,4,4,4,4,4,4,4,4,4,4,4,4,4,4,4,4,4,4,4,4,4,4,4,4,4,4,4,4,4,4,100,,,,,,,,,,,,,,,,,,,,,,,,,,,,,,,,,,,,,,,,,,,,,,,,,,,,,,,,,,,,,,,,,,,,,,,,,,,,,,,,,,,,,,,,,,,,,,,,,,,,,,,,,,,,,,,,,,,,,,,,,,,,,,,,,,,,,,,,,,,,,,,,,,,,,,,,,,,,,,,,,,,,,,,,,,,,,,,,,,,,,,,,,,,,,,,,,,,,,,,,,,,,,,
1764665217.840013,1764665217.837834,40609,0,4401.410156,4411.282227,4512.436035,4533.077148,4413.589844,4517.94873,4560,4394.871582,4579.358887,4402.563965,4534.102539,4524.615234,4573.205078,4406.538574,4399.487305,4513.461426,4549.102539,4547.307617,4525,4397.436035,4407.179688,4581.153809,4530.256348,4509.487305,4395.897461,4592.436035,4406.538574,4579.615234,4520.769043,4417.692383,4540.897461,4516.153809,2906,1,25,1536,28837,,,,0,4,4,4,4,4,4,4,4,4,4,4,4,4,4,4,4,4,4,4,4,4,4,4,4,4,4,4,4,4,4,4,4,100,,,,,,,,,,,,,,,,,,,,,,,,,,,,,,,,,,,26536,0,0.26132,-0.602356,-0.729309,0.192322,0.979612,0.19729,0.035649,22.166666,29.666666,44.333332,,,,,,,,,,,,,,,,,,,,,,,,,,,,,,,,,,,,,,,,,,,,,,,,,,,,,,,,,,,,,,,,,,,,,,,,,,,,,,,,,,,,,,,,,,,,,,,,,,,,,,,,,,,,,,,,,,,,,,,,,,,,,,,,,,,,,,,,,,,,,,,,,,,,,,,,,,,,,,,,
1764665217.843921,1764665217.841741,40610,0,4396.282227,4407.436035,4507.820313,4530.256348,4410.897461,4517.94873,4553.717773,4389.615234,4576.666504,4390.897461,4527.820313,4520.512695,4569.230957,4404.871582,4396.153809,4514.102539,4546.922852,4547.05127,4523.333496,4393.333496,4404.743652,4580.641113,4530.128418,4506.025879,4404.871582,4584.230957,4402.05127,4577.692383,4519.871582,4413.589844,4532.563965,4511.666504,2584,1,25,1792,28844,,,,0,4,4,4,4,4,4,4,4,4,4,4,4,4,4,4,4,4,4,4,4,4,4,4,4,4,4,4,4,4,4,4,4,100,,,,,,,,,,,,,,,,,,,,,,,,,,,,,,,,,,,,,,,,,,,,,,,,,,,,,,,,,,,,,,,,,,,,,,,,,,,,,,,,,,,,,,,,,,,,,,,,,,,,,,,,,,,,,,,,,,,,,,,,,,,,,,,,,,,,,,,,,,,,,,,,,,,,,,,,,,,,,,,,,,,,,,,,,,,,,,,,,,,,,,,,,,,,,,,,,,,,,,,,,,,,,,
1764665217.847829,1764665217.845648,40611,0,4387.436035,4397.179688,4497.05127,4523.846191,4401.794922,4512.436035,4541.922852,4380.256348,4570.256348,4373.333496,4515,4512.94873,4561.538574,4399.871582,4389.230957,4508.974121,4538.846191,4540.256348,4518.205078,4384.743652,4397.307617,4572.820313,4523.717773,4494.358887,4403.205078,4571.410156,4391.538574,4566.922852,4514.358887,4405.641113,4520.897461,4502.692383,2837,1,25,1792,28844,,,,0,4,4,4,4,4,4,4,4,4,4,4,4,4,4,4,4,4,4,4,4,4,4,4,4,4,4,4,4,4,4,4,4,100,,,,,,,,,,,,,,,,,,,,,,,,,,,,,,,,,,,,,,,,,,,,,,,,,,,,,,,,,,,,,,,,,,,,,,,,,,,,,,,,,,,,,,,,,,,,,,,,,,,,,,,,,,,,,,,,,,,,,,,,,,,,,,,,,,,,,,,,,,,,,,,,,,,,,,,,,,,,,,,,,,,,,,,,,,,,,,,,,,,,,,,,,,,,,,,,,,,,,,,,,,,,,,
1764665217.851737,1764665217.849555,40612,0,4381.922852,4388.717773,4488.205078,4518.461426,4393.589844,4506.282227,4532.563965,4373.333496,4563.974121,4362.179688,4504.230957,4507.563965,4556.922852,4395.641113,4383.717773,4502.563965,4531.922852,4532.436035,4513.589844,4378.846191,4390.256348,4564.102539,4517.05127,4483.077148,4392.820313,4561.538574,4383.333496,4555.769043,4508.589844,4400.128418,4513.333496,4495.897461,2731,1,25,2048,28852,,,,0,4,4,4,4,4,4,4,4,4,4,4,4,4,4,4,4,4,4,4,4,4,4,4,4,4,4,4,4,4,4,4,4,100,,,,,,,,,,,,,,,,,,,,,,,,,,,,,,,,,,,,,,,,,,,,,,,,,,,,,,,,,,,,,,,,,,,,,,,,,,,,,,,,,,,,,,,,,,,,,,,,,,,,,,,,,,,,,,,,,,,,,,,,,,,,,,,,,,,,,,,,,,,,,,,,,,,,,,,,,,,,,,,,,,,,,,,,,,,,,,,,,,,,,,,,,,,,,,,,,,,,,,,,,,,,,,
1764665217.855645,1764665217.853462,40613,0,4383.846191,4388.461426,4487.563965,4517.692383,4391.794922,4504.615234,4531.794922,4373.077148,4561.153809,4363.717773,4501.922852,4508.333496,4559.615234,4395.641113,4382.820313,4500,4531.794922,4529.487305,4512.820313,4379.871582,4388.205078,4561.410156,4515.512695,4480.128418,4381.282227,4560.256348,4383.846191,4552.436035,4507.05127,4401.282227,4514.358887,4495.512695,2764,1,25,2048,28852,,,,0,4,4,4,4,4,4,4,4,4,4,4,4,4,4,4,4,4,4,4,4,4,4,4,4,4,4,4,4,4,4,4,4,100,,,,,,,,,,,,,,,,,,,,,,,,,,,,,,,,,,,26537,0,0.261431,-0.602234,-0.72937,0.192322,0.979612,0.19729,0.035649,23.833334,29.666666,44.333332,,,,,,,,,,,,,,,,,,,,,,,,,,,,,,,,,,,,,,,,,,,,,,,,,,,,,,,,,,,,,,,,,,,,,,,,,,,,,,,,,,,,,,,,,,,,,,,,,,,,,,,,,,,,,,,,,,,,,,,,,,,,,,,,,,,,,,,,,,,,,,,,,,,,,,,,,,,,,,,,
1764665217.859553,1764665217.857369,40614,0,4393.077148,4396.922852,4495.641113,4522.307617,4397.436035,4509.615234,4539.487305,4379.358887,4562.692383,4375.256348,4508.461426,4515.512695,4568.589844,4400,4385.897461,4503.333496,4538.974121,4533.461426,4516.794922,4387.05127,4393.205078,4567.179688,4520.769043,4488.333496,4377.563965,4568.205078,4393.333496,4559.615234,4511.410156,4408.846191,4523.205078,4501.794922,2767,1,25,2048,28860,,,,0,4,4,4,4,4,4,4,4,4,4,4,4,4,4,4,4,4,4,4,4,4,4,4,4,4,4,4,4,4,4,4,4,100,,,,,,,,,,,,,,,,,,,,,,,,,,,,,,,,,,,,,,,,,,,,,,,,,,,,,,,,,,,,,,,,,,,,,,,,,,,,,,,,,,,,,,,,,,,,,,,,,,,,,,,,,,,,,,,,,,,,,,,,,,,,,,,,,,,,,,,,,,,,,,,,,,,,,,,,,,,,,,,,,,,,,,,,,,,,,,,,,,,,,,,,,,,,,,,,,,,,,,,,,,,,,,
1764665217.863462,1764665217.861276,40615,0,4405.256348,4409.487305,4508.333496,4531.153809,4406.922852,4519.615234,4550.897461,4389.230957,4568.205078,4388.077148,4519.230957,4525.897461,4579.615234,4406.025879,4390.641113,4510.769043,4549.871582,4542.436035,4523.846191,4396.410156,4403.461426,4579.230957,4530.512695,4504.102539,4386.282227,4581.538574,4406.794922,4573.846191,4520.512695,4419.615234,4535.897461,4511.794922,2958,1,25,2048,28860,,,,0,4,4,4,4,4,4,4,4,4,4,4,4,4,4,4,4,4,4,4,4,4,4,4,4,4,4,4,4,4,4,4,4,100,,,,,,,,,,,,,,,,,,,,,,,,,,,,,,,,,,,,,,,,,,,,,,,,,,,,,,,,,,,,,,,,,,,,,,,,,,,,,,,,,,,,,,,,,,,,,,,,,,,,,,,,,,,,,,,,,,,,,,,,,,,,,,,,,,,,,,,,,,,,,,,,,,,,,,,,,,,,,,,,,,,,,,,,,,,,,,,,,,,,,,,,,,,,,,,,,,,,,,,,,,,,,,
1764665217.867370,1764665217.865183,40616,0,4415.256348,4419.615234,4519.743652,4540.641113,4415.128418,4529.871582,4559.743652,4398.717773,4576.282227,4395.128418,4527.307617,4534.871582,4587.94873,4410.256348,4394.871582,4518.974121,4559.871582,4551.666504,4530.256348,4403.461426,4414.358887,4591.794922,4540.128418,4519.743652,4404.743652,4594.230957,4417.692383,4588.333496,4530,4428.333496,4546.794922,4521.025879,2843,1,25,1792,28868,,,,0,4,4,4,4,4,4,4,4,4,4,4,4,4,4,4,4,4,4,4,4,4,4,4,4,4,4,4,4,4,4,4,4,100,,,,,,,,,,,,,,,,,,,,,,,,,,,,,,,,,,,,,,,,,,,,,,,,,,,,,,,,,,,,,,,,,,,,,,,,,,,,,,,,,,,,,,,,,,,,,,,,,,,,,,,,,,,,,,,,,,,,,,,,,,,,,,,,,,,,,,,,,,,,,,,,,,,,,,,,,,,,,,,,,,,,,,,,,,,,,,,,,,,,,,,,,,,,,,,,,,,,,,,,,,,,,,
1764665217.871278,1764665217.869090,40617,0,4418.333496,4421.538574,4524.102539,4545.384766,4417.179688,4535.256348,4561.153809,4403.461426,4582.94873,4394.230957,4527.179688,4537.436035,4590.256348,4409.871582,4396.282227,4523.205078,4564.487305,4555.641113,4531.538574,4404.871582,4419.358887,4598.077148,4544.358887,4526.538574,4423.461426,4599.615234,4419.871582,4595,4534.230957,4429.230957,4550.384766,4524.230957,2696,1,25,1792,28868,,,,0,4,4,4,4,4,4,4,4,4,4,4,4,4,4,4,4,4,4,4,4,4,4,4,4,4,4,4,4,4,4,4,4,100,,,,,,,,,,,,,,,,,,,,,,,,,,,,,,,,,,,26538,0,0.261135,-0.602234,-0.729492,0.192261,0.972775,0.218288,0.025394,24.666666,28,44.666668,,,,,,,,,,,,,,,,,,,,,,,,,,,,,,,,,,,,,,,,,,,,,,,,,,,,,,,,,,,,,,,,,,,,,,,,,,,,,,,,,,,,,,,,,,,,,,,,,,,,,,,,,,,,,,,,,,,,,,,,,,,,,,,,,,,,,,,,,,,,,,,,,,,,,,,,,,,,,,,,
1764665217.875186,1764665217.872997,40618,0,4411.538574,4412.307617,4518.333496,4540.769043,4410.128418,4531.538574,4552.692383,4400,4582.563965,4386.666504,4517.307617,4531.025879,4584.487305,4403.717773,4392.692383,4520.769043,4560.128418,4550,4525.256348,4399.102539,4413.589844,4592.94873,4539.358887,4519.102539,4430.512695,4593.205078,4410.641113,4588.461426,4529.487305,4419.487305,4542.94873,4517.820313,2263,1,25,1792,28876,,,,0,4,4,4,4,4,4,4,4,4,4,4,4,4,4,4,4,4,4,4,4,4,4,4,4,4,4,4,4,4,4,4,4,100,,,,,,,,,,,,,,,,,,,,,,,,,,,,,,,,,,,,,,,,,,,,,,,,,,,,,,,,,,,,,,,,,,,,,,,,,,,,,,,,,,,,,,,,,,,,,,,,,,,,,,,,,,,,,,,,,,,,,,,,,,,,,,,,,,,,,,,,,,,,,,,,,,,,,,,,,,,,,,,,,,,,,,,,,,,,,,,,,,,,,,,,,,,,,,,,,,,,,,,,,,,,,,
1764665217.879094,1764665217.876904,40619,0,4396.282227,4394.230957,4504.615234,4526.538574,4395.641113,4519.358887,4536.666504,4387.820313,4572.436035,4376.538574,4501.410156,4517.820313,4571.794922,4394.615234,4384.615234,4512.05127,4547.307617,4536.538574,4513.461426,4387.692383,4398.333496,4577.179688,4526.025879,4500,4420.256348,4577.179688,4392.563965,4570.256348,4516.794922,4401.666504,4526.666504,4503.205078,2664,1,25,1792,28876,,,,0,4,4,4,4,4,4,4,4,4,4,4,4,4,4,4,4,4,4,4,4,4,4,4,4,4,4,4,4,4,4,4,4,100,,,,,,,,,,,,,,,,,,,,,,,,,,,,,,,,,,,,,,,,,,,,,,,,,,,,,,,,,,,,,,,,,,,,,,,,,,,,,,,,,,,,,,,,,,,,,,,,,,,,,,,,,,,,,,,,,,,,,,,,,,,,,,,,,,,,,,,,,,,,,,,,,,,,,,,,,,,,,,,,,,,,,,,,,,,,,,,,,,,,,,,,,,,,,,,,,,,,,,,,,,,,,,
1764665217.883002,1764665217.880811,40620,0,4379.487305,4375.769043,4490.641113,4509.743652,4380.384766,4504.743652,4520.769043,4372.692383,4557.563965,4369.358887,4486.922852,4504.743652,4557.820313,4387.820313,4377.05127,4502.820313,4532.436035,4522.692383,4502.820313,4376.153809,4382.436035,4558.974121,4510.769043,4480.128418,4399.102539,4560.512695,4374.230957,4549.358887,4502.307617,4384.743652,4509.487305,4487.94873,2470,1,25,2048,28884,,,,0,4,4,4,4,4,4,4,4,4,4,4,4,4,4,4,4,4,4,4,4,4,4,4,4,4,4,4,4,4,4,4,4,100,,,,,,,,,,,,,,,,,,,,,,,,,,,,,,,,,,,,,,,,,,,,,,,,,,,,,,,,,,,,,,,,,,,,,,,,,,,,,,,,,,,,,,,,,,,,,,,,,,,,,,,,,,,,,,,,,,,,,,,,,,,,,,,,,,,,,,,,,,,,,,,,,,,,,,,,,,,,,,,,,,,,,,,,,,,,,,,,,,,,,,,,,,,,,,,,,,,,,,,,,,,,,,
1764665217.886910,1764665217.884718,40621,0,4370.384766,4366.282227,4484.743652,4500.769043,4372.94873,4495.512695,4513.333496,4363.077148,4548.333496,4370.256348,4481.794922,4499.230957,4550.512695,4388.461426,4375.769043,4499.358887,4524.743652,4517.94873,4499.871582,4371.922852,4376.666504,4548.974121,4502.436035,4471.410156,4382.05127,4553.333496,4365.384766,4537.820313,4494.487305,4378.333496,4500.897461,4481.025879,2213,1,25,2048,28884,,,,0,4,4,4,4,4,4,4,4,4,4,4,4,4,4,4,4,4,4,4,4,4,4,4,4,4,4,4,4,4,4,4,4,100,,,,,,,,,,,,,,,,,,,,,,,,,,,,,,,,,,,26539,0,0.261009,-0.602234,-0.729553,0.1922,0.972775,0.218288,0.025394,24.666666,28,44.666668,,,,,,,,,,,,,,,,,,,,,,,,,,,,,,,,,,,,,,,,,,,,,,,,,,,,,,,,,,,,,,,,,,,,,,,,,,,,,,,,,,,,,,,,,,,,,,,,,,,,,,,,,,,,,,,,,,,,,,,,,,,,,,,,,,,,,,,,,,,,,,,,,,,,,,,,,,,,,,,,
1764665217.890818,1764665217.888625,40622,0,4374.230957,4370.897461,4490,4505.384766,4377.820313,4496.153809,4518.461426,4365.256348,4552.820313,4379.615234,4488.333496,4504.102539,4554.230957,4396.666504,4382.436035,4503.846191,4529.230957,4526.282227,4506.282227,4377.94873,4384.871582,4552.692383,4505,4478.589844,4381.538574,4560,4370.769043,4541.922852,4497.563965,4386.410156,4505.769043,4485.769043,2680,1,25,2304,28891,,,,0,4,4,4,4,4,4,4,4,4,4,4,4,4,4,4,4,4,4,4,4,4,4,4,4,4,4,4,4,4,4,4,4,100,,,,,,,,,,,,,,,,,,,,,,,,,,,,,,,,,,,,,,,,,,,,,,,,,,,,,,,,,,,,,,,,,,,,,,,,,,,,,,,,,,,,,,,,,,,,,,,,,,,,,,,,,,,,,,,,,,,,,,,,,,,,,,,,,,,,,,,,,,,,,,,,,,,,,,,,,,,,,,,,,,,,,,,,,,,,,,,,,,,,,,,,,,,,,,,,,,,,,,,,,,,,,,
1764665217.894726,1764665217.892532,40623,0,4387.692383,4385.384766,4501.922852,4520.769043,4391.922852,4504.358887,4531.410156,4377.307617,4569.102539,4392.307617,4501.538574,4515.128418,4565.512695,4407.179688,4392.692383,4512.692383,4541.922852,4542.436035,4517.692383,4390.384766,4401.025879,4566.153809,4515,4496.025879,4397.94873,4575,4385.512695,4557.307617,4508.205078,4402.692383,4520.256348,4498.077148,2469,1,25,2304,28891,,,,0,4,4,4,4,4,4,4,4,4,4,4,4,4,4,4,4,4,4,4,4,4,4,4,4,4,4,4,4,4,4,4,4,100,,,,,,,,,,,,,,,,,,,,,,,,,,,,,,,,,,,,,,,,,,,,,,,,,,,,,,,,,,,,,,,,,,,,,,,,,,,,,,,,,,,,,,,,,,,,,,,,,,,,,,,,,,,,,,,,,,,,,,,,,,,,,,,,,,,,,,,,,,,,,,,,,,,,,,,,,,,,,,,,,,,,,,,,,,,,,,,,,,,,,,,,,,,,,,,,,,,,,,,,,,,,,,
1764665217.898634,1764665217.896439,40624,0,4401.282227,4400.128418,4512.307617,4536.538574,4406.282227,4513.717773,4542.94873,4390.641113,4586.794922,4399.743652,4512.563965,4524.102539,4576.025879,4413.461426,4398.974121,4519.743652,4553.589844,4556.025879,4526.922852,4401.025879,4413.974121,4579.230957,4524.102539,4511.794922,4419.743652,4587.820313,4399.487305,4572.179688,4518.333496,4415.897461,4534.743652,4509.358887,2835,1,25,2560,28899,,,,0,4,4,4,4,4,4,4,4,4,4,4,4,4,4,4,4,4,4,4,4,4,4,4,4,4,4,4,4,4,4,4,4,100,,,,,,,,,,,,,,,,,,,,,,,,,,,,,,,,,,,,,,,,,,,,,,,,,,,,,,,,,,,,,,,,,,,,,,,,,,,,,,,,,,,,,,,,,,,,,,,,,,,,,,,,,,,,,,,,,,,,,,,,,,,,,,,,,,,,,,,,,,,,,,,,,,,,,,,,,,,,,,,,,,,,,,,,,,,,,,,,,,,,,,,,,,,,,,,,,,,,,,,,,,,,,,
1764665217.902542,1764665217.900346,40625,0,4405.897461,4406.025879,4514.487305,4542.307617,4412.307617,4517.436035,4545.128418,4395.384766,4594.230957,4395.512695,4514.615234,4524.615234,4578.077148,4412.05127,4396.666504,4520,4556.282227,4558.589844,4528.846191,4402.820313,4415.769043,4583.077148,4525.641113,4516.282227,4432.179688,4590,4403.846191,4576.794922,4520.897461,4417.436035,4540.512695,4512.05127,2891,1,25,2560,28899,,,,0,4,4,4,4,4,4,4,4,4,4,4,4,4,4,4,4,4,4,4,4,4,4,4,4,4,4,4,4,4,4,4,4,100,,,,,,,,,,,,,,,,,,,,,,,,,,,,,,,,,,,26540,0,0.260913,-0.602295,-0.729553,0.192139,0.981565,0.190941,0.027835,23.666666,28.666666,45.333332,,,,,,,,,,,,,,,,,,,,,,,,,,,,,,,,,,,,,,,,,,,,,,,,,,,,,,,,,,,,,,,,,,,,,,,,,,,,,,,,,,,,,,,,,,,,,,,,,,,,,,,,,,,,,,,,,,,,,,,,,,,,,,,,,,,,,,,,,,,,,,,,,,,,,,,,,,,,,,,,
1764665217.906451,1764665217.904253,40626,0,4399.102539,4400,4507.179688,4534.743652,4406.666504,4512.563965,4536.922852,4386.922852,4586.794922,4380.512695,4507.436035,4516.410156,4569.871582,4405,4386.794922,4513.333496,4548.717773,4549.358887,4523.077148,4394.358887,4406.153809,4575.641113,4518.205078,4507.563965,4426.922852,4581.538574,4397.05127,4568.717773,4514.358887,4407.563965,4535.128418,4505,1734,1,25,2304,28907,,,,0,4,4,4,4,4,4,4,4,4,4,4,4,4,4,4,4,4,4,4,4,4,4,4,4,4,4,4,4,4,4,4,4,100,,,,,,,,,,,,,,,,,,,,,,,,,,,,,,,,,,,,,,,,,,,,,,,,,,,,,,,,,,,,,,,,,,,,,,,,,,,,,,,,,,,,,,,,,,,,,,,,,,,,,,,,,,,,,,,,,,,,,,,,,,,,,,,,,,,,,,,,,,,,,,,,,,,,,,,,,,,,,,,,,,,,,,,,,,,,,,,,,,,,,,,,,,,,,,,,,,,,,,,,,,,,,,
1764665217.910359,1764665217.908160,40627,0,4385.384766,4386.666504,4494.615234,4518.846191,4393.589844,4501.538574,4523.974121,4369.615234,4569.615234,4362.563965,4496.410156,4505.256348,4556.922852,4396.922852,4375.256348,4503.333496,4535.641113,4533.974121,4513.205078,4380.769043,4391.538574,4562.436035,4505.641113,4491.794922,4406.410156,4569.358887,4384.358887,4553.974121,4503.461426,4393.846191,4523.717773,4492.563965,2928,1,25,2304,28907,,,,0,4,4,4,4,4,4,4,4,4,4,4,4,4,4,4,4,4,4,4,4,4,4,4,4,4,4,4,4,4,4,4,4,100,,,,,,,,,,,,,,,,,,,,,,,,,,,,,,,,,,,,,,,,,,,,,,,,,,,,,,,,,,,,,,,,,,,,,,,,,,,,,,,,,,,,,,,,,,,,,,,,,,,,,,,,,,,,,,,,,,,,,,,,,,,,,,,,,,,,,,,,,,,,,,,,,,,,,,,,,,,,,,,,,,,,,,,,,,,,,,,,,,,,,,,,,,,,,,,,,,,,,,,,,,,,,,
1764665217.914267,1764665217.912067,40628,0,4372.563965,4374.230957,4483.717773,4504.487305,4381.153809,4490.128418,4513.974121,4352.94873,4552.692383,4352.179688,4487.820313,4497.692383,4547.307617,4392.05127,4368.205078,4494.743652,4524.615234,4520.897461,4504.615234,4369.615234,4379.743652,4551.794922,4495,4478.205078,4382.179688,4561.794922,4374.230957,4541.922852,4494.871582,4385.128418,4514.358887,4482.563965,2493,1,25,2560,28915,,,,0,4,4,4,4,4,4,4,4,4,4,4,4,4,4,4,4,4,4,4,4,4,4,4,4,4,4,4,4,4,4,4,4,100,,,,,,,,,,,,,,,,,,,,,,,,,,,,,,,,,,,,,,,,,,,,,,,,,,,,,,,,,,,,,,,,,,,,,,,,,,,,,,,,,,,,,,,,,,,,,,,,,,,,,,,,,,,,,,,,,,,,,,,,,,,,,,,,,,,,,,,,,,,,,,,,,,,,,,,,,,,,,,,,,,,,,,,,,,,,,,,,,,,,,,,,,,,,,,,,,,,,,,,,,,,,,,
1764665217.918175,1764665217.915973,40629,0,4366.922852,4369.871582,4480.256348,4499.743652,4376.153809,4484.230957,4512.307617,4346.282227,4544.358887,4355.384766,4485.128418,4497.05127,4545.512695,4391.410156,4369.102539,4491.153809,4520.128418,4515.897461,4501.282227,4366.410156,4375.641113,4549.230957,4491.794922,4473.461426,4367.94873,4562.692383,4372.436035,4539.358887,4493.205078,4386.282227,4512.563965,4481.282227,2787,1,25,2560,28915,,,,0,4,4,4,4,4,4,4,4,4,4,4,4,4,4,4,4,4,4,4,4,4,4,4,4,4,4,4,4,4,4,4,4,100,,,,,,,,,,,,,,,,,,,,,,,,,,,,,,,,,,,26541,0,0.260758,-0.602234,-0.729675,0.192078,0.970333,0.20608,0.033696,23.666666,28.666666,45.333332,,,,,,,,,,,,,,,,,,,,,,,,,,,,,,,,,,,,,,,,,,,,,,,,,,,,,,,,,,,,,,,,,,,,,,,,,,,,,,,,,,,,,,,,,,,,,,,,,,,,,,,,,,,,,,,,,,,,,,,,,,,,,,,,,,,,,,,,,,,,,,,,,,,,,,,,,,,,,,,,
1764665217.922083,1764665217.919880,40630,0,4369.487305,4375.256348,4485.512695,4505.641113,4380.641113,4486.538574,4518.846191,4352.179688,4546.666504,4369.871582,4487.820313,4501.153809,4550.128418,4393.717773,4376.153809,4493.205078,4522.94873,4519.230957,4502.820313,4371.538574,4378.846191,4554.871582,4497.307617,4478.461426,4372.179688,4569.615234,4378.974121,4546.410156,4498.205078,4395.384766,4518.077148,4489.487305,2899,1,25,2560,28923,,,,0,4,4,4,4,4,4,4,4,4,4,4,4,4,4,4,4,4,4,4,4,4,4,4,4,4,4,4,4,4,4,4,4,100,,,,,,,,,,,,,,,,,,,,,,,,,,,,,,,,,,,,,,,,,,,,,,,,,,,,,,,,,,,,,,,,,,,,,,,,,,,,,,,,,,,,,,,,,,,,,,,,,,,,,,,,,,,,,,,,,,,,,,,,,,,,,,,,,,,,,,,,,,,,,,,,,,,,,,,,,,,,,,,,,,,,,,,,,,,,,,,,,,,,,,,,,,,,,,,,,,,,,,,,,,,,,,
1764665217.925991,1764665217.923787,40631,0,4376.666504,4385.769043,4495.641113,4516.538574,4390.512695,4494.487305,4528.333496,4365.641113,4555.128418,4385.897461,4492.563965,4505.384766,4555.897461,4395.897461,4384.358887,4498.461426,4529.230957,4526.666504,4506.025879,4380.128418,4385.256348,4563.461426,4506.794922,4488.846191,4391.282227,4576.922852,4388.589844,4557.692383,4505.641113,4405.897461,4525.641113,4501.794922,2812,1,25,2560,28923,,,,0,4,4,4,4,4,4,4,4,4,4,4,4,4,4,4,4,4,4,4,4,4,4,4,4,4,4,4,4,4,4,4,4,100,,,,,,,,,,,,,,,,,,,,,,,,,,,,,,,,,,,,,,,,,,,,,,,,,,,,,,,,,,,,,,,,,,,,,,,,,,,,,,,,,,,,,,,,,,,,,,,,,,,,,,,,,,,,,,,,,,,,,,,,,,,,,,,,,,,,,,,,,,,,,,,,,,,,,,,,,,,,,,,,,,,,,,,,,,,,,,,,,,,,,,,,,,,,,,,,,,,,,,,,,,,,,,
1764665217.929899,1764665217.927694,40632,0,4383.717773,4394.871582,4503.974121,4524.743652,4399.230957,4502.94873,4535.256348,4378.461426,4562.820313,4392.94873,4496.666504,4507.05127,4558.205078,4395.897461,4388.333496,4503.205078,4534.102539,4532.692383,4508.589844,4385.769043,4390.256348,4569.487305,4514.615234,4498.461426,4412.05127,4580.897461,4395.128418,4566.538574,4510.897461,4411.153809,4529.230957,4510.384766,2728,1,25,2561,28930,,,,0,4,4,4,4,4,4,4,4,4,4,4,4,4,4,4,4,4,4,4,4,4,4,4,4,4,4,4,4,4,4,4,4,100,,,,,,,,,,,,,,,,,,,,,,,,,,,,,,,,,,,,,,,,,,,,,,,,,,,,,,,,,,,,,,,,,,,,,,,,,,,,,,,,,,,,,,,,,,,,,,,,,,,,,,,,,,,,,,,,,,,,,,,,,,,,,,,,,,,,,,,,,,,,,,,,,,,,,,,,,,,,,,,,,,,,,,,,,,,,,,,,,,,,,,,,,,,,,,,,,,,,,,,,,,,,,,
1764665217.933807,1764665217.931601,40633,0,4388.077148,4398.974121,4506.538574,4525.641113,4402.179688,4508.077148,4537.307617,4384.487305,4565.384766,4388.333496,4499.230957,4507.179688,4556.538574,4393.846191,4386.282227,4505.384766,4535.512695,4534.743652,4510,4385.769043,4392.179688,4570.897461,4517.692383,4503.461426,4420.897461,4581.410156,4395.897461,4569.487305,4512.692383,4409.871582,4527.436035,4511.410156,2790,1,25,2561,28930,,,,0,4,4,4,4,4,4,4,4,4,4,4,4,4,4,4,4,4,4,4,4,4,4,4,4,4,4,4,4,4,4,4,4,100,,,,,,,,,,,,,,,,,,,,,,,,,,,,,,,,,,,26542,0,0.260758,-0.602234,-0.729675,0.192078,0.964473,0.211452,0.021975,24,29.333334,44.166668,,,,,,,,,,,,,,,,,,,,,,,,,,,,,,,,,,,,,,,,,,,,,,,,,,,,,,,,,,,,,,,,,,,,,,,,,,,,,,,,,,,,,,,,,,,,,,,,,,,,,,,,,,,,,,,,,,,,,,,,,,,,,,,,,,,,,,,,,,,,,,,,,,,,,,,,,,,,,,,,
1764665217.937715,1764665217.935508,40634,0,4390.128418,4399.230957,4504.358887,4521.153809,4400,4509.358887,4536.666504,4383.461426,4563.846191,4378.333496,4501.025879,4509.102539,4554.487305,4392.05127,4381.282227,4506.025879,4535.769043,4533.846191,4511.410156,4382.436035,4392.307617,4570.641113,4517.692383,4504.102539,4412.692383,4581.153809,4393.717773,4568.333496,4512.436035,4405.897461,4523.717773,4507.179688,1930,1,25,2562,28938,,,,0,4,4,4,4,4,4,4,4,4,4,4,4,4,4,4,4,4,4,4,4,4,4,4,4,4,4,4,4,4,4,4,4,100,,,,,,,,,,,,,,,,,,,,,,,,,,,,,,,,,,,,,,,,,,,,,,,1.671996,2.199363,0.722237,0.584871,0.632775,1.471247,2.099555,1.323645,0.755186,0.673663,1.5862,2.470005,0.888463,0.843956,0.833737,1.77029,1.739118,0.946641,0.782571,0.884562,2.348011,1.769563,0.935112,0.728526,0.706729,1.425964,1.985669,0.866945,0.548729,0.597239,2.309279,1.73312,0.817455,0.620064,0.756672,1.03597,1.67193,0.836433,0.74067,0.89744,1.022458,0.872482,0.720676,0.548254,0.690851,1.044975,1.441317,0.278686,1.007266,1.631587,0.883025,1.48664,0.513254,0.430804,0.564893,2.44713,2.588246,0.631934,0.661169,0.6294,1.871881,4.33011,0.648055,0.371553,0.576999,0.758352,1.934663,1.032351,0.288101,0.397869,0.669843,1.489172,0.547817,0.455678,0.723908,0.971388,7.005388,0.49446,0.304848,0.407279,2.366322,4.102222,1.184638,0.636062,0.705472,1.982962,7.3013,0.735499,0.583896,0.659822,1.127494,3.526605,0.430072,0.298309,0.399824,1.176172,1.289486,0.641397,0.374497,0.522764,1.848146,2.335495,0.538569,0.42065,0.545251,1.956717,4.081797,0.934048,0.589052,0.636283,2.158439,2.089647,0.623536,0.559937,0.6847,1.694071,1.516562,0.748076,0.71649,0.657224,1.937557,2.678025,1.769019,2.483103,1.354491,1.608508,0.738086,0.800962,0.698527,0.678929,1.980491,1.591349,0.975771,0.809216,0.772963,2.133819,1.556212,1.044003,0.591564,0.710501,0.659161,1.133876,0.373522,0.293591,0.389696,1.088428,2.301629,1.331365,0.884551,0.663598,1.906973,2.21484,1.11137,0.972436,0.641064,1.348759,2.304797,0.846174,1.063178,0.697937
1764665217.941624,1764665217.939415,40635,0,4392.05127,4399.871582,4501.410156,4517.436035,4397.179688,4509.230957,4537.05127,4379.615234,4562.307617,4373.077148,4503.077148,4514.743652,4556.538574,4392.436035,4378.846191,4507.692383,4538.333496,4533.589844,4514.102539,4380.512695,4393.077148,4572.307617,4518.077148,4503.461426,4393.589844,4581.922852,4393.717773,4567.179688,4513.205078,4404.358887,4522.820313,4503.589844,2599,1,25,2562,28938,,,,0,4,4,4,4,4,4,4,4,4,4,4,4,4,4,4,4,4,4,4,4,4,4,4,4,4,4,4,4,4,4,4,4,100,,,,,,,,,,,,,,,,,,,,,,,,,,,,,,,,,,,,,,,,,,,,,,,,,,,,,,,,,,,,,,,,,,,,,,,,,,,,,,,,,,,,,,,,,,,,,,,,,,,,,,,,,,,,,,,,,,,,,,,,,,,,,,,,,,,,,,,,,,,,,,,,,,,,,,,,,,,,,,,,,,,,,,,,,,,,,,,,,,,,,,,,,,,,,,,,,,,,,,,,,,,,,,
1764665217.945532,1764665217.943322,40636,0,4395.769043,4403.974121,4501.922852,4519.358887,4398.077148,4510.641113,4541.153809,4378.077148,4564.358887,4378.333496,4505.384766,4523.717773,4564.358887,4395.256348,4382.692383,4512.05127,4544.230957,4537.179688,4518.846191,4383.717773,4396.153809,4578.205078,4521.410156,4504.615234,4376.410156,4583.846191,4399.358887,4569.615234,4516.794922,4408.205078,4526.922852,4505,2662,1,25,2563,28946,,,,0,4,4,4,4,4,4,4,4,4,4,4,4,4,4,4,4,4,4,4,4,4,4,4,4,4,4,4,4,4,4,4,4,100,,,,,,,,,,,,,,,,,,,,,,,,,,,,,,,,,,,,,,,,,,,,,,,,,,,,,,,,,,,,,,,,,,,,,,,,,,,,,,,,,,,,,,,,,,,,,,,,,,,,,,,,,,,,,,,,,,,,,,,,,,,,,,,,,,,,,,,,,,,,,,,,,,,,,,,,,,,,,,,,,,,,,,,,,,,,,,,,,,,,,,,,,,,,,,,,,,,,,,,,,,,,,,
1764665217.949440,1764665217.947229,40637,0,4401.922852,4411.538574,4507.179688,4527.179688,4403.717773,4515,4548.333496,4382.307617,4570.769043,4392.179688,4507.94873,4533.589844,4576.025879,4399.358887,4391.666504,4518.846191,4552.179688,4544.871582,4525.641113,4392.820313,4402.05127,4587.307617,4527.820313,4509.487305,4372.179688,4586.410156,4409.615234,4576.153809,4522.820313,4415.641113,4534.743652,4511.153809,2481,1,25,2563,28946,,,,0,4,4,4,4,4,4,4,4,4,4,4,4,4,4,4,4,4,4,4,4,4,4,4,4,4,4,4,4,4,4,4,4,100,,,,,,,,,,,,,,,,,,,,,,,,,,,,,,,,,,,26543,0,0.260853,-0.602173,-0.729675,0.192139,0.989867,0.196801,0.028324,23.666666,29.333334,43.333332,,,,,,,,,,,,,,,,,,,,,,,,,,,,,,,,,,,,,,,,,,,,,,,,,,,,,,,,,,,,,,,,,,,,,,,,,,,,,,,,,,,,,,,,,,,,,,,,,,,,,,,,,,,,,,,,,,,,,,,,,,,,,,,,,,,,,,,,,,,,,,,,,,,,,,,,,,,,,,,,
1764665217.953348,1764665217.951136,40638,0,4409.230957,4419.743652,4516.153809,4537.05127,4412.179688,4521.666504,4556.922852,4391.922852,4579.487305,4406.922852,4511.153809,4541.282227,4586.922852,4402.820313,4401.025879,4525.897461,4559.358887,4554.230957,4533.205078,4405.256348,4410.256348,4596.538574,4535.897461,4517.563965,4384.102539,4588.589844,4419.487305,4584.871582,4529.487305,4423.077148,4542.692383,4518.717773,2631,1,25,2564,28954,,,,0,4,4,4,4,4,4,4,4,4,4,4,4,4,4,4,4,4,4,4,4,4,4,4,4,4,4,4,4,4,4,4,4,100,,,,,,,,,,,,,,,,,,,,,,,,,,,,,,,,,,,,,,,,,,,,,,,,,,,,,,,,,,,,,,,,,,,,,,,,,,,,,,,,,,,,,,,,,,,,,,,,,,,,,,,,,,,,,,,,,,,,,,,,,,,,,,,,,,,,,,,,,,,,,,,,,,,,,,,,,,,,,,,,,,,,,,,,,,,,,,,,,,,,,,,,,,,,,,,,,,,,,,,,,,,,,,
1764665217.957256,1764665217.955043,40639,0,4415.512695,4425.641113,4525.128418,4544.358887,4420.256348,4528.205078,4563.974121,4402.820313,4586.794922,4415,4514.230957,4545.769043,4592.436035,4404.871582,4405.384766,4531.666504,4564.102539,4561.794922,4538.717773,4416.282227,4419.230957,4602.94873,4543.589844,4525.641113,4406.410156,4590,4424.487305,4591.922852,4533.974121,4426.666504,4547.563965,4523.717773,2800,1,25,2564,28954,,,,0,4,4,4,4,4,4,4,4,4,4,4,4,4,4,4,4,4,4,4,4,4,4,4,4,4,4,4,4,4,4,4,4,100,,,,,,,,,,,,,,,,,,,,,,,,,,,,,,,,,,,,,,,,,,,,,,,,,,,,,,,,,,,,,,,,,,,,,,,,,,,,,,,,,,,,,,,,,,,,,,,,,,,,,,,,,,,,,,,,,,,,,,,,,,,,,,,,,,,,,,,,,,,,,,,,,,,,,,,,,,,,,,,,,,,,,,,,,,,,,,,,,,,,,,,,,,,,,,,,,,,,,,,,,,,,,,
1764665217.961164,1764665217.958950,40640,0,4418.333496,4426.666504,4529.615234,4546.025879,4425.256348,4531.922852,4567.307617,4409.615234,4589.615234,4412.692383,4516.025879,4546.538574,4590.897461,4405,4402.436035,4534.615234,4565.769043,4564.615234,4540.128418,4420.641113,4425.512695,4603.974121,4548.205078,4529.487305,4428.077148,4589.615234,4422.563965,4594.230957,4534.102539,4424.743652,4547.692383,4523.846191,2735,1,25,2565,28962,,,,0,4,4,4,4,4,4,4,4,4,4,4,4,4,4,4,4,4,4,4,4,4,4,4,4,4,4,4,4,4,4,4,4,100,,,,,,,,,,,,,,,,,,,,,,,,,,,,,,,,,,,,,,,,,,,,,,,,,,,,,,,,,,,,,,,,,,,,,,,,,,,,,,,,,,,,,,,,,,,,,,,,,,,,,,,,,,,,,,,,,,,,,,,,,,,,,,,,,,,,,,,,,,,,,,,,,,,,,,,,,,,,,,,,,,,,,,,,,,,,,,,,,,,,,,,,,,,,,,,,,,,,,,,,,,,,,,
1764665217.965072,1764665217.962857,40641,0,4415.512695,4421.794922,4527.05127,4541.794922,4424.871582,4530.384766,4564.871582,4408.077148,4586.794922,4402.436035,4514.743652,4543.205078,4583.717773,4402.94873,4393.205078,4533.589844,4563.333496,4561.410156,4535.769043,4415.256348,4424.615234,4598.846191,4547.307617,4525.128418,4439.102539,4586.538574,4414.487305,4589.487305,4529.358887,4417.820313,4543.077148,4518.717773,2896,1,25,2565,28962,,,,0,4,4,4,4,4,4,4,4,4,4,4,4,4,4,4,4,4,4,4,4,4,4,4,4,4,4,4,4,4,4,4,4,100,,,,,,,,,,,,,,,,,,,,,,,,,,,,,,,,,,,26544,0,0.260764,-0.602173,-0.729675,0.192261,0.968868,0.204126,0.031254,23.166666,29,44.166668,,,,,,,,,,,,,,,,,,,,,,,,,,,,,,,,,,,,,,,,,,,,,,,,,,,,,,,,,,,,,,,,,,,,,,,,,,,,,,,,,,,,,,,,,,,,,,,,,,,,,,,,,,,,,,,,,,,,,,,,,,,,,,,,,,,,,,,,,,,,,,,,,,,,,,,,,,,,,,,,
1764665217.968980,1764665217.966764,40642,0,4407.05127,4411.794922,4518.077148,4533.077148,4418.077148,4522.94873,4556.410156,4397.563965,4579.102539,4389.615234,4508.846191,4535.384766,4573.589844,4398.333496,4381.025879,4527.692383,4556.153809,4552.307617,4526.282227,4401.025879,4415,4588.461426,4539.743652,4512.692383,4435.128418,4580.128418,4402.820313,4577.94873,4521.025879,4407.820313,4534.487305,4510.128418,2582,1,25,2566,28969,,,,0,4,4,4,4,4,4,4,4,4,4,4,4,4,4,4,4,4,4,4,4,4,4,4,4,4,4,4,4,4,4,4,4,100,,,,,,,,,,,,,,,,,,,,,,,,,,,,,,,,,,,,,,,,,,,,,,,,,,,,,,,,,,,,,,,,,,,,,,,,,,,,,,,,,,,,,,,,,,,,,,,,,,,,,,,,,,,,,,,,,,,,,,,,,,,,,,,,,,,,,,,,,,,,,,,,,,,,,,,,,,,,,,,,,,,,,,,,,,,,,,,,,,,,,,,,,,,,,,,,,,,,,,,,,,,,,,
1764665217.972888,1764665217.970671,40643,0,4395.256348,4398.974121,4506.538574,4523.077148,4406.025879,4511.666504,4544.358887,4382.436035,4568.974121,4379.615234,4499.615234,4524.743652,4563.717773,4392.94873,4370.128418,4518.205078,4544.871582,4540.384766,4515.128418,4383.077148,4400.256348,4575.641113,4527.436035,4496.410156,4419.487305,4571.153809,4390.512695,4562.563965,4511.410156,4397.436035,4524.230957,4500.897461,2831,1,25,2566,28969,,,,0,4,4,4,4,4,4,4,4,4,4,4,4,4,4,4,4,4,4,4,4,4,4,4,4,4,4,4,4,4,4,4,4,100,,,,,,,,,,,,,,,,,,,,,,,,,,,,,,,,,,,,,,,,,,,,,,,,,,,,,,,,,,,,,,,,,,,,,,,,,,,,,,,,,,,,,,,,,,,,,,,,,,,,,,,,,,,,,,,,,,,,,,,,,,,,,,,,,,,,,,,,,,,,,,,,,,,,,,,,,,,,,,,,,,,,,,,,,,,,,,,,,,,,,,,,,,,,,,,,,,,,,,,,,,,,,,
1764665217.976797,1764665217.974578,40644,0,4385.256348,4387.820313,4497.05127,4515.512695,4393.333496,4501.410156,4533.974121,4370,4560.256348,4376.153809,4491.538574,4516.025879,4557.307617,4389.743652,4365.128418,4509.487305,4533.717773,4530.256348,4507.05127,4369.871582,4387.820313,4565.128418,4515.641113,4483.846191,4401.410156,4562.820313,4381.410156,4549.230957,4504.230957,4390,4515.641113,4494.230957,2733,1,25,2567,28977,,,,0,4,4,4,4,4,4,4,4,4,4,4,4,4,4,4,4,4,4,4,4,4,4,4,4,4,4,4,4,4,4,4,4,100,,,,,,,,,,,,,,,,,,,,,,,,,,,,,,,,,,,,,,,,,,,,,,,,,,,,,,,,,,,,,,,,,,,,,,,,,,,,,,,,,,,,,,,,,,,,,,,,,,,,,,,,,,,,,,,,,,,,,,,,,,,,,,,,,,,,,,,,,,,,,,,,,,,,,,,,,,,,,,,,,,,,,,,,,,,,,,,,,,,,,,,,,,,,,,,,,,,,,,,,,,,,,,
1764665217.980704,1764665217.978485,40645,0,4382.820313,4383.589844,4493.461426,4513.589844,4386.153809,4497.692383,4531.025879,4367.179688,4557.179688,4381.025879,4490.384766,4514.615234,4557.436035,4391.282227,4368.974121,4506.538574,4528.846191,4526.922852,4505.641113,4367.692383,4384.358887,4561.153809,4510.384766,4480.769043,4390.128418,4559.102539,4378.846191,4544.358887,4503.205078,4388.077148,4512.179688,4492.307617,2764,1,25,2567,28977,,,,0,4,4,4,4,4,4,4,4,4,4,4,4,4,4,4,4,4,4,4,4,4,4,4,4,4,4,4,4,4,4,4,4,100,,,,,,,,,,,,,,,,,,,,,,,,,,,,,,,,,,,26545,0,0.260764,-0.602173,-0.729675,0.192261,0.964473,0.199243,0.039067,24,29,43.666668,,,,,,,,,,,,,,,,,,,,,,,,,,,,,,,,,,,,,,,,,,,,,,,,,,,,,,,,,,,,,,,,,,,,,,,,,,,,,,,,,,,,,,,,,,,,,,,,,,,,,,,,,,,,,,,,,,,,,,,,,,,,,,,,,,,,,,,,,,,,,,,,,,,,,,,,,,,,,,,,
1764665217.984613,1764665217.982392,40646,0,4389.871582,4388.589844,4496.538574,4518.717773,4388.589844,4503.717773,4538.461426,4376.410156,4561.666504,4393.589844,4498.077148,4522.307617,4564.743652,4398.589844,4380.769043,4511.410156,4534.487305,4532.307617,4510.897461,4377.05127,4391.666504,4565.897461,4515,4487.692383,4389.871582,4562.179688,4384.102539,4550.384766,4508.589844,4393.205078,4516.153809,4495.769043,2767,1,25,2564,28985,,,,0,4,4,4,4,4,4,4,4,4,4,4,4,4,4,4,4,4,4,4,4,4,4,4,4,4,4,4,4,4,4,4,4,100,,,,,,,,,,,,,,,,,,,,,,,,,,,,,,,,,,,,,,,,,,,,,,,,,,,,,,,,,,,,,,,,,,,,,,,,,,,,,,,,,,,,,,,,,,,,,,,,,,,,,,,,,,,,,,,,,,,,,,,,,,,,,,,,,,,,,,,,,,,,,,,,,,,,,,,,,,,,,,,,,,,,,,,,,,,,,,,,,,,,,,,,,,,,,,,,,,,,,,,,,,,,,,
1764665217.988521,1764665217.986299,40647,0,4403.333496,4400.769043,4504.102539,4529.358887,4400.128418,4517.179688,4553.333496,4393.589844,4572.307617,4410.256348,4510.769043,4535.384766,4576.282227,4408.846191,4395.256348,4521.410156,4548.333496,4543.589844,4519.743652,4392.436035,4404.487305,4576.666504,4527.692383,4499.743652,4397.820313,4570.641113,4395,4564.102539,4517.692383,4403.205078,4526.282227,4502.563965,2959,1,25,2564,28985,,,,0,4,4,4,4,4,4,4,4,4,4,4,4,4,4,4,4,4,4,4,4,4,4,4,4,4,4,4,4,4,4,4,4,100,,,,,,,,,,,,,,,,,,,,,,,,,,,,,,,,,,,,,,,,,,,,,,,,,,,,,,,,,,,,,,,,,,,,,,,,,,,,,,,,,,,,,,,,,,,,,,,,,,,,,,,,,,,,,,,,,,,,,,,,,,,,,,,,,,,,,,,,,,,,,,,,,,,,,,,,,,,,,,,,,,,,,,,,,,,,,,,,,,,,,,,,,,,,,,,,,,,,,,,,,,,,,,
1764665217.992429,1764665217.990206,40648,0,4414.871582,4412.820313,4511.922852,4540.256348,4413.846191,4530,4567.307617,4409.230957,4583.589844,4423.333496,4520.897461,4545.384766,4585.641113,4417.436035,4405.128418,4530.256348,4562.563965,4554.230957,4526.922852,4404.358887,4414.230957,4586.922852,4540.512695,4509.230957,4407.820313,4579.230957,4405.897461,4577.692383,4525,4412.820313,4537.05127,4508.717773,2844,1,25,2563,28993,,,,0,4,4,4,4,4,4,4,4,4,4,4,4,4,4,4,4,4,4,4,4,4,4,4,4,4,4,4,4,4,4,4,4,100,,,,,,,,,,,,,,,,,,,,,,,,,,,,,,,,,,,,,,,,,,,,,,,,,,,,,,,,,,,,,,,,,,,,,,,,,,,,,,,,,,,,,,,,,,,,,,,,,,,,,,,,,,,,,,,,,,,,,,,,,,,,,,,,,,,,,,,,,,,,,,,,,,,,,,,,,,,,,,,,,,,,,,,,,,,,,,,,,,,,,,,,,,,,,,,,,,,,,,,,,,,,,,
1764665217.996337,1764665217.994113,40649,0,4416.538574,4416.410156,4514.102539,4545.128418,4420.128418,4533.205078,4571.282227,4413.717773,4589.487305,4425.384766,4522.179688,4545.256348,4586.666504,4419.358887,4405.769043,4531.153809,4567.692383,4556.922852,4527.436035,4405.769043,4414.102539,4589.230957,4544.743652,4510.128418,4412.820313,4582.05127,4409.871582,4582.436035,4525.384766,4415.641113,4540.897461,4509.871582,2698,1,25,2563,28993,,,,0,4,4,4,4,4,4,4,4,4,4,4,4,4,4,4,4,4,4,4,4,4,4,4,4,4,4,4,4,4,4,4,4,100,,,,,,,,,,,,,,,,,,,,,,,,,,,,,,,,,,,26546,0,0.260593,-0.602173,-0.729736,0.192261,0.98889,0.207545,0.034184,21.666666,30.166666,44.5,,,,,,,,,,,,,,,,,,,,,,,,,,,,,,,,,,,,,,,,,,,,,,,,,,,,,,,,,,,,,,,,,,,,,,,,,,,,,,,,,,,,,,,,,,,,,,,,,,,,,,,,,,,,,,,,,,,,,,,,,,,,,,,,,,,,,,,,,,,,,,,,,,,,,,,,,,,,,,,,
1764665218.000245,1764665217.998020,40650,0,4405.384766,4407.692383,4507.436035,4539.615234,4413.461426,4523.461426,4561.410156,4404.487305,4585.641113,4414.487305,4514.871582,4534.230957,4577.820313,4413.205078,4398.077148,4522.179688,4559.102539,4548.846191,4519.743652,4395.512695,4402.820313,4580.769043,4536.282227,4500.897461,4408.974121,4576.025879,4402.692383,4573.974121,4517.563965,4408.205078,4533.077148,4502.94873,2261,1,25,2562,29001,,,,0,4,4,4,4,4,4,4,4,4,4,4,4,4,4,4,4,4,4,4,4,4,4,4,4,4,4,4,4,4,4,4,4,100,,,,,,,,,,,,,,,,,,,,,,,,,,,,,,,,,,,,,,,,,,,,,,,,,,,,,,,,,,,,,,,,,,,,,,,,,,,,,,,,,,,,,,,,,,,,,,,,,,,,,,,,,,,,,,,,,,,,,,,,,,,,,,,,,,,,,,,,,,,,,,,,,,,,,,,,,,,,,,,,,,,,,,,,,,,,,,,,,,,,,,,,,,,,,,,,,,,,,,,,,,,,,,
1764665218.004153,1764665218.001927,40651,0,4386.410156,4390.256348,4493.461426,4526.025879,4396.666504,4505.641113,4542.436035,4387.307617,4573.461426,4397.436035,4504.871582,4517.563965,4563.846191,4402.563965,4388.333496,4508.077148,4541.025879,4533.846191,4507.692383,4379.615234,4386.153809,4565.769043,4519.615234,4485.256348,4396.922852,4563.333496,4386.538574,4556.282227,4504.871582,4392.820313,4515.769043,4489.487305,2664,1,25,2562,29001,,,,0,4,4,4,4,4,4,4,4,4,4,4,4,4,4,4,4,4,4,4,4,4,4,4,4,4,4,4,4,4,4,4,4,100,,,,,,,,,,,,,,,,,,,,,,,,,,,,,,,,,,,,,,,,,,,,,,,,,,,,,,,,,,,,,,,,,,,,,,,,,,,,,,,,,,,,,,,,,,,,,,,,,,,,,,,,,,,,,,,,,,,,,,,,,,,,,,,,,,,,,,,,,,,,,,,,,,,,,,,,,,,,,,,,,,,,,,,,,,,,,,,,,,,,,,,,,,,,,,,,,,,,,,,,,,,,,,
1764665218.008061,1764665218.005834,40652,0,4369.615234,4373.205078,4478.974121,4512.05127,4379.358887,4490.512695,4525.128418,4372.820313,4558.717773,4384.743652,4499.615234,4503.589844,4552.436035,4393.717773,4383.077148,4497.05127,4523.333496,4520.128418,4498.077148,4367.179688,4372.307617,4552.179688,4504.487305,4470.512695,4381.538574,4549.871582,4368.974121,4538.589844,4493.333496,4376.025879,4496.538574,4474.871582,2472,1,25,2560,29009,,,,0,4,4,4,4,4,4,4,4,4,4,4,4,4,4,4,4,4,4,4,4,4,4,4,4,4,4,4,4,4,4,4,4,100,,,,,,,,,,,,,,,,,,,,,,,,,,,,,,,,,,,,,,,,,,,,,,,,,,,,,,,,,,,,,,,,,,,,,,,,,,,,,,,,,,,,,,,,,,,,,,,,,,,,,,,,,,,,,,,,,,,,,,,,,,,,,,,,,,,,,,,,,,,,,,,,,,,,,,,,,,,,,,,,,,,,,,,,,,,,,,,,,,,,,,,,,,,,,,,,,,,,,,,,,,,,,,
1764665218.011969,1764665218.009741,40653,0,4362.563965,4364.871582,4471.410156,4505.256348,4371.666504,4486.025879,4518.461426,4368.077148,4548.333496,4382.307617,4501.282227,4497.436035,4549.230957,4391.922852,4385,4494.743652,4514.871582,4514.743652,4495.384766,4363.717773,4367.94873,4546.666504,4498.846191,4463.461426,4369.615234,4541.794922,4358.589844,4529.871582,4487.692383,4365.641113,4484.615234,4465.641113,2217,1,25,2560,29009,,,,0,4,4,4,4,4,4,4,4,4,4,4,4,4,4,4,4,4,4,4,4,4,4,4,4,4,4,4,4,4,4,4,4,100,,,,,,,,,,,,,,,,,,,,,,,,,,,,,,,,,,,26547,0,0.260859,-0.602112,-0.729675,0.192322,0.98889,0.207545,0.034184,22.333334,29.833334,43.333332,,,,,,,,,,,,,,,,,,,,,,,,,,,,,,,,,,,,,,,,,,,,,,,,,,,,,,,,,,,,,,,,,,,,,,,,,,,,,,,,,,,,,,,,,,,,,,,,,,,,,,,,,,,,,,,,,,,,,,,,,,,,,,,,,,,,,,,,,,,,,,,,,,,,,,,,,,,,,,,,
1764665218.015877,1764665218.013648,40654,0,4366.025879,4367.436035,4472.436035,4507.692383,4375.769043,4492.307617,4523.205078,4372.436035,4546.025879,4387.307617,4506.666504,4498.974121,4553.846191,4397.307617,4390.512695,4500,4517.692383,4518.717773,4499.230957,4368.333496,4372.94873,4550.256348,4503.205078,4466.025879,4365.256348,4541.153809,4359.102539,4532.05127,4488.846191,4365,4484.743652,4464.615234,2685,1,25,2560,29016,,,,0,4,4,4,4,4,4,4,4,4,4,4,4,4,4,4,4,4,4,4,4,4,4,4,4,4,4,4,4,4,4,4,4,100,,,,,,,,,,,,,,,,,,,,,,,,,,,,,,,,,,,,,,,,,,,,,,,,,,,,,,,,,,,,,,,,,,,,,,,,,,,,,,,,,,,,,,,,,,,,,,,,,,,,,,,,,,,,,,,,,,,,,,,,,,,,,,,,,,,,,,,,,,,,,,,,,,,,,,,,,,,,,,,,,,,,,,,,,,,,,,,,,,,,,,,,,,,,,,,,,,,,,,,,,,,,,,
1764665218.019786,1764665218.017555,40655,0,4374.487305,4376.282227,4478.461426,4514.743652,4385.769043,4502.436035,4532.436035,4378.846191,4550,4391.794922,4510.256348,4504.230957,4561.538574,4405.128418,4393.077148,4506.922852,4526.794922,4527.436035,4506.025879,4375.641113,4382.692383,4558.589844,4512.307617,4474.615234,4367.692383,4545.769043,4367.179688,4540.769043,4494.358887,4372.179688,4494.358887,4470.128418,2473,1,25,2560,29016,,,,0,4,4,4,4,4,4,4,4,4,4,4,4,4,4,4,4,4,4,4,4,4,4,4,4,4,4,4,4,4,4,4,4,100,,,,,,,,,,,,,,,,,,,,,,,,,,,,,,,,,,,,,,,,,,,,,,,,,,,,,,,,,,,,,,,,,,,,,,,,,,,,,,,,,,,,,,,,,,,,,,,,,,,,,,,,,,,,,,,,,,,,,,,,,,,,,,,,,,,,,,,,,,,,,,,,,,,,,,,,,,,,,,,,,,,,,,,,,,,,,,,,,,,,,,,,,,,,,,,,,,,,,,,,,,,,,,
1764665218.023694,1764665218.021462,40656,1,4378.994141,4382.229004,4484.112305,4519.477539,4390.749512,4507.475586,4536.972168,4383.609375,4554.871582,4395.798828,4512.021484,4508.984375,4564.852051,4406.163574,4394.408203,4509.250488,4531.074707,4530.897461,4508.471191,4379.358887,4386.252441,4562.633301,4515.937012,4479.072754,4372.297852,4550.769043,4372.692383,4546.469238,4498.382813,4378.214844,4500.1875,4475.976563,0,1,25,0,0,,,,0,4,4,4,4,4,4,4,4,4,4,4,4,4,4,4,4,4,4,4,4,4,4,4,4,4,4,4,4,4,4,4,4,100,,,,,,,,,,,,,,,,,,,,,,,,,,,,,,,,,,,,,,,,,,,,,,,,,,,,,,,,,,,,,,,,,,,,,,,,,,,,,,,,,,,,,,,,,,,,,,,,,,,,,,,,,,,,,,,,,,,,,,,,,,,,,,,,,,,,,,,,,,,,,,,,,,,,,,,,,,,,,,,,,,,,,,,,,,,,,,,,,,,,,,,,,,,,,,,,,,,,,,,,,,,,,,
1764665218.027602,1764665218.025369,40657,1,4383.500977,4388.175781,4489.763184,4524.210938,4395.72998,4512.514648,4541.508789,4388.372559,4559.743652,4399.802734,4513.787109,4513.737793,4568.165527,4407.199219,4395.739746,4511.578125,4535.35498,4534.358887,4510.916992,4383.077148,4389.8125,4566.676758,4519.565918,4483.530762,4376.90332,4555.769043,4378.205078,4552.169434,4502.40625,4384.250488,4506.015625,4481.824219,0,1,25,0,0,,,,0,4,4,4,4,4,4,4,4,4,4,4,4,4,4,4,4,4,4,4,4,4,4,4,4,4,4,4,4,4,4,4,4,100,,,,,,,,,,,,,,,,,,,,,,,,,,,,,,,,,,,,,,,,,,,,,,,,,,,,,,,,,,,,,,,,,,,,,,,,,,,,,,,,,,,,,,,,,,,,,,,,,,,,,,,,,,,,,,,,,,,,,,,,,,,,,,,,,,,,,,,,,,,,,,,,,,,,,,,,,,,,,,,,,,,,,,,,,,,,,,,,,,,,,,,,,,,,,,,,,,,,,,,,,,,,,,
1764665218.031510,1764665218.029275,40658,1,4388.007813,4394.12207,4495.414063,4528.944824,4400.709961,4517.554199,4546.04541,4393.13623,4564.615234,4403.806641,4515.552246,4518.491211,4571.479492,4408.234863,4397.070801,4513.905273,4539.635254,4537.820313,4513.362793,4386.794922,4393.372559,4570.719727,4523.195313,4487.988281,4381.508789,4560.769043,4383.717773,4557.869629,4506.430176,4390.286133,4511.844238,4487.672363,0,1,25,0,0,,,,0,4,4,4,4,4,4,4,4,4,4,4,4,4,4,4,4,4,4,4,4,4,4,4,4,4,4,4,4,4,4,4,4,100,,,,,,,,,,,,,,,,,,,,,,,,,,,,,,,,,,,,,,,,,,,,,,,,,,,,,,,,,,,,,,,,,,,,,,,,,,,,,,,,,,,,,,,,,,,,,,,,,,,,,,,,,,,,,,,,,,,,,,,,,,,,,,,,,,,,,,,,,,,,,,,,,,,,,,,,,,,,,,,,,,,,,,,,,,,,,,,,,,,,,,,,,,,,,,,,,,,,,,,,,,,,,,
1764665218.035418,1764665218.033182,40659,1,4392.514648,4400.068848,4501.064941,4533.678711,4405.69043,4522.59375,4550.582031,4397.899414,4569.487305,4407.810547,4517.317383,4523.244629,4574.792969,4409.27002,4398.402344,4516.23291,4543.915039,4541.282227,4515.808594,4390.512695,4396.933105,4574.763184,4526.824219,4492.445801,4386.114258,4565.769043,4389.230957,4563.569824,4510.453613,4396.321289,4517.672363,4493.520508,0,1,25,0,0,,,,0,4,4,4,4,4,4,4,4,4,4,4,4,4,4,4,4,4,4,4,4,4,4,4,4,4,4,4,4,4,4,4,4,100,,,,,,,,,,,,,,,,,,,,,,,,,,,,,,,,,,,,,,,,,,,,,,,,,,,,,,,,,,,,,,,,,,,,,,,,,,,,,,,,,,,,,,,,,,,,,,,,,,,,,,,,,,,,,,,,,,,,,,,,,,,,,,,,,,,,,,,,,,,,,,,,,,,,,,,,,,,,,,,,,,,,,,,,,,,,,,,,,,,,,,,,,,,,,,,,,,,,,,,,,,,,,,
1764665218.039326,1764665218.037089,40660,1,4397.021484,4406.015625,4506.71582,4538.412109,4410.67041,4527.633301,4555.118164,4402.662598,4574.358887,4411.814453,4519.083008,4527.998047,4578.106445,4410.305664,4399.733887,4518.560059,4548.195313,4544.743652,4518.254395,4394.230957,4400.493164,4578.806641,4530.453613,4496.90332,4390.719727,4570.769043,4394.743652,4569.27002,4514.477539,4402.356934,4523.500977,4499.368652,0,1,25,0,0,,,,0,4,4,4,4,4,4,4,4,4,4,4,4,4,4,4,4,4,4,4,4,4,4,4,4,4,4,4,4,4,4,4,4,100,,,,,,,,,,,,,,,,,,,,,,,,,,,,,,,,,,,,,,,,,,,,,,,,,,,,,,,,,,,,,,,,,,,,,,,,,,,,,,,,,,,,,,,,,,,,,,,,,,,,,,,,,,,,,,,,,,,,,,,,,,,,,,,,,,,,,,,,,,,,,,,,,,,,,,,,,,,,,,,,,,,,,,,,,,,,,,,,,,,,,,,,,,,,,,,,,,,,,,,,,,,,,,
1764665218.043234,1764665218.040996,40661,1,4401.528809,4411.962402,4512.366699,4543.145996,4415.650879,4532.672363,4559.654785,4407.42627,4579.230957,4415.818359,4520.848145,4532.751465,4581.419922,4411.341309,4401.064941,4520.887695,4552.475586,4548.205078,4520.700195,4397.94873,4404.053223,4582.850098,4534.083008,4501.36084,4395.325684,4575.769043,4400.256348,4574.970215,4518.500977,4408.392578,4529.32959,4505.216797,0,1,25,0,0,,,,0,4,4,4,4,4,4,4,4,4,4,4,4,4,4,4,4,4,4,4,4,4,4,4,4,4,4,4,4,4,4,4,4,100,,,,,,,,,,,,,,,,,,,,,,,,,,,,,,,,,,,,,,,,,,,,,,,,,,,,,,,,,,,,,,,,,,,,,,,,,,,,,,,,,,,,,,,,,,,,,,,,,,,,,,,,,,,,,,,,,,,,,,,,,,,,,,,,,,,,,,,,,,,,,,,,,,,,,,,,,,,,,,,,,,,,,,,,,,,,,,,,,,,,,,,,,,,,,,,,,,,,,,,,,,,,,,
1764665218.047142,1764665218.044903,40662,1,4406.035645,4417.90918,4518.017578,4547.879883,4420.631348,4537.711914,4564.191406,4412.189453,4584.102539,4419.822266,4522.613281,4537.504883,4584.733887,4412.376953,4402.396484,4523.214844,4556.755371,4551.666504,4523.145996,4401.666504,4407.613281,4586.893555,4537.711914,4505.818359,4399.931152,4580.769043,4405.769043,4580.67041,4522.524414,4414.428223,4535.157715,4511.064941,0,1,25,0,0,,,,0,4,4,4,4,4,4,4,4,4,4,4,4,4,4,4,4,4,4,4,4,4,4,4,4,4,4,4,4,4,4,4,4,100,,,,,,,,,,,,,,,,,,,,,,,,,,,,,,,,,,,,,,,,,,,,,,,,,,,,,,,,,,,,,,,,,,,,,,,,,,,,,,,,,,,,,,,,,,,,,,,,,,,,,,,,,,,,,,,,,,,,,,,,,,,,,,,,,,,,,,,,,,,,,,,,,,,,,,,,,,,,,,,,,,,,,,,,,,,,,,,,,,,,,,,,,,,,,,,,,,,,,,,,,,,,,,
1764665218.051050,1764665218.048810,40663,1,4410.54248,4423.855957,4523.668457,4552.613281,4425.611328,4542.751465,4568.728027,4416.952637,4588.974121,4423.82666,4524.378906,4542.258301,4588.047363,4413.412109,4403.728027,4525.54248,4561.035645,4555.128418,4525.591797,4405.384766,4411.17334,4590.937012,4541.341309,4510.276367,4404.536621,4585.769043,4411.282227,4586.370605,4526.54834,4420.463379,4540.986328,4516.913086,0,1,25,0,0,,,,0,4,4,4,4,4,4,4,4,4,4,4,4,4,4,4,4,4,4,4,4,4,4,4,4,4,4,4,4,4,4,4,4,100,,,,,,,,,,,,,,,,,,,,,,,,,,,,,,,,,,,26548,1,0.260881,-0.602051,-0.729706,0.192368,0.987303,0.207423,0.034062,22.541666,29.541666,43.416668,,,,,,,,,,,,,,,,,,,,,,,,,,,,,,,,,,,,,,,,,,,,,,,,,,,,,,,,,,,,,,,,,,,,,,,,,,,,,,,,,,,,,,,,,,,,,,,,,,,,,,,,,,,,,,,,,,,,,,,,,,,,,,,,,,,,,,,,,,,,,,,,,,,,,,,,,,,,,,,,
1764665218.054958,1764665218.052717,40664,1,4415.049316,4429.802734,4529.319336,4557.347168,4430.591797,4547.791016,4573.26416,4421.71582,4593.846191,4427.830566,4526.144043,4547.011719,4591.36084,4414.447754,4405.059082,4527.869629,4565.31543,4558.589844,4528.037598,4409.102539,4414.733887,4594.980469,4544.970215,4514.733887,4409.14209,4590.769043,4416.794922,4592.070801,4530.571777,4426.499023,4546.814453,4522.76123,0,1,25,0,0,,,,0,4,4,4,4,4,4,4,4,4,4,4,4,4,4,4,4,4,4,4,4,4,4,4,4,4,4,4,4,4,4,4,4,100,,,,,,,,,,,,,,,,,,,,,,,,,,,,,,,,,,,,,,,,,,,,,,,,,,,,,,,,,,,,,,,,,,,,,,,,,,,,,,,,,,,,,,,,,,,,,,,,,,,,,,,,,,,,,,,,,,,,,,,,,,,,,,,,,,,,,,,,,,,,,,,,,,,,,,,,,,,,,,,,,,,,,,,,,,,,,,,,,,,,,,,,,,,,,,,,,,,,,,,,,,,,,,
1764665218.058867,1764665218.056624,40665,1,4419.556152,4435.749512,4534.970215,4562.081055,4435.571777,4552.830566,4577.800781,4426.479492,4598.717773,4431.834473,4527.90918,4551.765137,4594.674316,4415.483398,4406.390625,4530.197266,4569.595703,4562.05127,4530.483398,4412.820313,4418.293945,4599.023438,4548.599609,4519.191406,4413.747559,4595.769043,4422.307617,4597.770996,4534.595703,4432.534668,4552.643066,4528.609375,0,1,25,0,0,,,,0,4,4,4,4,4,4,4,4,4,4,4,4,4,4,4,4,4,4,4,4,4,4,4,4,4,4,4,4,4,4,4,4,100,,,,,,,,,,,,,,,,,,,,,,,,,,,,,,,,,,,26549,1,0.260903,-0.60199,-0.729736,0.192413,0.985716,0.207301,0.03394,22.75,29.25,43.5,,,,,,,,,,,,,,,,,,,,,,,,,,,,,,,,,,,,,,,,,,,,,,,,,,,,,,,,,,,,,,,,,,,,,,,,,,,,,,,,,,,,,,,,,,,,,,,,,,,,,,,,,,,,,,,,,,,,,,,,,,,,,,,,,,,,,,,,,,,,,,,,,,,,,,,,,,,,,,,,
1764665218.062775,1764665218.060531,40666,1,4424.062988,4441.696289,4540.621094,4566.814453,4440.552246,4557.869629,4582.337402,4431.242676,4603.589844,4435.838379,4529.674316,4556.518555,4597.988281,4416.518555,4407.72168,4532.524414,4573.875977,4565.512695,4532.929199,4416.538574,4421.854004,4603.066895,4552.229004,4523.648926,4418.353027,4600.769043,4427.820313,4603.471191,4538.619141,4438.569824,4558.471191,4534.45752,0,1,25,0,0,,,,0,4,4,4,4,4,4,4,4,4,4,4,4,4,4,4,4,4,4,4,4,4,4,4,4,4,4,4,4,4,4,4,4,100,,,,,,,,,,,,,,,,,,,,,,,,,,,,,,,,,,,,,,,,,,,,,,,2.072934,1.852411,0.671845,0.594794,0.664818,1.583137,2.231109,1.301473,0.745754,0.730951,1.537249,2.449753,0.858188,0.825387,0.862612,2.206159,1.712014,0.96404,0.757952,0.943141,2.267616,1.649627,0.971301,0.720185,0.746825,1.906982,1.513771,0.754928,0.530011,0.618312,3.211045,1.851868,0.763769,0.59883,0.77208,1.358024,1.574624,0.793708,0.755499,0.937451,1.382571,0.85236,0.687514,0.58246,0.660699,1.399761,1.462118,0.28805,1.006383,1.712276,1.117912,1.51444,0.384981,0.399599,0.583153,3.210034,2.384132,0.476563,0.650456,0.636356,2.589118,4.487418,0.508356,0.373192,0.602688,1.057262,1.610223,0.757465,0.290065,0.426719,0.833952,1.40495,0.478155,0.471404,0.777116,1.259364,6.760367,0.411066,0.268784,0.409463,3.150119,3.993887,1.03419,0.597778,0.767089,2.66755,6.422201,0.62404,0.560369,0.70806,1.46717,2.882334,0.439381,0.291453,0.428776,1.632118,1.091117,0.559058,0.384486,0.555526,2.459587,2.071677,0.528891,0.421389,0.603802,2.491249,3.439019,0.863562,0.584607,0.657743,2.637644,2.06079,0.570286,0.556766,0.675956,2.173457,1.481778,0.611762,0.684692,0.642747,2.541252,2.372072,1.562162,2.473744,1.397838,1.644789,0.83633,0.807734,0.710909,0.718227,2.263413,1.590964,0.902309,0.789712,0.796806,2.489307,1.626842,1.013626,0.576575,0.714959,0.75649,1.055017,0.368343,0.283552,0.408615,1.16606,2.273429,1.237594,0.793066,0.708444,2.003102,2.081924,1.088191,0.907787,0.707811,1.295526,2.142006,0.827819,0.986952,0.754691
1764665218.066683,1764665218.064438,40667,1,4428.569824,4447.643066,4546.271973,4571.54834,4445.532715,4562.90918,4586.873535,4436.005859,4608.461426,4439.842285,4531.439941,4561.271973,4601.301758,4417.554199,4409.053223,4534.852051,4578.155762,4568.974121,4535.374512,4420.256348,4425.414063,4607.110352,4555.85791,4528.106445,4422.958496,4605.769043,4433.333496,4609.171387,4542.643066,4444.605469,4564.299805,4540.305664,0,1,25,0,0,,,,0,4,4,4,4,4,4,4,4,4,4,4,4,4,4,4,4,4,4,4,4,4,4,4,4,4,4,4,4,4,4,4,4,100,,,,,,,,,,,,,,,,,,,,,,,,,,,,,,,,,,,26550,1,0.260925,-0.601929,-0.729767,0.192459,0.984129,0.207179,0.033818,22.958334,28.958334,43.583332,,,,,,,,,,,,,,,,,,,,,,,,,,,,,,,,,,,,,,,,,,,,,,,,,,,,,,,,,,,,,,,,,,,,,,,,,,,,,,,,,,,,,,,,,,,,,,,,,,,,,,,,,,,,,,,,,,,,,,,,,,,,,,,,,,,,,,,,,,,,,,,,,,,,,,,,,,,,,,,,
1764665218.070591,1764665218.068345,40668,0,4433.077148,4453.589844,4551.922852,4576.282227,4450.512695,4567.94873,4591.410156,4440.769043,4613.333496,4443.846191,4533.205078,4566.025879,4604.615234,4418.589844,4410.384766,4537.179688,4582.436035,4572.436035,4537.820313,4423.974121,4428.974121,4611.153809,4559.487305,4532.563965,4427.563965,4610.769043,4438.846191,4614.871582,4546.666504,4450.641113,4570.128418,4546.153809,2667,1,25,2567,29071,,,,0,4,4,4,4,4,4,4,4,4,4,4,4,4,4,4,4,4,4,4,4,4,4,4,4,4,4,4,4,4,4,4,4,100,,,,,,,,,,,,,,,,,,,,,,,,,,,,,,,,,,,,,,,,,,,,,,,,,,,,,,,,,,,,,,,,,,,,,,,,,,,,,,,,,,,,,,,,,,,,,,,,,,,,,,,,,,,,,,,,,,,,,,,,,,,,,,,,,,,,,,,,,,,,,,,,,,,,,,,,,,,,,,,,,,,,,,,,,,,,,,,,,,,,,,,,,,,,,,,,,,,,,,,,,,,,,,
1764665218.074499,1764665218.072252,40669,0,4433.717773,4457.692383,4558.333496,4579.871582,4453.717773,4567.05127,4593.333496,4442.436035,4616.666504,4444.102539,4529.230957,4567.436035,4603.333496,4413.846191,4406.153809,4534.743652,4584.487305,4571.794922,4537.179688,4423.205078,4428.205078,4611.538574,4556.666504,4535.641113,4438.461426,4615.897461,4444.871582,4620.256348,4547.179688,4451.153809,4573.974121,4550,2483,1,25,2567,29071,,,,0,4,4,4,4,4,4,4,4,4,4,4,4,4,4,4,4,4,4,4,4,4,4,4,4,4,4,4,4,4,4,4,4,100,,,,,,,,,,,,,,,,,,,,,,,,,,,,,,,,,,,26551,0,0.260946,-0.601868,-0.729797,0.192505,0.982542,0.207057,0.033696,23.166666,28.666666,43.666668,,,,,,,,,,,,,,,,,,,,,,,,,,,,,,,,,,,,,,,,,,,,,,,,,,,,,,,,,,,,,,,,,,,,,,,,,,,,,,,,,,,,,,,,,,,,,,,,,,,,,,,,,,,,,,,,,,,,,,,,,,,,,,,,,,,,,,,,,,,,,,,,,,,,,,,,,,,,,,,,
1764665218.078407,1764665218.076159,40670,0,4420.641113,4445.641113,4545.769043,4566.025879,4438.333496,4550.512695,4576.666504,4425.128418,4601.153809,4424.615234,4513.333496,4555.128418,4588.717773,4400.256348,4390.256348,4522.179688,4570.256348,4558.717773,4527.563965,4409.871582,4415.641113,4597.307617,4542.436035,4525.512695,4442.563965,4606.538574,4434.487305,4606.922852,4537.179688,4438.077148,4562.94873,4538.205078,2634,1,25,2567,29079,,,,0,4,4,4,4,4,4,4,4,4,4,4,4,4,4,4,4,4,4,4,4,4,4,4,4,4,4,4,4,4,4,4,4,100,,,,,,,,,,,,,,,,,,,,,,,,,,,,,,,,,,,,,,,,,,,,,,,,,,,,,,,,,,,,,,,,,,,,,,,,,,,,,,,,,,,,,,,,,,,,,,,,,,,,,,,,,,,,,,,,,,,,,,,,,,,,,,,,,,,,,,,,,,,,,,,,,,,,,,,,,,,,,,,,,,,,,,,,,,,,,,,,,,,,,,,,,,,,,,,,,,,,,,,,,,,,,,
1764665218.082315,1764665218.080066,40671,0,4403.333496,4425.256348,4523.333496,4543.846191,4415.256348,4528.974121,4551.794922,4400.512695,4576.794922,4394.871582,4495.128418,4537.307617,4570.128418,4386.025879,4373.461426,4507.436035,4549.871582,4541.538574,4515.512695,4393.589844,4400.512695,4578.717773,4527.05127,4510,4439.615234,4590.897461,4414.871582,4585.512695,4523.333496,4419.102539,4544.743652,4518.589844,2806,1,25,2567,29079,,,,0,4,4,4,4,4,4,4,4,4,4,4,4,4,4,4,4,4,4,4,4,4,4,4,4,4,4,4,4,4,4,4,4,100,,,,,,,,,,,,,,,,,,,,,,,,,,,,,,,,,,,,,,,,,,,,,,,,,,,,,,,,,,,,,,,,,,,,,,,,,,,,,,,,,,,,,,,,,,,,,,,,,,,,,,,,,,,,,,,,,,,,,,,,,,,,,,,,,,,,,,,,,,,,,,,,,,,,,,,,,,,,,,,,,,,,,,,,,,,,,,,,,,,,,,,,,,,,,,,,,,,,,,,,,,,,,,
1764665218.086223,1764665218.083973,40672,0,4391.666504,4407.820313,4503.077148,4525.256348,4398.333496,4513.717773,4532.94873,4382.563965,4558.333496,4367.692383,4484.358887,4525,4558.077148,4378.717773,4365.512695,4498.846191,4535.641113,4529.743652,4507.94873,4384.743652,4392.563965,4567.307617,4519.358887,4498.974121,4431.282227,4578.333496,4396.666504,4569.102539,4513.205078,4403.717773,4529.487305,4502.05127,2726,1,25,2568,29087,,,,0,4,4,4,4,4,4,4,4,4,4,4,4,4,4,4,4,4,4,4,4,4,4,4,4,4,4,4,4,4,4,4,4,100,,,,,,,,,,,,,,,,,,,,,,,,,,,,,,,,,,,,,,,,,,,,,,,,,,,,,,,,,,,,,,,,,,,,,,,,,,,,,,,,,,,,,,,,,,,,,,,,,,,,,,,,,,,,,,,,,,,,,,,,,,,,,,,,,,,,,,,,,,,,,,,,,,,,,,,,,,,,,,,,,,,,,,,,,,,,,,,,,,,,,,,,,,,,,,,,,,,,,,,,,,,,,,
1764665218.090131,1764665218.087880,40673,0,4390.384766,4401.410156,4494.230957,4518.077148,4395.128418,4510.769043,4529.615234,4378.974121,4555.897461,4354.102539,4485.384766,4524.358887,4558.077148,4380.897461,4370.512695,4500.128418,4534.487305,4529.487305,4508.461426,4387.820313,4396.153809,4568.589844,4521.538574,4498.077148,4420,4574.102539,4388.461426,4566.025879,4511.025879,4397.820313,4523.846191,4495.641113,2883,1,25,2568,29087,,,,0,4,4,4,4,4,4,4,4,4,4,4,4,4,4,4,4,4,4,4,4,4,4,4,4,4,4,4,4,4,4,4,4,100,,,,,,,,,,,,,,,,,,,,,,,,,,,,,,,,,,,26552,0,0.261027,-0.601868,-0.729736,0.192627,0.9801,0.201196,0.034672,24.666666,30,44.333332,,,,,,,,,,,,,,,,,,,,,,,,,,,,,,,,,,,,,,,,,,,,,,,,,,,,,,,,,,,,,,,,,,,,,,,,,,,,,,,,,,,,,,,,,,,,,,,,,,,,,,,,,,,,,,,,,,,,,,,,,,,,,,,,,,,,,,,,,,,,,,,,,,,,,,,,,,,,,,,,
1764665218.094040,1764665218.091787,40674,0,4397.05127,4406.410156,4498.333496,4522.692383,4403.846191,4518.205078,4540.256348,4388.077148,4568.846191,4359.358887,4495.128418,4533.717773,4567.692383,4389.615234,4384.487305,4509.487305,4544.615234,4539.615234,4515.641113,4399.487305,4407.436035,4579.743652,4529.487305,4505.512695,4409.487305,4577.436035,4392.05127,4574.871582,4515.769043,4401.153809,4528.077148,4499.358887,2568,1,25,2569,29094,,,,0,4,4,4,4,4,4,4,4,4,4,4,4,4,4,4,4,4,4,4,4,4,4,4,4,4,4,4,4,4,4,4,4,100,,,,,,,,,,,,,,,,,,,,,,,,,,,,,,,,,,,,,,,,,,,,,,,,,,,,,,,,,,,,,,,,,,,,,,,,,,,,,,,,,,,,,,,,,,,,,,,,,,,,,,,,,,,,,,,,,,,,,,,,,,,,,,,,,,,,,,,,,,,,,,,,,,,,,,,,,,,,,,,,,,,,,,,,,,,,,,,,,,,,,,,,,,,,,,,,,,,,,,,,,,,,,,
1764665218.097947,1764665218.095694,40675,0,4404.743652,4415.769043,4510.512695,4533.205078,4415.512695,4528.205078,4554.358887,4400.897461,4586.922852,4379.358887,4506.025879,4544.358887,4578.846191,4398.333496,4398.846191,4520.384766,4557.05127,4553.333496,4524.487305,4411.666504,4418.077148,4591.538574,4536.153809,4513.974121,4402.563965,4582.820313,4401.538574,4587.05127,4522.307617,4408.461426,4536.025879,4507.179688,2822,1,25,2569,29094,,,,0,4,4,4,4,4,4,4,4,4,4,4,4,4,4,4,4,4,4,4,4,4,4,4,4,4,4,4,4,4,4,4,4,100,,,,,,,,,,,,,,,,,,,,,,,,,,,,,,,,,,,,,,,,,,,,,,,,,,,,,,,,,,,,,,,,,,,,,,,,,,,,,,,,,,,,,,,,,,,,,,,,,,,,,,,,,,,,,,,,,,,,,,,,,,,,,,,,,,,,,,,,,,,,,,,,,,,,,,,,,,,,,,,,,,,,,,,,,,,,,,,,,,,,,,,,,,,,,,,,,,,,,,,,,,,,,,
1764665218.101856,1764665218.099601,40676,0,4406.922852,4420.897461,4521.666504,4541.025879,4421.153809,4532.563965,4560.256348,4407.692383,4597.436035,4401.922852,4509.871582,4547.436035,4583.205078,4401.025879,4405.256348,4526.410156,4562.692383,4561.794922,4529.871582,4416.666504,4421.153809,4595.641113,4536.922852,4516.410156,4400.256348,4585.256348,4408.846191,4592.563965,4524.871582,4413.077148,4540.641113,4512.307617,2724,1,25,2570,29102,,,,0,4,4,4,4,4,4,4,4,4,4,4,4,4,4,4,4,4,4,4,4,4,4,4,4,4,4,4,4,4,4,4,4,100,,,,,,,,,,,,,,,,,,,,,,,,,,,,,,,,,,,,,,,,,,,,,,,,,,,,,,,,,,,,,,,,,,,,,,,,,,,,,,,,,,,,,,,,,,,,,,,,,,,,,,,,,,,,,,,,,,,,,,,,,,,,,,,,,,,,,,,,,,,,,,,,,,,,,,,,,,,,,,,,,,,,,,,,,,,,,,,,,,,,,,,,,,,,,,,,,,,,,,,,,,,,,,
1764665218.105764,1764665218.103508,40677,0,4402.307617,4417.94873,4525.384766,4541.410156,4417.692383,4527.94873,4554.230957,4404.871582,4594.487305,4415,4505.256348,4541.025879,4578.717773,4396.410156,4401.666504,4525.512695,4558.717773,4561.153809,4530.128418,4412.692383,4416.410156,4591.025879,4532.307617,4512.179688,4402.179688,4582.692383,4409.358887,4588.461426,4521.794922,4412.436035,4538.846191,4511.666504,2750,1,25,2570,29102,,,,0,4,4,4,4,4,4,4,4,4,4,4,4,4,4,4,4,4,4,4,4,4,4,4,4,4,4,4,4,4,4,4,4,100,,,,,,,,,,,,,,,,,,,,,,,,,,,,,,,,,,,26553,0,0.261123,-0.601807,-0.729736,0.192688,0.972775,0.216335,0.031742,24.166666,30.333334,43.833332,,,,,,,,,,,,,,,,,,,,,,,,,,,,,,,,,,,,,,,,,,,,,,,,,,,,,,,,,,,,,,,,,,,,,,,,,,,,,,,,,,,,,,,,,,,,,,,,,,,,,,,,,,,,,,,,,,,,,,,,,,,,,,,,,,,,,,,,,,,,,,,,,,,,,,,,,,,,,,,,
1764665218.109672,1764665218.107415,40678,0,4395.384766,4410.897461,4520.769043,4536.153809,4410.128418,4518.205078,4542.692383,4397.307617,4583.333496,4414.871582,4497.563965,4530.769043,4570.384766,4389.615234,4393.717773,4521.666504,4550.897461,4555,4528.205078,4405.256348,4409.487305,4583.589844,4527.307617,4506.153809,4407.692383,4577.820313,4404.743652,4579.743652,4516.025879,4408.589844,4533.461426,4507.436035,2758,1,25,2571,29110,,,,0,4,4,4,4,4,4,4,4,4,4,4,4,4,4,4,4,4,4,4,4,4,4,4,4,4,4,4,4,4,4,4,4,100,,,,,,,,,,,,,,,,,,,,,,,,,,,,,,,,,,,,,,,,,,,,,,,,,,,,,,,,,,,,,,,,,,,,,,,,,,,,,,,,,,,,,,,,,,,,,,,,,,,,,,,,,,,,,,,,,,,,,,,,,,,,,,,,,,,,,,,,,,,,,,,,,,,,,,,,,,,,,,,,,,,,,,,,,,,,,,,,,,,,,,,,,,,,,,,,,,,,,,,,,,,,,,
1764665218.113580,1764665218.111322,40679,0,4392.692383,4407.05127,4512.692383,4531.410156,4405.897461,4511.025879,4536.153809,4393.205078,4574.615234,4407.563965,4494.102539,4525.128418,4565.897461,4388.077148,4389.358887,4520.256348,4547.179688,4551.025879,4528.333496,4401.282227,4407.05127,4581.538574,4527.179688,4504.102539,4416.153809,4574.230957,4400.384766,4574.487305,4512.692383,4405.769043,4529.358887,4503.974121,2948,1,25,2571,29110,,,,0,4,4,4,4,4,4,4,4,4,4,4,4,4,4,4,4,4,4,4,4,4,4,4,4,4,4,4,4,4,4,4,4,100,,,,,,,,,,,,,,,,,,,,,,,,,,,,,,,,,,,,,,,,,,,,,,,,,,,,,,,,,,,,,,,,,,,,,,,,,,,,,,,,,,,,,,,,,,,,,,,,,,,,,,,,,,,,,,,,,,,,,,,,,,,,,,,,,,,,,,,,,,,,,,,,,,,,,,,,,,,,,,,,,,,,,,,,,,,,,,,,,,,,,,,,,,,,,,,,,,,,,,,,,,,,,,
1764665218.117488,1764665218.115229,40680,0,4396.410156,4409.871582,4507.05127,4532.179688,4408.846191,4511.025879,4540,4396.922852,4575.256348,4402.692383,4497.563965,4527.692383,4568.717773,4395.256348,4391.794922,4523.974121,4550.769043,4553.461426,4531.794922,4403.717773,4410.641113,4586.922852,4532.436035,4507.692383,4425,4573.461426,4399.230957,4576.282227,4514.102539,4406.153809,4528.461426,4504.102539,2830,1,25,2572,29118,,,,0,4,4,4,4,4,4,4,4,4,4,4,4,4,4,4,4,4,4,4,4,4,4,4,4,4,4,4,4,4,4,4,4,100,,,,,,,,,,,,,,,,,,,,,,,,,,,,,,,,,,,,,,,,,,,,,,,,,,,,,,,,,,,,,,,,,,,,,,,,,,,,,,,,,,,,,,,,,,,,,,,,,,,,,,,,,,,,,,,,,,,,,,,,,,,,,,,,,,,,,,,,,,,,,,,,,,,,,,,,,,,,,,,,,,,,,,,,,,,,,,,,,,,,,,,,,,,,,,,,,,,,,,,,,,,,,,
1764665218.121396,1764665218.119136,40681,0,4402.307617,4415.897461,4506.666504,4537.436035,4415.512695,4516.025879,4550.128418,4404.871582,4583.461426,4404.102539,4503.589844,4533.974121,4575.256348,4406.794922,4397.563965,4529.102539,4557.307617,4560.128418,4535,4408.461426,4415,4593.846191,4537.94873,4512.563965,4428.333496,4573.589844,4399.871582,4580.769043,4518.077148,4407.563965,4528.717773,4506.922852,2683,1,25,2572,29118,,,,0,4,4,4,4,4,4,4,4,4,4,4,4,4,4,4,4,4,4,4,4,4,4,4,4,4,4,4,4,4,4,4,4,100,,,,,,,,,,,,,,,,,,,,,,,,,,,,,,,,,,,26554,0,0.260952,-0.601807,-0.729797,0.192688,0.972775,0.216335,0.031742,24,28.666666,45,,,,,,,,,,,,,,,,,,,,,,,,,,,,,,,,,,,,,,,,,,,,,,,,,,,,,,,,,,,,,,,,,,,,,,,,,,,,,,,,,,,,,,,,,,,,,,,,,,,,,,,,,,,,,,,,,,,,,,,,,,,,,,,,,,,,,,,,,,,,,,,,,,,,,,,,,,,,,,,,
1764665218.125304,1764665218.123043,40682,0,4403.205078,4417.563965,4509.102539,4541.666504,4418.461426,4519.230957,4556.794922,4408.974121,4590.512695,4407.563965,4505,4536.025879,4577.820313,4414.102539,4399.743652,4529.871582,4558.717773,4563.205078,4532.94873,4408.333496,4412.563965,4593.461426,4537.05127,4512.179688,4420.769043,4571.666504,4398.077148,4580.512695,4519.871582,4406.282227,4527.179688,4508.846191,2252,1,25,2573,29126,,,,0,4,4,4,4,4,4,4,4,4,4,4,4,4,4,4,4,4,4,4,4,4,4,4,4,4,4,4,4,4,4,4,4,100,,,,,,,,,,,,,,,,,,,,,,,,,,,,,,,,,,,,,,,,,,,,,,,,,,,,,,,,,,,,,,,,,,,,,,,,,,,,,,,,,,,,,,,,,,,,,,,,,,,,,,,,,,,,,,,,,,,,,,,,,,,,,,,,,,,,,,,,,,,,,,,,,,,,,,,,,,,,,,,,,,,,,,,,,,,,,,,,,,,,,,,,,,,,,,,,,,,,,,,,,,,,,,
1764665218.129212,1764665218.126950,40683,0,4394.871582,4410.641113,4510,4539.743652,4412.820313,4515.769043,4553.333496,4404.358887,4589.358887,4406.410156,4498.205078,4529.230957,4572.179688,4411.282227,4393.974121,4522.820313,4551.025879,4557.05127,4524.358887,4399.615234,4400.769043,4582.05127,4527.563965,4503.333496,4402.436035,4567.05127,4391.794922,4571.922852,4516.410156,4400.128418,4523.205078,4506.794922,2648,1,25,2573,29126,,,,0,4,4,4,4,4,4,4,4,4,4,4,4,4,4,4,4,4,4,4,4,4,4,4,4,4,4,4,4,4,4,4,4,100,,,,,,,,,,,,,,,,,,,,,,,,,,,,,,,,,,,,,,,,,,,,,,,,,,,,,,,,,,,,,,,,,,,,,,,,,,,,,,,,,,,,,,,,,,,,,,,,,,,,,,,,,,,,,,,,,,,,,,,,,,,,,,,,,,,,,,,,,,,,,,,,,,,,,,,,,,,,,,,,,,,,,,,,,,,,,,,,,,,,,,,,,,,,,,,,,,,,,,,,,,,,,,
1764665218.133120,1764665218.130857,40684,0,4381.794922,4398.589844,4507.563965,4531.922852,4401.922852,4507.307617,4541.922852,4393.717773,4580.384766,4398.717773,4487.307617,4516.922852,4561.153809,4400.512695,4382.563965,4510.897461,4537.692383,4543.589844,4513.077148,4385.769043,4384.743652,4565.128418,4513.717773,4489.871582,4382.05127,4562.436035,4383.717773,4559.102539,4509.487305,4392.05127,4519.358887,4501.922852,2461,1,25,2574,29134,,,,0,4,4,4,4,4,4,4,4,4,4,4,4,4,4,4,4,4,4,4,4,4,4,4,4,4,4,4,4,4,4,4,4,100,,,,,,,,,,,,,,,,,,,,,,,,,,,,,,,,,,,,,,,,,,,,,,,,,,,,,,,,,,,,,,,,,,,,,,,,,,,,,,,,,,,,,,,,,,,,,,,,,,,,,,,,,,,,,,,,,,,,,,,,,,,,,,,,,,,,,,,,,,,,,,,,,,,,,,,,,,,,,,,,,,,,,,,,,,,,,,,,,,,,,,,,,,,,,,,,,,,,,,,,,,,,,,
1764665218.137029,1764665218.134764,40685,0,4373.077148,4390.512695,4504.358887,4524.102539,4393.846191,4501.025879,4531.922852,4386.282227,4571.794922,4389.358887,4480.641113,4507.820313,4552.436035,4390.256348,4372.94873,4501.410156,4527.692383,4531.282227,4505.641113,4375.641113,4374.230957,4553.846191,4504.358887,4480.256348,4371.282227,4561.794922,4379.871582,4551.153809,4504.230957,4388.205078,4519.102539,4498.589844,2205,1,25,2574,29134,,,,0,4,4,4,4,4,4,4,4,4,4,4,4,4,4,4,4,4,4,4,4,4,4,4,4,4,4,4,4,4,4,4,4,100,,,,,,,,,,,,,,,,,,,,,,,,,,,,,,,,,,,26555,0,0.260871,-0.601807,-0.729858,0.192566,0.963497,0.193383,0.031742,22.666666,27.666666,43.5,,,,,,,,,,,,,,,,,,,,,,,,,,,,,,,,,,,,,,,,,,,,,,,,,,,,,,,,,,,,,,,,,,,,,,,,,,,,,,,,,,,,,,,,,,,,,,,,,,,,,,,,,,,,,,,,,,,,,,,,,,,,,,,,,,,,,,,,,,,,,,,,,,,,,,,,,,,,,,,,
1764665218.140937,1764665218.138671,40686,0,4376.410156,4394.102539,4504.615234,4523.077148,4395.512695,4503.717773,4531.922852,4389.230957,4572.05127,4386.538574,4484.230957,4509.230957,4552.563965,4388.846191,4371.922852,4501.025879,4527.563965,4528.205078,4506.153809,4376.025879,4376.538574,4555.641113,4505.256348,4481.153809,4377.307617,4567.307617,4384.871582,4555,4505.769043,4393.589844,4524.743652,4501.153809,2672,1,25,2575,29141,,,,0,4,4,4,4,4,4,4,4,4,4,4,4,4,4,4,4,4,4,4,4,4,4,4,4,4,4,4,4,4,4,4,4,100,,,,,,,,,,,,,,,,,,,,,,,,,,,,,,,,,,,,,,,,,,,,,,,,,,,,,,,,,,,,,,,,,,,,,,,,,,,,,,,,,,,,,,,,,,,,,,,,,,,,,,,,,,,,,,,,,,,,,,,,,,,,,,,,,,,,,,,,,,,,,,,,,,,,,,,,,,,,,,,,,,,,,,,,,,,,,,,,,,,,,,,,,,,,,,,,,,,,,,,,,,,,,,
1764665218.144845,1764665218.142577,40687,0,4390.641113,4409.102539,4510.769043,4531.538574,4406.794922,4516.410156,4543.205078,4402.692383,4583.717773,4393.717773,4496.922852,4520.897461,4562.179688,4398.077148,4380.641113,4510.128418,4537.179688,4536.025879,4512.94873,4386.025879,4390,4568.717773,4515.384766,4491.538574,4397.179688,4577.307617,4397.307617,4569.487305,4514.487305,4406.922852,4534.230957,4510,2461,1,25,2575,29141,,,,0,4,4,4,4,4,4,4,4,4,4,4,4,4,4,4,4,4,4,4,4,4,4,4,4,4,4,4,4,4,4,4,4,100,,,,,,,,,,,,,,,,,,,,,,,,,,,,,,,,,,,,,,,,,,,,,,,,,,,,,,,,,,,,,,,,,,,,,,,,,,,,,,,,,,,,,,,,,,,,,,,,,,,,,,,,,,,,,,,,,,,,,,,,,,,,,,,,,,,,,,,,,,,,,,,,,,,,,,,,,,,,,,,,,,,,,,,,,,,,,,,,,,,,,,,,,,,,,,,,,,,,,,,,,,,,,,
1764665218.148753,1764665218.146484,40688,0,4407.307617,4426.538574,4520.256348,4545.256348,4420.769043,4532.563965,4558.846191,4418.589844,4600.256348,4406.025879,4511.025879,4535.256348,4575,4411.794922,4393.589844,4522.436035,4549.615234,4548.333496,4519.615234,4397.94873,4405.256348,4583.717773,4526.922852,4503.589844,4419.102539,4587.05127,4409.743652,4585.256348,4525.641113,4420.897461,4542.436035,4520.128418,2823,1,25,2576,29149,,,,0,4,4,4,4,4,4,4,4,4,4,4,4,4,4,4,4,4,4,4,4,4,4,4,4,4,4,4,4,4,4,4,4,100,,,,,,,,,,,,,,,,,,,,,,,,,,,,,,,,,,,,,,,,,,,,,,,,,,,,,,,,,,,,,,,,,,,,,,,,,,,,,,,,,,,,,,,,,,,,,,,,,,,,,,,,,,,,,,,,,,,,,,,,,,,,,,,,,,,,,,,,,,,,,,,,,,,,,,,,,,,,,,,,,,,,,,,,,,,,,,,,,,,,,,,,,,,,,,,,,,,,,,,,,,,,,,
1764665218.152661,1764665218.150391,40689,0,4415.512695,4434.871582,4527.05127,4555.512695,4428.717773,4542.179688,4568.717773,4427.05127,4611.153809,4413.461426,4517.692383,4542.820313,4581.666504,4420,4401.666504,4529.871582,4556.538574,4555.897461,4519.871582,4402.563965,4411.538574,4590.384766,4531.153809,4507.820313,4429.743652,4590.897461,4413.589844,4591.538574,4531.922852,4426.666504,4543.205078,4524.615234,2879,1,25,2576,29149,,,,0,4,4,4,4,4,4,4,4,4,4,4,4,4,4,4,4,4,4,4,4,4,4,4,4,4,4,4,4,4,4,4,4,100,,,,,,,,,,,,,,,,,,,,,,,,,,,,,,,,,,,26556,0,0.260841,-0.601746,-0.729919,0.192566,0.963497,0.193383,0.031742,23.5,28.833334,43,,,,,,,,,,,,,,,,,,,,,,,,,,,,,,,,,,,,,,,,,,,,,,,,,,,,,,,,,,,,,,,,,,,,,,,,,,,,,,,,,,,,,,,,,,,,,,,,,,,,,,,,,,,,,,,,,,,,,,,,,,,,,,,,,,,,,,,,,,,,,,,,,,,,,,,,,,,,,,,,
1764665218.156569,1764665218.154298,40690,1,4411.776367,4430.476074,4524.487305,4552.58252,4424.688477,4538.11377,4564.707031,4422.729004,4608.406738,4411.135742,4512.912109,4540.750977,4578.443359,4416.282227,4399.414063,4528.754395,4554.963379,4554.597168,4519.597168,4401.080566,4410.274902,4588.333496,4529.358887,4506.501953,4427.289551,4588.11377,4410.256348,4588.187012,4528.80957,4423.077148,4538.846191,4520.476074,0,1,25,0,0,,,,0,4,4,4,4,4,4,4,4,4,4,4,4,4,4,4,4,4,4,4,4,4,4,4,4,4,4,4,4,4,4,4,4,100,,,,,,,,,,,,,,,,,,,,,,,,,,,,,,,,,,,,,,,,,,,,,,,,,,,,,,,,,,,,,,,,,,,,,,,,,,,,,,,,,,,,,,,,,,,,,,,,,,,,,,,,,,,,,,,,,,,,,,,,,,,,,,,,,,,,,,,,,,,,,,,,,,,,,,,,,,,,,,,,,,,,,,,,,,,,,,,,,,,,,,,,,,,,,,,,,,,,,,,,,,,,,,
1764665218.160477,1764665218.158205,40691,1,4408.040527,4426.080566,4521.922852,4549.651855,4420.65918,4534.047852,4560.695801,4418.406738,4605.65918,4408.80957,4508.131836,4538.681152,4575.219727,4412.563965,4397.161133,4527.637207,4553.388184,4553.296875,4519.322266,4399.597168,4409.01123,4586.282227,4527.563965,4505.183105,4424.834961,4585.32959,4406.922852,4584.834961,4525.695801,4419.487305,4534.487305,4516.336914,0,1,25,0,0,,,,0,4,4,4,4,4,4,4,4,4,4,4,4,4,4,4,4,4,4,4,4,4,4,4,4,4,4,4,4,4,4,4,4,100,,,,,,,,,,,,,,,,,,,,,,,,,,,,,,,,,,,,,,,,,,,,,,,,,,,,,,,,,,,,,,,,,,,,,,,,,,,,,,,,,,,,,,,,,,,,,,,,,,,,,,,,,,,,,,,,,,,,,,,,,,,,,,,,,,,,,,,,,,,,,,,,,,,,,,,,,,,,,,,,,,,,,,,,,,,,,,,,,,,,,,,,,,,,,,,,,,,,,,,,,,,,,,
1764665218.164385,1764665218.162112,40692,1,4404.304199,4421.685059,4519.358887,4546.72168,4416.629883,4529.981445,4556.685059,4414.084473,4602.912109,4406.483398,4503.351563,4536.611816,4571.996094,4408.846191,4394.908203,4526.52002,4551.812988,4551.996094,4519.047852,4398.11377,4407.74707,4584.230957,4525.769043,4503.864258,4422.380859,4582.545898,4403.589844,4581.483398,4522.58252,4415.897461,4530.128418,4512.197754,0,1,25,0,0,,,,0,4,4,4,4,4,4,4,4,4,4,4,4,4,4,4,4,4,4,4,4,4,4,4,4,4,4,4,4,4,4,4,4,100,,,,,,,,,,,,,,,,,,,,,,,,,,,,,,,,,,,,,,,,,,,,,,,,,,,,,,,,,,,,,,,,,,,,,,,,,,,,,,,,,,,,,,,,,,,,,,,,,,,,,,,,,,,,,,,,,,,,,,,,,,,,,,,,,,,,,,,,,,,,,,,,,,,,,,,,,,,,,,,,,,,,,,,,,,,,,,,,,,,,,,,,,,,,,,,,,,,,,,,,,,,,,,
1764665218.168293,1764665218.166019,40693,1,4400.567871,4417.289551,4516.794922,4543.791016,4412.600586,4525.915527,4552.673828,4409.761719,4600.165039,4404.157715,4498.571289,4534.541992,4568.772949,4405.128418,4392.655762,4525.402832,4550.238281,4550.695801,4518.772949,4396.629883,4406.483398,4582.179688,4523.974121,4502.545898,4419.926758,4579.761719,4400.256348,4578.131836,4519.46875,4412.307617,4525.769043,4508.058594,0,1,25,0,0,,,,0,4,4,4,4,4,4,4,4,4,4,4,4,4,4,4,4,4,4,4,4,4,4,4,4,4,4,4,4,4,4,4,4,100,,,,,,,,,,,,,,,,,,,,,,,,,,,,,,,,,,,,,,,,,,,,,,,,,,,,,,,,,,,,,,,,,,,,,,,,,,,,,,,,,,,,,,,,,,,,,,,,,,,,,,,,,,,,,,,,,,,,,,,,,,,,,,,,,,,,,,,,,,,,,,,,,,,,,,,,,,,,,,,,,,,,,,,,,,,,,,,,,,,,,,,,,,,,,,,,,,,,,,,,,,,,,,
1764665218.172202,1764665218.169926,40694,1,4396.831543,4412.893555,4514.230957,4540.86084,4408.571289,4521.849609,4548.663086,4405.439453,4597.41748,4401.831543,4493.791016,4532.472656,4565.549316,4401.410156,4390.402832,4524.285645,4548.663086,4549.395508,4518.498047,4395.146484,4405.219727,4580.128418,4522.179688,4501.227051,4417.472656,4576.978027,4396.922852,4574.780273,4516.355469,4408.717773,4521.410156,4503.919434,0,1,25,0,0,,,,0,4,4,4,4,4,4,4,4,4,4,4,4,4,4,4,4,4,4,4,4,4,4,4,4,4,4,4,4,4,4,4,4,100,,,,,,,,,,,,,,,,,,,,,,,,,,,,,,,,,,,,,,,,,,,,,,,,,,,,,,,,,,,,,,,,,,,,,,,,,,,,,,,,,,,,,,,,,,,,,,,,,,,,,,,,,,,,,,,,,,,,,,,,,,,,,,,,,,,,,,,,,,,,,,,,,,,,,,,,,,,,,,,,,,,,,,,,,,,,,,,,,,,,,,,,,,,,,,,,,,,,,,,,,,,,,,
1764665218.176110,1764665218.173833,40695,1,4393.095215,4408.498047,4511.666504,4537.930176,4404.541992,4517.783691,4544.651855,4401.117188,4594.67041,4399.505371,4489.01123,4530.402832,4562.326172,4397.692383,4388.150391,4523.168457,4547.087891,4548.095215,4518.223633,4393.663086,4403.956055,4578.077148,4520.384766,4499.908203,4415.018555,4574.194336,4393.589844,4571.428711,4513.241699,4405.128418,4517.05127,4499.780273,0,1,25,0,0,,,,0,4,4,4,4,4,4,4,4,4,4,4,4,4,4,4,4,4,4,4,4,4,4,4,4,4,4,4,4,4,4,4,4,100,,,,,,,,,,,,,,,,,,,,,,,,,,,,,,,,,,,26557,1,0.260952,-0.601715,-0.729889,0.192627,0.968868,0.201441,0.036626,23.166666,28.916666,42.916668,,,,,,,,,,,,,,,,,,,,,,,,,,,,,,,,,,,,,,,,,,,,,,,,,,,,,,,,,,,,,,,,,,,,,,,,,,,,,,,,,,,,,,,,,,,,,,,,,,,,,,,,,,,,,,,,,,,,,,,,,,,,,,,,,,,,,,,,,,,,,,,,,,,,,,,,,,,,,,,,
1764665218.180018,1764665218.177740,40696,0,4389.358887,4404.102539,4509.102539,4535,4400.512695,4513.717773,4540.641113,4396.794922,4591.922852,4397.179688,4484.230957,4528.333496,4559.102539,4393.974121,4385.897461,4522.05127,4545.512695,4546.794922,4517.94873,4392.179688,4402.692383,4576.025879,4518.589844,4498.589844,4412.563965,4571.410156,4390.256348,4568.077148,4510.128418,4401.538574,4512.692383,4495.641113,2716,1,25,2576,29180,,,,0,4,4,4,4,4,4,4,4,4,4,4,4,4,4,4,4,4,4,4,4,4,4,4,4,4,4,4,4,4,4,4,4,100,,,,,,,,,,,,,,,,,,,,,,,,,,,,,,,,,,,,,,,,,,,,,,,,,,,,,,,,,,,,,,,,,,,,,,,,,,,,,,,,,,,,,,,,,,,,,,,,,,,,,,,,,,,,,,,,,,,,,,,,,,,,,,,,,,,,,,,,,,,,,,,,,,,,,,,,,,,,,,,,,,,,,,,,,,,,,,,,,,,,,,,,,,,,,,,,,,,,,,,,,,,,,,
1764665218.183926,1764665218.181647,40697,0,4388.846191,4403.589844,4512.179688,4537.436035,4403.333496,4516.666504,4541.282227,4399.743652,4594.358887,4397.307617,4487.05127,4528.077148,4561.410156,4398.077148,4391.794922,4522.307617,4543.974121,4547.179688,4514.615234,4397.05127,4402.692383,4577.692383,4519.487305,4498.589844,4418.077148,4573.846191,4390.256348,4566.666504,4510.769043,4404.230957,4515.256348,4498.461426,2777,1,25,2576,29180,,,,0,4,4,4,4,4,4,4,4,4,4,4,4,4,4,4,4,4,4,4,4,4,4,4,4,4,4,4,4,4,4,4,4,100,,,,,,,,,,,,,,,,,,,,,,,,,,,,,,,,,,,26558,0,0.261063,-0.601685,-0.729858,0.192688,0.97424,0.209498,0.041509,22.833334,29,42.833332,,,,,,,,,,,,,,,,,,,,,,,,,,,,,,,,,,,,,,,,,,,,,,,,,,,,,,,,,,,,,,,,,,,,,,,,,,,,,,,,,,,,,,,,,,,,,,,,,,,,,,,,,,,,,,,,,,,,,,,,,,,,,,,,,,,,,,,,,,,,,,,,,,,,,,,,,,,,,,,,
1764665218.187834,1764665218.185554,40698,0,4384.487305,4398.846191,4509.871582,4533.333496,4401.410156,4515.384766,4539.487305,4397.179688,4590.128418,4391.153809,4488.205078,4523.974121,4561.153809,4399.230957,4393.461426,4519.871582,4539.358887,4542.179688,4510.384766,4396.538574,4396.922852,4576.025879,4515.641113,4494.743652,4415.512695,4571.410156,4386.922852,4561.282227,4509.102539,4401.410156,4513.846191,4496.794922,1915,1,25,2576,29188,,,,0,4,4,4,4,4,4,4,4,4,4,4,4,4,4,4,4,4,4,4,4,4,4,4,4,4,4,4,4,4,4,4,4,100,0.898438,100,4,4,4,4,4,4,4,4,4,4,4,4,4,4,4,4,4,4,4,4,4,4,4,4,4,4,4,4,4,4,4,4,,,,,,,,,,,,,2.474598,1.575616,0.60226,0.594408,0.720906,1.875185,2.50436,1.182484,0.722038,0.816188,1.515522,2.523799,0.782459,0.793688,0.937946,2.528009,1.717,0.910517,0.729392,1.026362,2.152377,1.613372,0.938622,0.699642,0.828554,2.422374,1.144783,0.61207,0.504595,0.644864,3.916141,1.965337,0.719839,0.567225,0.818976,1.632576,1.574887,0.711866,0.757939,0.989709,1.680646,0.865585,0.602412,0.63809,0.690134,1.71964,1.467541,0.325104,1.031366,1.801001,1.316369,1.488619,0.289589,0.371116,0.619814,3.709079,2.213085,0.339671,0.622729,0.672,3.200794,4.568454,0.408654,0.379198,0.654718,1.394064,1.270941,0.535521,0.28766,0.459201,0.935085,1.263576,0.433242,0.49216,0.852697,1.45975,6.272431,0.326313,0.25984,0.422338,3.693368,3.924191,0.870572,0.565937,0.848886,3.14462,5.482893,0.53776,0.561084,0.779855,1.697386,2.178933,0.443101,0.2979,0.469848,2.007307,0.924709,0.488916,0.41689,0.601115,2.927665,1.742372,0.517726,0.432314,0.68991,2.908707,2.90526,0.77564,0.579514,0.693595,2.971234,2.032811,0.499684,0.539194,0.684158,2.57704,1.498372,0.487626,0.663115,0.666646,3.088608,2.25766,1.537818,2.50412,1.499611,1.792275,0.918658,0.773446,0.723221,0.7901,2.569602,1.626605,0.772542,0.760859,0.847106,2.760971,1.785984,0.933352,0.568083,0.755271,0.878523,1.025754,0.347625,0.268809,0.435532,1.263809,2.287887,1.055518,0.705594,0.783082,2.173177,1.947744,0.988909,0.837396,0.810734,1.385872,2.005412,0.748363,0.876457,0.852508
1764665218.191742,1764665218.189461,40699,0,4378.461426,4393.333496,4503.717773,4525.769043,4396.538574,4511.025879,4537.563965,4392.307617,4582.05127,4383.077148,4488.461426,4517.692383,4559.102539,4398.205078,4392.307617,4517.307617,4535.128418,4535.897461,4508.205078,4393.077148,4390,4573.205078,4510.256348,4490.512695,4408.717773,4566.794922,4383.461426,4556.025879,4506.410156,4395.897461,4510.897461,4492.820313,2592,1,25,2576,29188,,,,0,4,4,4,4,4,4,4,4,4,4,4,4,4,4,4,4,4,4,4,4,4,4,4,4,4,4,4,4,4,4,4,4,100,,,,,,,,,,,,,,,,,,,,,,,,,,,,,,,,,,,,,,,,,,,,,,,,,,,,,,,,,,,,,,,,,,,,,,,,,,,,,,,,,,,,,,,,,,,,,,,,,,,,,,,,,,,,,,,,,,,,,,,,,,,,,,,,,,,,,,,,,,,,,,,,,,,,,,,,,,,,,,,,,,,,,,,,,,,,,,,,,,,,,,,,,,,,,,,,,,,,,,,,,,,,,,
1764665218.195650,1764665218.193368,40700,0,4373.589844,4389.358887,4497.820313,4520,4392.05127,4506.282227,4537.563965,4388.846191,4575.512695,4378.461426,4489.102539,4512.307617,4557.436035,4397.692383,4391.794922,4518.589844,4534.230957,4533.461426,4509.743652,4390.384766,4386.282227,4571.282227,4506.794922,4488.717773,4402.05127,4563.589844,4382.563965,4553.974121,4504.358887,4391.410156,4509.871582,4490.512695,2652,1,25,2570,29196,,,,0,4,4,4,4,4,4,4,4,4,4,4,4,4,4,4,4,4,4,4,4,4,4,4,4,4,4,4,4,4,4,4,4,100,,,,,,,,,,,,,,,,,,,,,,,,,,,,,,,,,,,,,,,,,,,,,,,,,,,,,,,,,,,,,,,,,,,,,,,,,,,,,,,,,,,,,,,,,,,,,,,,,,,,,,,,,,,,,,,,,,,,,,,,,,,,,,,,,,,,,,,,,,,,,,,,,,,,,,,,,,,,,,,,,,,,,,,,,,,,,,,,,,,,,,,,,,,,,,,,,,,,,,,,,,,,,,
1764665218.199558,1764665218.197275,40701,0,4371.282227,4387.563965,4495.256348,4519.102539,4390,4503.461426,4539.487305,4388.717773,4574.487305,4380.769043,4491.538574,4509.743652,4557.436035,4399.487305,4394.102539,4524.743652,4536.922852,4537.692383,4514.102539,4391.153809,4387.436035,4571.025879,4506.282227,4490.641113,4397.94873,4564.230957,4385,4555.384766,4503.846191,4390.641113,4512.563965,4491.666504,2471,1,25,2570,29196,,,,0,4,4,4,4,4,4,4,4,4,4,4,4,4,4,4,4,4,4,4,4,4,4,4,4,4,4,4,4,4,4,4,4,100,,,,,,,,,,,,,,,,,,,,,,,,,,,,,,,,,,,26559,0,0.261158,-0.601624,-0.729858,0.192749,0.980588,0.199731,0.026859,24.5,30.166666,42.833332,,,,,,,,,,,,,,,,,,,,,,,,,,,,,,,,,,,,,,,,,,,,,,,,,,,,,,,,,,,,,,,,,,,,,,,,,,,,,,,,,,,,,,,,,,,,,,,,,,,,,,,,,,,,,,,,,,,,,,,,,,,,,,,,,,,,,,,,,,,,,,,,,,,,,,,,,,,,,,,,
1764665218.203466,1764665218.201182,40702,0,4371.025879,4386.666504,4495.897461,4521.794922,4390.128418,4502.94873,4541.025879,4390.384766,4578.333496,4388.717773,4495.384766,4509.358887,4558.846191,4403.974121,4398.846191,4532.820313,4540.384766,4546.538574,4519.102539,4394.615234,4391.410156,4571.794922,4507.179688,4494.358887,4397.05127,4567.692383,4388.333496,4557.563965,4504.358887,4392.436035,4516.666504,4494.487305,2621,1,25,2570,29204,,,,0,4,4,4,4,4,4,4,4,4,4,4,4,4,4,4,4,4,4,4,4,4,4,4,4,4,4,4,4,4,4,4,4,100,,,,,,,,,,,,,,,,,,,,,,,,,,,,,,,,,,,,,,,,,,,,,,,,,,,,,,,,,,,,,,,,,,,,,,,,,,,,,,,,,,,,,,,,,,,,,,,,,,,,,,,,,,,,,,,,,,,,,,,,,,,,,,,,,,,,,,,,,,,,,,,,,,,,,,,,,,,,,,,,,,,,,,,,,,,,,,,,,,,,,,,,,,,,,,,,,,,,,,,,,,,,,,
1764665218.207374,1764665218.205089,40703,0,4371.025879,4384.358887,4496.282227,4523.333496,4389.358887,4502.94873,4538.589844,4390,4581.282227,4396.666504,4497.820313,4508.846191,4559.358887,4408.589844,4402.563965,4537.179688,4540.641113,4553.846191,4521.666504,4396.922852,4393.717773,4571.538574,4506.794922,4496.282227,4398.717773,4570.641113,4388.205078,4556.922852,4503.717773,4393.077148,4517.563965,4494.487305,2795,1,25,2570,29204,,,,0,4,4,4,4,4,4,4,4,4,4,4,4,4,4,4,4,4,4,4,4,4,4,4,4,4,4,4,4,4,4,4,4,100,,,,,,,,,,,,,,,,,,,,,,,,,,,,,,,,,,,,,,,,,,,,,,,,,,,,,,,,,,,,,,,,,,,,,,,,,,,,,,,,,,,,,,,,,,,,,,,,,,,,,,,,,,,,,,,,,,,,,,,,,,,,,,,,,,,,,,,,,,,,,,,,,,,,,,,,,,,,,,,,,,,,,,,,,,,,,,,,,,,,,,,,,,,,,,,,,,,,,,,,,,,,,,
1764665218.211282,1764665218.208996,40704,0,4369.230957,4380,4492.307617,4519.358887,4385.128418,4500.641113,4530.641113,4384.871582,4577.563965,4397.563965,4495.641113,4505.769043,4556.282227,4409.487305,4402.05127,4533.717773,4535.256348,4554.230957,4519.487305,4394.358887,4391.153809,4567.94873,4503.461426,4492.692383,4400.512695,4569.743652,4381.794922,4551.538574,4500.512695,4389.230957,4512.05127,4489.102539,2724,1,25,2570,29212,,,,0,4,4,4,4,4,4,4,4,4,4,4,4,4,4,4,4,4,4,4,4,4,4,4,4,4,4,4,4,4,4,4,4,100,,,,,,,,,,,,,,,,,,,,,,,,,,,,,,,,,,,,,,,,,,,,,,,,,,,,,,,,,,,,,,,,,,,,,,,,,,,,,,,,,,,,,,,,,,,,,,,,,,,,,,,,,,,,,,,,,,,,,,,,,,,,,,,,,,,,,,,,,,,,,,,,,,,,,,,,,,,,,,,,,,,,,,,,,,,,,,,,,,,,,,,,,,,,,,,,,,,,,,,,,,,,,,
1764665218.215191,1764665218.212903,40705,0,4365.256348,4374.487305,4484.487305,4510.128418,4377.563965,4495.641113,4520.256348,4376.538574,4566.538574,4388.717773,4488.589844,4499.358887,4549.871582,4405.256348,4396.538574,4523.205078,4525.897461,4546.666504,4512.820313,4386.538574,4384.102539,4561.025879,4497.820313,4483.717773,4398.846191,4565.128418,4371.025879,4543.461426,4494.871582,4381.410156,4502.179688,4480.641113,2884,1,25,2570,29212,,,,0,4,4,4,4,4,4,4,4,4,4,4,4,4,4,4,4,4,4,4,4,4,4,4,4,4,4,4,4,4,4,4,4,100,,,,,,,,,,,,,,,,,,,,,,,,,,,,,,,,,,,26560,0,0.261113,-0.601624,-0.729858,0.19281,0.977658,0.201685,0.046392,24.166666,30,44.666668,,,,,,,,,,,,,,,,,,,,,,,,,,,,,,,,,,,,,,,,,,,,,,,,,,,,,,,,,,,,,,,,,,,,,,,,,,,,,,,,,,,,,,,,,,,,,,,,,,,,,,,,,,,,,,,,,,,,,,,,,,,,,,,,,,,,,,,,,,,,,,,,,,,,,,,,,,,,,,,,
1764665218.219099,1764665218.216810,40706,0,4361.025879,4370.769043,4477.436035,4501.410156,4370.512695,4490.512695,4513.717773,4370.641113,4554.487305,4374.230957,4480.256348,4492.307617,4543.717773,4397.94873,4388.717773,4511.794922,4518.205078,4535.512695,4505.128418,4377.179688,4376.153809,4553.589844,4492.563965,4473.589844,4391.410156,4559.743652,4361.922852,4537.307617,4489.615234,4374.615234,4494.871582,4475,2566,1,25,2315,29219,,,,0,4,4,4,4,4,4,4,4,4,4,4,4,4,4,4,4,4,4,4,4,4,4,4,4,4,4,4,4,4,4,4,4,100,,,,,,,,,,,,,,,,,,,,,,,,,,,,,,,,,,,,,,,,,,,,,,,,,,,,,,,,,,,,,,,,,,,,,,,,,,,,,,,,,,,,,,,,,,,,,,,,,,,,,,,,,,,,,,,,,,,,,,,,,,,,,,,,,,,,,,,,,,,,,,,,,,,,,,,,,,,,,,,,,,,,,,,,,,,,,,,,,,,,,,,,,,,,,,,,,,,,,,,,,,,,,,
1764665218.223007,1764665218.220717,40707,0,4359.615234,4371.666504,4476.922852,4499.871582,4368.589844,4488.461426,4515.512695,4371.922852,4549.743652,4362.94873,4475.128418,4488.846191,4541.025879,4391.538574,4383.333496,4505.769043,4516.922852,4527.05127,4500.384766,4371.410156,4372.179688,4549.871582,4490.256348,4468.077148,4379.743652,4557.563965,4360.256348,4536.666504,4487.692383,4373.974121,4495.769043,4476.410156,2820,1,25,2315,29219,,,,0,4,4,4,4,4,4,4,4,4,4,4,4,4,4,4,4,4,4,4,4,4,4,4,4,4,4,4,4,4,4,4,4,100,,,,,,,,,,,,,,,,,,,,,,,,,,,,,,,,,,,,,,,,,,,,,,,,,,,,,,,,,,,,,,,,,,,,,,,,,,,,,,,,,,,,,,,,,,,,,,,,,,,,,,,,,,,,,,,,,,,,,,,,,,,,,,,,,,,,,,,,,,,,,,,,,,,,,,,,,,,,,,,,,,,,,,,,,,,,,,,,,,,,,,,,,,,,,,,,,,,,,,,,,,,,,,
1764665218.226915,1764665218.224624,40708,0,4362.692383,4377.563965,4484.743652,4507.179688,4373.461426,4491.282227,4523.589844,4380.641113,4556.153809,4361.410156,4475.641113,4491.666504,4543.589844,4389.487305,4383.589844,4508.205078,4522.436035,4525.641113,4500.384766,4372.179688,4375,4552.179688,4491.922852,4469.871582,4369.358887,4560.512695,4368.077148,4542.563965,4490.256348,4381.153809,4505,4484.487305,2721,1,25,2571,29227,,,,0,4,4,4,4,4,4,4,4,4,4,4,4,4,4,4,4,4,4,4,4,4,4,4,4,4,4,4,4,4,4,4,4,100,,,,,,,,,,,,,,,,,,,,,,,,,,,,,,,,,,,,,,,,,,,,,,,,,,,,,,,,,,,,,,,,,,,,,,,,,,,,,,,,,,,,,,,,,,,,,,,,,,,,,,,,,,,,,,,,,,,,,,,,,,,,,,,,,,,,,,,,,,,,,,,,,,,,,,,,,,,,,,,,,,,,,,,,,,,,,,,,,,,,,,,,,,,,,,,,,,,,,,,,,,,,,,
1764665218.230823,1764665218.228531,40709,0,4369.743652,4386.538574,4497.692383,4519.230957,4382.436035,4497.692383,4532.307617,4391.666504,4570.128418,4369.615234,4480.769043,4499.615234,4549.487305,4392.179688,4389.743652,4516.922852,4530.128418,4531.025879,4504.230957,4378.461426,4383.077148,4559.358887,4496.794922,4477.05127,4365.641113,4567.563965,4381.666504,4552.307617,4496.153809,4392.94873,4517.179688,4494.358887,2751,1,25,2571,29227,,,,0,4,4,4,4,4,4,4,4,4,4,4,4,4,4,4,4,4,4,4,4,4,4,4,4,4,4,4,4,4,4,4,4,100,,,,,,,,,,,,,,,,,,,,,,,,,,,,,,,,,,,26561,0,0.261143,-0.601685,-0.729797,0.19281,0.972775,0.208522,0.018557,22.833334,29.333334,42.833332,,,,,,,,,,,,,,,,,,,,,,,,,,,,,,,,,,,,,,,,,,,,,,,,,,,,,,,,,,,,,,,,,,,,,,,,,,,,,,,,,,,,,,,,,,,,,,,,,,,,,,,,,,,,,,,,,,,,,,,,,,,,,,,,,,,,,,,,,,,,,,,,,,,,,,,,,,,,,,,,
1764665218.234731,1764665218.232438,40710,0,4377.307617,4394.871582,4508.589844,4528.333496,4390,4504.743652,4535.897461,4398.846191,4582.692383,4381.538574,4487.307617,4507.692383,4555.256348,4397.179688,4398.717773,4525.769043,4534.615234,4539.230957,4508.461426,4385.512695,4391.794922,4567.307617,4502.307617,4484.230957,4370.769043,4575,4393.333496,4561.025879,4502.94873,4402.563965,4525.512695,4500.384766,2759,1,25,2570,29235,,,,0,4,4,4,4,4,4,4,4,4,4,4,4,4,4,4,4,4,4,4,4,4,4,4,4,4,4,4,4,4,4,4,4,100,,,,,,,,,,,,,,,,,,,,,,,,,,,,,,,,,,,,,,,,,,,,,,,,,,,,,,,,,,,,,,,,,,,,,,,,,,,,,,,,,,,,,,,,,,,,,,,,,,,,,,,,,,,,,,,,,,,,,,,,,,,,,,,,,,,,,,,,,,,,,,,,,,,,,,,,,,,,,,,,,,,,,,,,,,,,,,,,,,,,,,,,,,,,,,,,,,,,,,,,,,,,,,
1764665218.238639,1764665218.236345,40711,0,4381.538574,4399.230957,4512.436035,4529.615234,4392.436035,4509.743652,4533.974121,4398.717773,4586.794922,4389.871582,4491.538574,4511.153809,4557.563965,4400.512695,4404.871582,4529.102539,4533.333496,4544.615234,4510.256348,4388.333496,4396.410156,4571.922852,4505.897461,4486.666504,4381.666504,4578.589844,4396.538574,4564.230957,4507.563965,4405.256348,4526.025879,4500.256348,2949,1,25,2570,29235,,,,0,4,4,4,4,4,4,4,4,4,4,4,4,4,4,4,4,4,4,4,4,4,4,4,4,4,4,4,4,4,4,4,4,100,,,,,,,,,,,,,,,,,,,,,,,,,,,,,,,,,,,,,,,,,,,,,,,,,,,,,,,,,,,,,,,,,,,,,,,,,,,,,,,,,,,,,,,,,,,,,,,,,,,,,,,,,,,,,,,,,,,,,,,,,,,,,,,,,,,,,,,,,,,,,,,,,,,,,,,,,,,,,,,,,,,,,,,,,,,,,,,,,,,,,,,,,,,,,,,,,,,,,,,,,,,,,,
1764665218.242547,1764665218.240252,40712,0,4381.025879,4399.102539,4508.717773,4524.487305,4390.256348,4511.025879,4530.256348,4393.077148,4581.153809,4391.282227,4491.794922,4508.846191,4555.256348,4399.871582,4403.974121,4525.384766,4528.589844,4544.230957,4508.589844,4385.641113,4394.743652,4571.282227,4506.410156,4483.846191,4392.307617,4576.410156,4391.025879,4560.769043,4507.94873,4400.512695,4520.128418,4496.025879,2829,1,25,2571,29243,,,,0,4,4,4,4,4,4,4,4,4,4,4,4,4,4,4,4,4,4,4,4,4,4,4,4,4,4,4,4,4,4,4,4,100,,,,,,,,,,,,,,,,,,,,,,,,,,,,,,,,,,,,,,,,,,,,,,,,,,,,,,,,,,,,,,,,,,,,,,,,,,,,,,,,,,,,,,,,,,,,,,,,,,,,,,,,,,,,,,,,,,,,,,,,,,,,,,,,,,,,,,,,,,,,,,,,,,,,,,,,,,,,,,,,,,,,,,,,,,,,,,,,,,,,,,,,,,,,,,,,,,,,,,,,,,,,,,
1764665218.246455,1764665218.244159,40713,0,4377.692383,4397.179688,4502.307617,4518.461426,4387.307617,4509.871582,4528.461426,4386.794922,4571.410156,4388.717773,4488.461426,4504.358887,4550,4395.897461,4396.282227,4518.589844,4524.358887,4538.333496,4505.256348,4380,4388.846191,4566.794922,4504.487305,4479.102539,4397.563965,4570.641113,4381.922852,4553.974121,4504.871582,4392.820313,4512.820313,4492.436035,2683,1,25,2571,29243,,,,0,4,4,4,4,4,4,4,4,4,4,4,4,4,4,4,4,4,4,4,4,4,4,4,4,4,4,4,4,4,4,4,4,100,,,,,,,,,,,,,,,,,,,,,,,,,,,,,,,,,,,26562,0,0.261083,-0.601746,-0.729736,0.192932,0.973752,0.204126,0.025394,22.666666,28.833334,42.166668,,,,,,,,,,,,,,,,,,,,,,,,,,,,,,,,,,,,,,,,,,,,,,,,,,,,,,,,,,,,,,,,,,,,,,,,,,,,,,,,,,,,,,,,,,,,,,,,,,,,,,,,,,,,,,,,,,,,,,,,,,,,,,,,,,,,,,,,,,,,,,,,,,,,,,,,,,,,,,,,
1764665218.250363,1764665218.248066,40714,0,4375,4396.666504,4499.102539,4516.922852,4388.077148,4508.461426,4530,4383.974121,4565.256348,4387.05127,4484.358887,4502.307617,4545.128418,4391.794922,4385.897461,4514.743652,4523.461426,4530.512695,4502.94873,4375.512695,4383.333496,4561.922852,4501.410156,4476.282227,4396.922852,4565.512695,4376.666504,4549.102539,4501.153809,4387.692383,4509.487305,4492.94873,2251,1,25,2572,29251,,,,0,4,4,4,4,4,4,4,4,4,4,4,4,4,4,4,4,4,4,4,4,4,4,4,4,4,4,4,4,4,4,4,4,100,,,,,,,,,,,,,,,,,,,,,,,,,,,,,,,,,,,,,,,,,,,,,,,,,,,,,,,,,,,,,,,,,,,,,,,,,,,,,,,,,,,,,,,,,,,,,,,,,,,,,,,,,,,,,,,,,,,,,,,,,,,,,,,,,,,,,,,,,,,,,,,,,,,,,,,,,,,,,,,,,,,,,,,,,,,,,,,,,,,,,,,,,,,,,,,,,,,,,,,,,,,,,,
1764665218.254272,1764665218.251973,40715,0,4375.512695,4398.974121,4501.794922,4520.641113,4393.205078,4509.230957,4533.333496,4385.641113,4566.922852,4389.230957,4482.436035,4504.615234,4543.589844,4390.512695,4378.205078,4516.666504,4525.641113,4525.128418,4503.461426,4374.871582,4381.538574,4559.743652,4499.102539,4476.922852,4393.717773,4564.487305,4378.077148,4549.487305,4499.615234,4388.333496,4512.692383,4497.05127,2654,1,25,2572,29251,,,,0,4,4,4,4,4,4,4,4,4,4,4,4,4,4,4,4,4,4,4,4,4,4,4,4,4,4,4,4,4,4,4,4,100,,,,,,,,,,,,,,,,,,,,,,,,,,,,,,,,,,,,,,,,,,,,,,,,,,,,,,,,,,,,,,,,,,,,,,,,,,,,,,,,,,,,,,,,,,,,,,,,,,,,,,,,,,,,,,,,,,,,,,,,,,,,,,,,,,,,,,,,,,,,,,,,,,,,,,,,,,,,,,,,,,,,,,,,,,,,,,,,,,,,,,,,,,,,,,,,,,,,,,,,,,,,,,
1764665218.258180,1764665218.255879,40716,0,4378.461426,4402.436035,4507.94873,4526.153809,4399.358887,4511.922852,4536.025879,4389.615234,4573.846191,4393.717773,4483.717773,4509.230957,4545.512695,4392.692383,4375.897461,4522.563965,4528.846191,4525.256348,4506.153809,4377.307617,4383.846191,4560.641113,4498.077148,4479.871582,4392.179688,4567.94873,4383.974121,4553.717773,4501.025879,4393.589844,4519.358887,4501.025879,2471,1,25,2573,29259,,,,0,4,4,4,4,4,4,4,4,4,4,4,4,4,4,4,4,4,4,4,4,4,4,4,4,4,4,4,4,4,4,4,4,100,,,,,,,,,,,,,,,,,,,,,,,,,,,,,,,,,,,,,,,,,,,,,,,,,,,,,,,,,,,,,,,,,,,,,,,,,,,,,,,,,,,,,,,,,,,,,,,,,,,,,,,,,,,,,,,,,,,,,,,,,,,,,,,,,,,,,,,,,,,,,,,,,,,,,,,,,,,,,,,,,,,,,,,,,,,,,,,,,,,,,,,,,,,,,,,,,,,,,,,,,,,,,,
1764665218.262088,1764665218.259786,40717,0,4380.769043,4403.589844,4512.563965,4528.717773,4401.794922,4514.358887,4536.153809,4392.563965,4579.102539,4396.282227,4486.410156,4512.563965,4548.589844,4395.512695,4377.94873,4527.436035,4530.384766,4529.358887,4508.846191,4379.743652,4387.179688,4563.077148,4498.205078,4482.307617,4392.563965,4572.436035,4389.102539,4557.692383,4503.846191,4398.589844,4524.358887,4501.410156,2216,1,25,2573,29259,,,,0,4,4,4,4,4,4,4,4,4,4,4,4,4,4,4,4,4,4,4,4,4,4,4,4,4,4,4,4,4,4,4,4,100,,,,,,,,,,,,,,,,,,,,,,,,,,,,,,,,,,,26563,0,0.261304,-0.601685,-0.729675,0.193054,0.971798,0.2178,0.023929,23.166666,29,45.833332,,,,,,,,,,,,,,,,,,,,,,,,,,,,,,,,,,,,,,,,,,,,,,,,,,,,,,,,,,,,,,,,,,,,,,,,,,,,,,,,,,,,,,,,,,,,,,,,,,,,,,,,,,,,,,,,,,,,,,,,,,,,,,,,,,,,,,,,,,,,,,,,,,,,,,,,,,,,,,,,
1764665218.265996,1764665218.263693,40718,0,4380.128418,4400.641113,4511.794922,4526.282227,4398.974121,4514.871582,4533.589844,4392.179688,4578.461426,4393.974121,4487.94873,4512.307617,4550,4396.025879,4381.153809,4527.563965,4529.487305,4533.589844,4508.846191,4379.230957,4387.692383,4564.871582,4499.102539,4482.05127,4392.179688,4573.717773,4390.128418,4558.461426,4506.282227,4399.743652,4524.230957,4497.692383,2688,1,25,2574,29266,,,,0,4,4,4,4,4,4,4,4,4,4,4,4,4,4,4,4,4,4,4,4,4,4,4,4,4,4,4,4,4,4,4,4,100,,,,,,,,,,,,,,,,,,,,,,,,,,,,,,,,,,,,,,,,,,,,,,,,,,,,,,,,,,,,,,,,,,,,,,,,,,,,,,,,,,,,,,,,,,,,,,,,,,,,,,,,,,,,,,,,,,,,,,,,,,,,,,,,,,,,,,,,,,,,,,,,,,,,,,,,,,,,,,,,,,,,,,,,,,,,,,,,,,,,,,,,,,,,,,,,,,,,,,,,,,,,,,
1764665218.269904,1764665218.267600,40719,0,4377.563965,4396.025879,4506.666504,4521.794922,4394.230957,4514.102539,4530.512695,4389.743652,4573.077148,4387.692383,4486.666504,4509.743652,4549.615234,4394.102539,4383.205078,4523.333496,4527.692383,4534.871582,4506.410156,4375.769043,4384.358887,4565,4500.769043,4480.128418,4388.974121,4570,4387.94873,4556.538574,4507.820313,4396.794922,4520.256348,4493.333496,2476,1,25,2574,29266,,,,0,4,4,4,4,4,4,4,4,4,4,4,4,4,4,4,4,4,4,4,4,4,4,4,4,4,4,4,4,4,4,4,4,100,,,,,,,,,,,,,,,,,,,,,,,,,,,,,,,,,,,,,,,,,,,,,,,,,,,,,,,,,,,,,,,,,,,,,,,,,,,,,,,,,,,,,,,,,,,,,,,,,,,,,,,,,,,,,,,,,,,,,,,,,,,,,,,,,,,,,,,,,,,,,,,,,,,,,,,,,,,,,,,,,,,,,,,,,,,,,,,,,,,,,,,,,,,,,,,,,,,,,,,,,,,,,,
1764665218.273812,1764665218.271507,40720,0,4377.05127,4394.871582,4502.436035,4520.897461,4393.077148,4515,4530,4388.333496,4568.717773,4381.922852,4484.487305,4508.974121,4549.615234,4392.436035,4384.615234,4518.589844,4528.205078,4534.487305,4504.102539,4372.563965,4380.641113,4564.358887,4504.102539,4479.743652,4385.641113,4565,4386.794922,4555.384766,4509.487305,4393.846191,4517.05127,4492.94873,2836,1,25,2575,29274,,,,0,4,4,4,4,4,4,4,4,4,4,4,4,4,4,4,4,4,4,4,4,4,4,4,4,4,4,4,4,4,4,4,4,100,,,,,,,,,,,,,,,,,,,,,,,,,,,,,,,,,,,,,,,,,,,,,,,,,,,,,,,,,,,,,,,,,,,,,,,,,,,,,,,,,,,,,,,,,,,,,,,,,,,,,,,,,,,,,,,,,,,,,,,,,,,,,,,,,,,,,,,,,,,,,,,,,,,,,,,,,,,,,,,,,,,,,,,,,,,,,,,,,,,,,,,,,,,,,,,,,,,,,,,,,,,,,,
1764665218.277720,1764665218.275414,40721,0,4381.538574,4401.538574,4504.102539,4527.563965,4399.230957,4520.641113,4534.743652,4391.282227,4570.641113,4382.436035,4484.743652,4513.717773,4552.94873,4393.974121,4387.436035,4517.692383,4533.461426,4535.769043,4505.512695,4373.589844,4380.897461,4566.025879,4509.615234,4484.230957,4387.307617,4564.743652,4390.897461,4558.846191,4512.820313,4395.897461,4519.487305,4499.358887,2893,1,25,2575,29274,,,,0,4,4,4,4,4,4,4,4,4,4,4,4,4,4,4,4,4,4,4,4,4,4,4,4,4,4,4,4,4,4,4,4,100,,,,,,,,,,,,,,,,,,,,,,,,,,,,,,,,,,,26564,0,0.261098,-0.601685,-0.729797,0.192871,0.971798,0.2178,0.023929,22.833334,28.166666,45.833332,,,,,,,,,,,,,,,,,,,,,,,,,,,,,,,,,,,,,,,,,,,,,,,,,,,,,,,,,,,,,,,,,,,,,,,,,,,,,,,,,,,,,,,,,,,,,,,,,,,,,,,,,,,,,,,,,,,,,,,,,,,,,,,,,,,,,,,,,,,,,,,,,,,,,,,,,,,,,,,,
