Timestamp,EEG.Counter,EEG.Interpolated,EEG.Cz,EEG.Fz,EEG.Fp1,EEG.F7,EEG.F3,EEG.FC1,EEG.C3,EEG.FC5,EEG.FT9,EEG.T7,EEG.CP5,EEG.CP1,EEG.P3,EEG.P7,EEG.PO9,EEG.O1,EEG.Pz,EEG.Oz,EEG.O2,EEG.PO10,EEG.P8,EEG.P4,EEG.CP2,EEG.CP6,EEG.T8,EEG.FT10,EEG.FC6,EEG.C4,EEG.FC2,EEG.F4,EEG.F8,EEG.Fp2,EEG.RawCq,EEG.Battery,EEG.BatteryPercent,EEG.FwBufferSize,EEG.FwClockTime,MarkerIndex,MarkerType,MarkerValueInt,EEG.MarkerHardware,CQ.Cz,CQ.Fz,CQ.Fp1,CQ.F7,CQ.F3,CQ.FC1,CQ.C3,CQ.FC5,CQ.FT9,CQ.T7,CQ.CP5,CQ.CP1,CQ.P3,CQ.P7,CQ.PO9,CQ.O1,CQ.Pz,CQ.Oz,CQ.O2,CQ.PO10,CQ.P8,CQ.P4,CQ.CP2,CQ.CP6,CQ.T8,CQ.FT10,CQ.FC6,CQ.C4,CQ.FC2,CQ.F4,CQ.F8,CQ.Fp2,CQ.Overall,EQ.SampleRateQuality,EQ.OVERALL,EQ.Cz,EQ.Fz,EQ.Fp1,EQ.F7,EQ.F3,EQ.FC1,EQ.C3,EQ.FC5,EQ.FT9,EQ.T7,EQ.CP5,EQ.CP1,EQ.P3,EQ.P7,EQ.PO9,EQ.O1,EQ.Pz,EQ.Oz,EQ.O2,EQ.PO10,EQ.P8,EQ.P4,EQ.CP2,EQ.CP6,EQ.T8,EQ.FT10,EQ.FC6,EQ.C4,EQ.FC2,EQ.F4,EQ.F8,EQ.Fp2,MOT.CounterMems,MOT.InterpolatedMems,MOT.Q0,MOT.Q1,MOT.Q2,MOT.Q3,MOT.AccX,MOT.AccY,MOT.AccZ,MOT.MagX,MOT.MagY,MOT.MagZ,POW.Cz.Theta,POW.Cz.Alpha,POW.Cz.BetaL,POW.Cz.BetaH,POW.Cz.Gamma,POW.Fz.Theta,POW.Fz.Alpha,POW.Fz.BetaL,POW.Fz.BetaH,POW.Fz.Gamma,POW.Fp1.Theta,POW.Fp1.Alpha,POW.Fp1.BetaL,POW.Fp1.BetaH,POW.Fp1.Gamma,POW.F7.Theta,POW.F7.Alpha,POW.F7.BetaL,POW.F7.BetaH,POW.F7.Gamma,POW.F3.Theta,POW.F3.Alpha,POW.F3.BetaL,POW.F3.BetaH,POW.F3.Gamma,POW.FC1.Theta,POW.FC1.Alpha,POW.FC1.BetaL,POW.FC1.BetaH,POW.FC1.Gamma,POW.C3.Theta,POW.C3.Alpha,POW.C3.BetaL,POW.C3.BetaH,POW.C3.Gamma,POW.FC5.Theta,POW.FC5.Alpha,POW.FC5.BetaL,POW.FC5.BetaH,POW.FC5.Gamma,POW.FT9.Theta,POW.FT9.Alpha,POW.FT9.BetaL,POW.FT9.BetaH,POW.FT9.Gamma,POW.T7.Theta,POW.T7.Alpha,POW.T7.BetaL,POW.T7.BetaH,POW.T7.Gamma,POW.CP5.Theta,POW.CP5.Alpha,POW.CP5.BetaL,POW.CP5.BetaH,POW.CP5.Gamma,POW.CP1.Theta,POW.CP1.Alpha,POW.CP1.BetaL,POW.CP1.BetaH,POW.CP1.Gamma,POW.P3.Theta,POW.P3.Alpha,POW.P3.BetaL,POW.P3.BetaH,POW.P3.Gamma,POW.P7.Theta,POW.P7.Alpha,POW.P7.BetaL,POW.P7.BetaH,POW.P7.Gamma,POW.PO9.Theta,POW.PO9.Alpha,POW.PO9.BetaL,POW.PO9.BetaH,POW.PO9.Gamma,POW.O1.Theta,POW.O1.Alpha,POW.O1.BetaL,POW.O1.BetaH,POW.O1.Gamma,POW.Pz.Theta,POW.Pz.Alpha,POW.Pz.BetaL,POW.Pz.BetaH,POW.Pz.Gamma,POW.Oz.Theta,POW.Oz.Alpha,POW.Oz.BetaL,POW.Oz.BetaH,POW.Oz.Gamma,POW.O2.Theta,POW.O2.Alpha,POW.O2.BetaL,POW.O2.BetaH,POW.O2.Gamma,POW.PO10.Theta,POW.PO10.Alpha,POW.PO10.BetaL,POW.PO10.BetaH,POW.PO10.Gamma,POW.P8.Theta,POW.P8.Alpha,POW.P8.BetaL,POW.P8.BetaH,POW.P8.Gamma,POW.P4.Theta,POW.P4.Alpha,POW.P4.BetaL,POW.P4.BetaH,POW.P4.Gamma,POW.CP2.Theta,POW.CP2.Alpha,POW.CP2.BetaL,POW.CP2.BetaH,POW.CP2.Gamma,POW.CP6.Theta,POW.CP6.Alpha,POW.CP6.BetaL,POW.CP6.BetaH,POW.CP6.Gamma,POW.T8.Theta,POW.T8.Alpha,POW.T8.BetaL,POW.T8.BetaH,POW.T8.Gamma,POW.FT10.Theta,POW.FT10.Alpha,POW.FT10.BetaL,POW.FT10.BetaH,POW.FT10.Gamma,POW.FC6.Theta,POW.FC6.Alpha,POW.FC6.BetaL,POW.FC6.BetaH,POW.FC6.Gamma,POW.C4.Theta,POW.C4.Alpha,POW.C4.BetaL,POW.C4.BetaH,POW.C4.Gamma,POW.FC2.Theta,POW.FC2.Alpha,POW.FC2.BetaL,POW.FC2.BetaH,POW.FC2.Gamma,POW.F4.Theta,POW.F4.Alpha,POW.F4.BetaL,POW.F4.BetaH,POW.F4.Gamma,POW.F8.Theta,POW.F8.Alpha,POW.F8.BetaL,POW.F8.BetaH,POW.F8.Gamma,POW.Fp2.Theta,POW.Fp2.Alpha,POW.Fp2.BetaL,POW.Fp2.BetaH,POW.Fp2.Gamma
1763973755.632243,34302.0,0.0,4385.512695,4400.769043,4510.128418,4534.230957,4409.358887,4517.05127,4545.256348,4385.128418,4584.102539,4395.641113,4492.563965,4516.153809,4562.820313,4398.333496,4399.102539,4519.230957,4548.333496,4545.769043,4515.897461,4395.0,4404.102539,4565.641113,4519.487305,4503.333496,4404.487305,4589.487305,4391.666504,4553.333496,4505.897461,4402.692383,4536.538574,4504.358887,2997.0,1.0,22.0,2560.0,433.0,3.0,1.0,3.0,0.0,4.0,4.0,4.0,4.0,4.0,4.0,4.0,4.0,4.0,4.0,4.0,4.0,4.0,4.0,4.0,4.0,4.0,4.0,4.0,4.0,4.0,4.0,4.0,4.0,4.0,4.0,4.0,4.0,4.0,4.0,4.0,4.0,100.0,,,,,,,,,,,,,,,,,,,,,,,,,,,,,,,,,,,,,,,,,,,,,,,,,,,,,,,,,,,,,,,,,,,,,,,,,,,,,,,,,,,,,,,,,,,,,,,,,,,,,,,,,,,,,,,,,,,,,,,,,,,,,,,,,,,,,,,,,,,,,,,,,,,,,,,,,,,,,,,,,,,,,,,,,,,,,,,,,,,,,,,,,,,,,,,,,,,,,,,,,,,,,,
1763973755.636149,34303.0,0.0,4384.743652,4399.487305,4510.641113,4532.436035,4409.615234,4517.692383,4542.820313,4380.769043,4584.230957,4402.307617,4490.384766,4510.641113,4561.282227,4398.077148,4401.666504,4504.487305,4543.974121,4542.692383,4516.410156,4395.512695,4397.820313,4563.846191,4514.871582,4501.666504,4405.512695,4591.282227,4391.410156,4549.487305,4502.692383,4403.333496,4533.077148,4505.641113,2909.0,1.0,22.0,2560.0,433.0,,,,0.0,4.0,4.0,4.0,4.0,4.0,4.0,4.0,4.0,4.0,4.0,4.0,4.0,4.0,4.0,4.0,4.0,4.0,4.0,4.0,4.0,4.0,4.0,4.0,4.0,4.0,4.0,4.0,4.0,4.0,4.0,4.0,4.0,100.0,,,,,,,,,,,,,,,,,,,,,,,,,,,,,,,,,,,,,,,,,,,,,,,,,,,,,,,,,,,,,,,,,,,,,,,,,,,,,,,,,,,,,,,,,,,,,,,,,,,,,,,,,,,,,,,,,,,,,,,,,,,,,,,,,,,,,,,,,,,,,,,,,,,,,,,,,,,,,,,,,,,,,,,,,,,,,,,,,,,,,,,,,,,,,,,,,,,,,,,,,,,,,,
1763973755.640055,34304.0,0.0,4389.743652,4402.820313,4517.05127,4533.333496,4413.589844,4523.077148,4546.410156,4384.487305,4588.205078,4410.769043,4494.615234,4512.05127,4567.179688,4403.846191,4406.282227,4505.384766,4546.794922,4546.666504,4522.05127,4397.692383,4398.717773,4567.820313,4518.333496,4503.846191,4409.487305,4596.153809,4395.0,4553.589844,4507.820313,4408.461426,4535.128418,4514.358887,2809.0,1.0,22.0,1536.0,441.0,,,,0.0,4.0,4.0,4.0,4.0,4.0,4.0,4.0,4.0,4.0,4.0,4.0,4.0,4.0,4.0,4.0,4.0,4.0,4.0,4.0,4.0,4.0,4.0,4.0,4.0,4.0,4.0,4.0,4.0,4.0,4.0,4.0,4.0,100.0,,,,,,,,,,,,,,,,,,,,,,,,,,,,,,,,,,,,,,,,,,,,,,,,,,,,,,,,,,,,,,,,,,,,,,,,,,,,,,,,,,,,,,,,,,,,,,,,,,,,,,,,,,,,,,,,,,,,,,,,,,,,,,,,,,,,,,,,,,,,,,,,,,,,,,,,,,,,,,,,,,,,,,,,,,,,,,,,,,,,,,,,,,,,,,,,,,,,,,,,,,,,,,
1763973755.643961,34305.0,0.0,4396.153809,4407.94873,4522.94873,4534.871582,4417.436035,4528.846191,4552.436035,4392.94873,4591.538574,4416.282227,4501.922852,4517.94873,4575.512695,4411.282227,4410.128418,4517.692383,4553.333496,4553.461426,4528.205078,4398.333496,4403.974121,4572.563965,4525.641113,4506.666504,4412.692383,4600.256348,4399.358887,4562.05127,4516.794922,4413.974121,4540.897461,4523.717773,2953.0,1.0,22.0,1536.0,441.0,,,,0.0,4.0,4.0,4.0,4.0,4.0,4.0,4.0,4.0,4.0,4.0,4.0,4.0,4.0,4.0,4.0,4.0,4.0,4.0,4.0,4.0,4.0,4.0,4.0,4.0,4.0,4.0,4.0,4.0,4.0,4.0,4.0,4.0,100.0,,,,,,,,,,,,,,,,,,,,,,,,,,,,,,,,,,,57728.0,0.0,0.661425,0.289551,0.246765,0.646362,1.004029,-0.01172,-0.053229,27.5,-26.0,-24.333334,,,,,,,,,,,,,,,,,,,,,,,,,,,,,,,,,,,,,,,,,,,,,,,,,,,,,,,,,,,,,,,,,,,,,,,,,,,,,,,,,,,,,,,,,,,,,,,,,,,,,,,,,,,,,,,,,,,,,,,,,,,,,,,,,,,,,,,,,,,,,,,,,,,,,,,,,,,,,,,,
1763973755.647868,34306.0,0.0,4400.256348,4412.05127,4523.717773,4536.538574,4418.717773,4531.410156,4557.563965,4400.769043,4592.05127,4417.05127,4508.077148,4524.230957,4581.922852,4416.025879,4412.05127,4530.641113,4558.974121,4558.717773,4531.922852,4397.307617,4409.743652,4574.230957,4531.922852,4508.461426,4413.333496,4601.666504,4402.563965,4569.358887,4523.589844,4416.794922,4547.307617,4528.589844,2258.0,1.0,22.0,256.0,449.0,,,,0.0,4.0,4.0,4.0,4.0,4.0,4.0,4.0,4.0,4.0,4.0,4.0,4.0,4.0,4.0,4.0,4.0,4.0,4.0,4.0,4.0,4.0,4.0,4.0,4.0,4.0,4.0,4.0,4.0,4.0,4.0,4.0,4.0,100.0,,,,,,,,,,,,,,,,,,,,,,,,,,,,,,,,,,,,,,,,,,,,,,,,,,,,,,,,,,,,,,,,,,,,,,,,,,,,,,,,,,,,,,,,,,,,,,,,,,,,,,,,,,,,,,,,,,,,,,,,,,,,,,,,,,,,,,,,,,,,,,,,,,,,,,,,,,,,,,,,,,,,,,,,,,,,,,,,,,,,,,,,,,,,,,,,,,,,,,,,,,,,,,
1763973755.651774,34307.0,0.0,4400.512695,4413.461426,4519.743652,4538.205078,4417.820313,4530.0,4560.0,4405.0,4591.153809,4414.358887,4510.769043,4527.307617,4584.487305,4417.307617,4412.692383,4535.256348,4560.897461,4560.128418,4533.077148,4396.410156,4413.333496,4573.205078,4534.358887,4509.102539,4412.820313,4601.666504,4404.358887,4572.307617,4524.358887,4416.666504,4551.794922,4528.333496,2936.0,1.0,22.0,256.0,449.0,,,,0.0,4.0,4.0,4.0,4.0,4.0,4.0,4.0,4.0,4.0,4.0,4.0,4.0,4.0,4.0,4.0,4.0,4.0,4.0,4.0,4.0,4.0,4.0,4.0,4.0,4.0,4.0,4.0,4.0,4.0,4.0,4.0,4.0,100.0,,,,,,,,,,,,,,,,,,,,,,,,,,,,,,,,,,,,,,,,,,,,,,,,,,,,,,,,,,,,,,,,,,,,,,,,,,,,,,,,,,,,,,,,,,,,,,,,,,,,,,,,,,,,,,,,,,,,,,,,,,,,,,,,,,,,,,,,,,,,,,,,,,,,,,,,,,,,,,,,,,,,,,,,,,,,,,,,,,,,,,,,,,,,,,,,,,,,,,,,,,,,,,
1763973755.65568,34308.0,0.0,4396.538574,4411.666504,4514.102539,4539.102539,4416.538574,4526.410156,4559.358887,4405.0,4590.897461,4411.153809,4509.230957,4525.384766,4582.692383,4415.641113,4412.820313,4529.102539,4558.333496,4557.179688,4532.179688,4396.922852,4413.974121,4571.282227,4532.307617,4508.589844,4412.05127,4600.897461,4404.358887,4569.743652,4518.717773,4414.743652,4552.179688,4525.0,2842.0,1.0,22.0,256.0,457.0,,,,0.0,4.0,4.0,4.0,4.0,4.0,4.0,4.0,4.0,4.0,4.0,4.0,4.0,4.0,4.0,4.0,4.0,4.0,4.0,4.0,4.0,4.0,4.0,4.0,4.0,4.0,4.0,4.0,4.0,4.0,4.0,4.0,4.0,100.0,,,,,,,,,,,,,,,,,,,,,,,,,,,,,,,,,,,,,,,,,,,,,,,,,,,,,,,,,,,,,,,,,,,,,,,,,,,,,,,,,,,,,,,,,,,,,,,,,,,,,,,,,,,,,,,,,,,,,,,,,,,,,,,,,,,,,,,,,,,,,,,,,,,,,,,,,,,,,,,,,,,,,,,,,,,,,,,,,,,,,,,,,,,,,,,,,,,,,,,,,,,,,,
1763973755.659586,34309.0,0.0,4388.846191,4407.05127,4509.487305,4537.307617,4415.384766,4522.563965,4555.769043,4401.282227,4591.153809,4409.487305,4503.974121,4518.846191,4576.666504,4411.794922,4411.410156,4517.179688,4552.179688,4550.128418,4528.846191,4397.820313,4412.05127,4569.230957,4526.538574,4506.153809,4410.512695,4599.230957,4401.538574,4563.205078,4509.615234,4411.794922,4547.692383,4520.769043,2385.0,1.0,22.0,256.0,457.0,,,,0.0,4.0,4.0,4.0,4.0,4.0,4.0,4.0,4.0,4.0,4.0,4.0,4.0,4.0,4.0,4.0,4.0,4.0,4.0,4.0,4.0,4.0,4.0,4.0,4.0,4.0,4.0,4.0,4.0,4.0,4.0,4.0,4.0,100.0,,,,,,,,,,,,,,,,,,,,,,,,,,,,,,,,,,,57729.0,0.0,0.661396,0.289429,0.246826,0.646423,0.998169,-0.01172,-0.070809,27.5,-24.5,-23.5,,,,,,,,,,,,,,,,,,,,,,,,,,,,,,,,,,,,,,,,,,,,,,,,,,,,,,,,,,,,,,,,,,,,,,,,,,,,,,,,,,,,,,,,,,,,,,,,,,,,,,,,,,,,,,,,,,,,,,,,,,,,,,,,,,,,,,,,,,,,,,,,,,,,,,,,,,,,,,,,
1763973755.663391,34310.0,0.0,4379.487305,4401.410156,4507.563965,4532.692383,4414.230957,4519.871582,4550.897461,4396.282227,4591.410156,4408.974121,4497.563965,4511.153809,4568.333496,4407.179688,4407.820313,4507.436035,4545.128418,4541.153809,4523.974121,4397.307617,4409.358887,4567.307617,4519.487305,4503.077148,4407.436035,4596.410156,4396.153809,4555.769043,4502.307617,4408.846191,4540.512695,4517.05127,2929.0,1.0,22.0,256.0,464.0,,,,0.0,4.0,4.0,4.0,4.0,4.0,4.0,4.0,4.0,4.0,4.0,4.0,4.0,4.0,4.0,4.0,4.0,4.0,4.0,4.0,4.0,4.0,4.0,4.0,4.0,4.0,4.0,4.0,4.0,4.0,4.0,4.0,4.0,100.0,,,,,,,,,,,,,,,,,,,,,,,,,,,,,,,,,,,,,,,,,,,,,,,,,,,,,,,,,,,,,,,,,,,,,,,,,,,,,,,,,,,,,,,,,,,,,,,,,,,,,,,,,,,,,,,,,,,,,,,,,,,,,,,,,,,,,,,,,,,,,,,,,,,,,,,,,,,,,,,,,,,,,,,,,,,,,,,,,,,,,,,,,,,,,,,,,,,,,,,,,,,,,,
1763973755.667297,34311.0,0.0,4372.820313,4398.205078,4509.871582,4527.94873,4413.461426,4520.0,4547.94873,4394.102539,4592.179688,4408.333496,4494.230957,4507.563965,4562.307617,4404.487305,4403.589844,4507.307617,4541.666504,4535.0,4520.897461,4396.153809,4409.230957,4567.692383,4516.025879,4502.436035,4404.743652,4594.358887,4391.282227,4552.436035,4501.538574,4407.820313,4535.769043,4515.641113,2939.0,1.0,22.0,256.0,464.0,,,,0.0,4.0,4.0,4.0,4.0,4.0,4.0,4.0,4.0,4.0,4.0,4.0,4.0,4.0,4.0,4.0,4.0,4.0,4.0,4.0,4.0,4.0,4.0,4.0,4.0,4.0,4.0,4.0,4.0,4.0,4.0,4.0,4.0,100.0,,,,,,,,,,,,,,,,,,,,,,,,,,,,,,,,,,,,,,,,,,,,,,,,,,,,,,,,,,,,,,,,,,,,,,,,,,,,,,,,,,,,,,,,,,,,,,,,,,,,,,,,,,,,,,,,,,,,,,,,,,,,,,,,,,,,,,,,,,,,,,,,,,,,,,,,,,,,,,,,,,,,,,,,,,,,,,,,,,,,,,,,,,,,,,,,,,,,,,,,,,,,,,
1763973755.671303,34312.0,0.0,4373.205078,4400.512695,4517.563965,4527.820313,4414.615234,4523.333496,4550.0,4397.94873,4595.0,4406.025879,4496.922852,4511.538574,4563.589844,4406.282227,4402.563965,4518.333496,4545.512695,4537.179688,4523.974121,4397.563965,4414.102539,4573.333496,4520.512695,4508.077148,4405.512695,4595.897461,4391.282227,4556.666504,4508.205078,4410.769043,4538.077148,4518.205078,2662.0,1.0,22.0,512.0,472.0,,,,0.0,4.0,4.0,4.0,4.0,4.0,4.0,4.0,4.0,4.0,4.0,4.0,4.0,4.0,4.0,4.0,4.0,4.0,4.0,4.0,4.0,4.0,4.0,4.0,4.0,4.0,4.0,4.0,4.0,4.0,4.0,4.0,4.0,100.0,,,,,,,,,,,,,,,,,,,,,,,,,,,,,,,,,,,,,,,,,,,,,,,,,,,,,,,,,,,,,,,,,,,,,,,,,,,,,,,,,,,,,,,,,,,,,,,,,,,,,,,,,,,,,,,,,,,,,,,,,,,,,,,,,,,,,,,,,,,,,,,,,,,,,,,,,,,,,,,,,,,,,,,,,,,,,,,,,,,,,,,,,,,,,,,,,,,,,,,,,,,,,,
1763973755.675209,34313.0,0.0,4381.922852,4408.333496,4529.358887,4535.0,4418.461426,4528.717773,4556.666504,4408.205078,4600.641113,4401.922852,4504.743652,4522.436035,4573.077148,4412.436035,4407.563965,4535.256348,4556.666504,4549.358887,4533.974121,4403.974121,4423.333496,4584.871582,4533.461426,4520.384766,4411.538574,4601.922852,4397.94873,4568.077148,4518.974121,4418.333496,4547.179688,4524.615234,2828.0,1.0,22.0,512.0,472.0,,,,0.0,4.0,4.0,4.0,4.0,4.0,4.0,4.0,4.0,4.0,4.0,4.0,4.0,4.0,4.0,4.0,4.0,4.0,4.0,4.0,4.0,4.0,4.0,4.0,4.0,4.0,4.0,4.0,4.0,4.0,4.0,4.0,4.0,100.0,,,,,,,,,,,,,,,,,,,,,,,,,,,,,,,,,,,57730.0,0.0,0.661365,0.289246,0.246643,0.646606,1.00061,-0.005372,-0.058113,29.333334,-26.166666,-24.5,,,,,,,,,,,,,,,,,,,,,,,,,,,,,,,,,,,,,,,,,,,,,,,,,,,,,,,,,,,,,,,,,,,,,,,,,,,,,,,,,,,,,,,,,,,,,,,,,,,,,,,,,,,,,,,,,,,,,,,,,,,,,,,,,,,,,,,,,,,,,,,,,,,,,,,,,,,,,,,,
1763973755.679115,34314.0,0.0,4394.230957,4417.05127,4540.384766,4546.794922,4422.94873,4533.846191,4563.974121,4419.615234,4606.538574,4397.94873,4512.307617,4534.358887,4586.025879,4418.846191,4416.282227,4549.102539,4569.743652,4566.025879,4546.410156,4413.461426,4432.563965,4598.205078,4549.102539,4534.743652,4420.384766,4609.743652,4407.94873,4581.025879,4528.077148,4427.692383,4557.307617,4531.153809,2656.0,1.0,22.0,768.0,480.0,,,,0.0,4.0,4.0,4.0,4.0,4.0,4.0,4.0,4.0,4.0,4.0,4.0,4.0,4.0,4.0,4.0,4.0,4.0,4.0,4.0,4.0,4.0,4.0,4.0,4.0,4.0,4.0,4.0,4.0,4.0,4.0,4.0,4.0,100.0,,,,,,,,,,,,,,,,,,,,,,,,,,,,,,,,,,,,,,,,,,,,,,,,,,,,,,,,,,,,,,,,,,,,,,,,,,,,,,,,,,,,,,,,,,,,,,,,,,,,,,,,,,,,,,,,,,,,,,,,,,,,,,,,,,,,,,,,,,,,,,,,,,,,,,,,,,,,,,,,,,,,,,,,,,,,,,,,,,,,,,,,,,,,,,,,,,,,,,,,,,,,,,
1763973755.683021,34315.0,0.0,4402.692383,4420.384766,4544.743652,4555.897461,4425.0,4535.256348,4566.025879,4424.615234,4608.589844,4396.025879,4513.461426,4540.128418,4594.743652,4420.512695,4422.692383,4552.692383,4577.179688,4577.820313,4553.461426,4420.128418,4436.794922,4606.410156,4559.102539,4543.846191,4426.282227,4614.102539,4414.743652,4588.205078,4531.410156,4433.205078,4561.153809,4533.333496,2971.0,1.0,22.0,768.0,480.0,,,,0.0,4.0,4.0,4.0,4.0,4.0,4.0,4.0,4.0,4.0,4.0,4.0,4.0,4.0,4.0,4.0,4.0,4.0,4.0,4.0,4.0,4.0,4.0,4.0,4.0,4.0,4.0,4.0,4.0,4.0,4.0,4.0,4.0,100.0,,,,,,,,,,,,,,,,,,,,,,,,,,,,,,,,,,,,,,,,,,,,,,,,,,,,,,,,,,,,,,,,,,,,,,,,,,,,,,,,,,,,,,,,,,,,,,,,,,,,,,,,,,,,,,,,,,,,,,,,,,,,,,,,,,,,,,,,,,,,,,,,,,,,,,,,,,,,,,,,,,,,,,,,,,,,,,,,,,,,,,,,,,,,,,,,,,,,,,,,,,,,,,
1763973755.686927,34316.0,0.0,4402.307617,4415.512695,4539.615234,4555.128418,4421.922852,4531.794922,4560.384766,4418.974121,4604.358887,4397.692383,4506.666504,4536.666504,4593.974121,4414.871582,4421.282227,4544.487305,4574.871582,4577.692383,4550.897461,4418.974121,4434.358887,4605.641113,4558.077148,4542.820313,4424.871582,4611.538574,4414.102539,4585.769043,4528.205078,4431.025879,4555.897461,4528.461426,2934.0,1.0,22.0,1024.0,488.0,,,,0.0,4.0,4.0,4.0,4.0,4.0,4.0,4.0,4.0,4.0,4.0,4.0,4.0,4.0,4.0,4.0,4.0,4.0,4.0,4.0,4.0,4.0,4.0,4.0,4.0,4.0,4.0,4.0,4.0,4.0,4.0,4.0,4.0,100.0,,,,,,,,,,,,,,,,,,,,,,,,,,,,,,,,,,,,,,,,,,,,,,,,,,,,,,,,,,,,,,,,,,,,,,,,,,,,,,,,,,,,,,,,,,,,,,,,,,,,,,,,,,,,,,,,,,,,,,,,,,,,,,,,,,,,,,,,,,,,,,,,,,,,,,,,,,,,,,,,,,,,,,,,,,,,,,,,,,,,,,,,,,,,,,,,,,,,,,,,,,,,,,
1763973755.690833,34317.0,0.0,4395.128418,4405.256348,4528.589844,4544.230957,4415.384766,4525.641113,4550.128418,4405.769043,4595.897461,4402.563965,4496.153809,4527.307617,4585.256348,4404.871582,4412.563965,4530.512695,4565.512695,4567.436035,4541.538574,4411.025879,4428.461426,4597.692383,4548.333496,4533.589844,4417.307617,4603.077148,4407.179688,4576.410156,4522.179688,4422.05127,4545.128418,4519.102539,2787.0,1.0,22.0,1024.0,488.0,,,,0.0,4.0,4.0,4.0,4.0,4.0,4.0,4.0,4.0,4.0,4.0,4.0,4.0,4.0,4.0,4.0,4.0,4.0,4.0,4.0,4.0,4.0,4.0,4.0,4.0,4.0,4.0,4.0,4.0,4.0,4.0,4.0,4.0,100.0,,,,,,,,,,,,,,,,,,,,,,,,,,,,,,,,,,,57731.0,0.0,0.661376,0.289307,0.246704,0.646545,0.99768,0.001953,-0.052252,27.666666,-25.833334,-22.833334,,,,,,,,,,,,,,,,,,,,,,,,,,,,,,,,,,,,,,,,,,,,,,,,,,,,,,,,,,,,,,,,,,,,,,,,,,,,,,,,,,,,,,,,,,,,,,,,,,,,,,,,,,,,,,,,,,,,,,,,,,,,,,,,,,,,,,,,,,,,,,,,,,,,,,,,,,,,,,,,
1763973755.694739,34318.0,0.0,4388.333496,4396.794922,4519.230957,4531.025879,4409.358887,4521.282227,4543.333496,4393.077148,4588.461426,4409.102539,4488.589844,4519.487305,4575.769043,4397.307617,4402.436035,4520.384766,4556.538574,4555.512695,4532.692383,4402.820313,4424.102539,4589.487305,4538.589844,4523.205078,4409.358887,4594.102539,4399.358887,4567.307617,4518.205078,4412.179688,4536.153809,4511.282227,2738.0,1.0,22.0,1280.0,496.0,,,,0.0,4.0,4.0,4.0,4.0,4.0,4.0,4.0,4.0,4.0,4.0,4.0,4.0,4.0,4.0,4.0,4.0,4.0,4.0,4.0,4.0,4.0,4.0,4.0,4.0,4.0,4.0,4.0,4.0,4.0,4.0,4.0,4.0,100.0,1.0,100.0,4.0,4.0,4.0,4.0,4.0,4.0,4.0,4.0,4.0,4.0,4.0,4.0,4.0,4.0,4.0,4.0,4.0,4.0,4.0,4.0,4.0,4.0,4.0,4.0,4.0,4.0,4.0,4.0,4.0,4.0,4.0,4.0,,,,,,,,,,,,,2.591745,4.903387,1.819477,1.705382,0.876808,2.469561,5.752007,1.492744,1.640417,0.799839,2.643901,3.92796,1.835321,1.281158,0.912869,2.307835,3.190004,1.284733,1.167625,0.682265,1.841982,3.152509,1.098174,1.024453,0.614977,1.713339,2.92549,0.796144,0.976602,0.522351,2.171305,4.691995,1.49819,1.409363,0.868126,1.384899,3.755033,0.91727,1.374669,0.855245,2.051016,1.99269,0.494906,1.149302,0.802341,0.960402,1.891096,0.793559,2.912854,1.365354,0.856322,2.031364,0.74999,1.443494,0.662344,2.829268,6.482107,2.51503,1.629972,0.85809,1.377878,3.515097,2.997446,2.025268,0.960017,0.605967,0.70984,0.892389,1.462741,0.81357,0.547211,0.854654,1.106796,1.264129,0.840945,1.044865,3.883493,2.552977,4.599357,1.546184,2.314814,8.966709,6.238166,1.924515,0.946789,0.820225,2.298689,1.829516,2.17684,1.176863,1.01689,1.579227,1.64553,1.69642,1.322378,0.978073,1.73752,1.051033,1.242834,1.053695,1.450537,2.822494,1.829403,1.347213,1.212419,2.424631,8.268748,4.791087,2.159689,1.160783,3.120122,7.677586,4.27807,2.177175,1.025393,2.576925,4.975998,2.076184,1.765264,0.896596,3.256713,5.518071,1.331642,1.855658,0.950271,1.942073,4.294156,1.252503,1.204115,0.883334,3.05744,6.051069,1.529831,1.794101,0.954248,2.92866,5.581244,1.934105,1.754432,0.937089,3.23415,5.905803,1.107969,1.825467,0.937079,2.696804,5.703898,1.176096,1.599071,0.876376,3.300467,7.069818,1.331372,1.271116,0.767135,2.798729,5.545414,1.251352,1.471495,0.777168
1763973755.698645,34319.0,0.0,4388.333496,4395.512695,4517.436035,4524.487305,4407.692383,4521.922852,4545.384766,4388.461426,4587.05127,4415.256348,4488.461426,4518.846191,4573.077148,4397.692383,4398.333496,4520.897461,4554.487305,4550.769043,4530.384766,4400.641113,4423.589844,4587.307617,4537.05127,4518.974121,4407.05127,4591.282227,4396.282227,4565.128418,4519.487305,4407.692383,4534.615234,4510.641113,2793.0,1.0,22.0,1280.0,496.0,,,,0.0,4.0,4.0,4.0,4.0,4.0,4.0,4.0,4.0,4.0,4.0,4.0,4.0,4.0,4.0,4.0,4.0,4.0,4.0,4.0,4.0,4.0,4.0,4.0,4.0,4.0,4.0,4.0,4.0,4.0,4.0,4.0,4.0,100.0,,,,,,,,,,,,,,,,,,,,,,,,,,,,,,,,,,,,,,,,,,,,,,,,,,,,,,,,,,,,,,,,,,,,,,,,,,,,,,,,,,,,,,,,,,,,,,,,,,,,,,,,,,,,,,,,,,,,,,,,,,,,,,,,,,,,,,,,,,,,,,,,,,,,,,,,,,,,,,,,,,,,,,,,,,,,,,,,,,,,,,,,,,,,,,,,,,,,,,,,,,,,,,
1763973755.702551,34320.0,0.0,4395.641113,4401.538574,4523.974121,4528.205078,4411.025879,4526.794922,4555.128418,4393.846191,4592.179688,4419.358887,4494.743652,4525.384766,4578.846191,4405.256348,4402.94873,4531.794922,4560.128418,4556.410156,4534.871582,4406.538574,4425.641113,4592.436035,4544.615234,4522.05127,4411.282227,4596.410156,4399.230957,4570.128418,4524.743652,4410.512695,4540.641113,4517.563965,2912.0,1.0,22.0,1536.0,504.0,,,,0.0,4.0,4.0,4.0,4.0,4.0,4.0,4.0,4.0,4.0,4.0,4.0,4.0,4.0,4.0,4.0,4.0,4.0,4.0,4.0,4.0,4.0,4.0,4.0,4.0,4.0,4.0,4.0,4.0,4.0,4.0,4.0,4.0,100.0,,,,,,,,,,,,,,,,,,,,,,,,,,,,,,,,,,,,,,,,,,,,,,,,,,,,,,,,,,,,,,,,,,,,,,,,,,,,,,,,,,,,,,,,,,,,,,,,,,,,,,,,,,,,,,,,,,,,,,,,,,,,,,,,,,,,,,,,,,,,,,,,,,,,,,,,,,,,,,,,,,,,,,,,,,,,,,,,,,,,,,,,,,,,,,,,,,,,,,,,,,,,,,
1763973755.706457,34321.0,0.0,4404.615234,4409.615234,4533.717773,4537.692383,4416.025879,4531.922852,4565.384766,4404.487305,4599.871582,4420.897461,4502.05127,4533.205078,4588.205078,4414.358887,4412.436035,4544.743652,4568.589844,4567.436035,4541.538574,4416.025879,4426.410156,4599.615234,4554.615234,4527.94873,4417.692383,4605.128418,4405.128418,4577.179688,4529.102539,4416.794922,4548.974121,4526.282227,3034.0,1.0,22.0,1536.0,504.0,,,,0.0,4.0,4.0,4.0,4.0,4.0,4.0,4.0,4.0,4.0,4.0,4.0,4.0,4.0,4.0,4.0,4.0,4.0,4.0,4.0,4.0,4.0,4.0,4.0,4.0,4.0,4.0,4.0,4.0,4.0,4.0,4.0,4.0,100.0,,,,,,,,,,,,,,,,,,,,,,,,,,,,,,,,,,,57732.0,0.0,0.661376,0.289307,0.246704,0.646545,1.005494,0.00293,-0.068368,27.666666,-26.166666,-24.5,,,,,,,,,,,,,,,,,,,,,,,,,,,,,,,,,,,,,,,,,,,,,,,,,,,,,,,,,,,,,,,,,,,,,,,,,,,,,,,,,,,,,,,,,,,,,,,,,,,,,,,,,,,,,,,,,,,,,,,,,,,,,,,,,,,,,,,,,,,,,,,,,,,,,,,,,,,,,,,,
1763973755.710363,34322.0,0.0,4406.922852,4413.205078,4539.230957,4544.230957,4418.205078,4532.692383,4568.205078,4412.05127,4603.461426,4419.487305,4504.615234,4535.384766,4592.94873,4417.820313,4419.615234,4549.615234,4571.794922,4574.615234,4544.358887,4421.410156,4422.692383,4601.410156,4557.307617,4529.358887,4419.230957,4609.743652,4408.205078,4578.846191,4527.436035,4420.384766,4552.05127,4529.743652,2814.0,1.0,22.0,1792.0,511.0,,,,0.0,4.0,4.0,4.0,4.0,4.0,4.0,4.0,4.0,4.0,4.0,4.0,4.0,4.0,4.0,4.0,4.0,4.0,4.0,4.0,4.0,4.0,4.0,4.0,4.0,4.0,4.0,4.0,4.0,4.0,4.0,4.0,4.0,100.0,,,,,,,,,,,,,,,,,,,,,,,,,,,,,,,,,,,,,,,,,,,,,,,,,,,,,,,,,,,,,,,,,,,,,,,,,,,,,,,,,,,,,,,,,,,,,,,,,,,,,,,,,,,,,,,,,,,,,,,,,,,,,,,,,,,,,,,,,,,,,,,,,,,,,,,,,,,,,,,,,,,,,,,,,,,,,,,,,,,,,,,,,,,,,,,,,,,,,,,,,,,,,,
1763973755.714269,34323.0,0.0,4398.974121,4408.333496,4535.897461,4541.794922,4414.487305,4527.307617,4560.897461,4410.641113,4599.102539,4415.128418,4500.128418,4528.846191,4588.205078,4412.820313,4418.717773,4542.307617,4565.512695,4571.666504,4539.487305,4417.05127,4414.230957,4593.461426,4547.820313,4522.179688,4412.307617,4604.871582,4404.102539,4571.282227,4518.589844,4416.922852,4545.897461,4524.102539,2998.0,1.0,22.0,1792.0,511.0,,,,0.0,4.0,4.0,4.0,4.0,4.0,4.0,4.0,4.0,4.0,4.0,4.0,4.0,4.0,4.0,4.0,4.0,4.0,4.0,4.0,4.0,4.0,4.0,4.0,4.0,4.0,4.0,4.0,4.0,4.0,4.0,4.0,4.0,100.0,,,,,,,,,,,,,,,,,,,,,,,,,,,,,,,,,,,,,,,,,,,,,,,,,,,,,,,,,,,,,,,,,,,,,,,,,,,,,,,,,,,,,,,,,,,,,,,,,,,,,,,,,,,,,,,,,,,,,,,,,,,,,,,,,,,,,,,,,,,,,,,,,,,,,,,,,,,,,,,,,,,,,,,,,,,,,,,,,,,,,,,,,,,,,,,,,,,,,,,,,,,,,,
1763973755.718175,34324.0,0.0,4385.256348,4397.436035,4525.128418,4531.538574,4406.282227,4518.717773,4548.461426,4400.512695,4588.333496,4407.94873,4491.794922,4517.05127,4576.538574,4403.077148,4409.871582,4529.487305,4552.692383,4560.384766,4527.94873,4403.461426,4404.102539,4578.333496,4530.512695,4508.205078,4399.230957,4591.922852,4393.205078,4557.307617,4506.410156,4407.307617,4533.205078,4512.307617,2978.0,1.0,22.0,2048.0,519.0,,,,0.0,4.0,4.0,4.0,4.0,4.0,4.0,4.0,4.0,4.0,4.0,4.0,4.0,4.0,4.0,4.0,4.0,4.0,4.0,4.0,4.0,4.0,4.0,4.0,4.0,4.0,4.0,4.0,4.0,4.0,4.0,4.0,4.0,100.0,,,,,,,,,,,,,,,,,,,,,,,,,,,,,,,,,,,,,,,,,,,,,,,,,,,,,,,,,,,,,,,,,,,,,,,,,,,,,,,,,,,,,,,,,,,,,,,,,,,,,,,,,,,,,,,,,,,,,,,,,,,,,,,,,,,,,,,,,,,,,,,,,,,,,,,,,,,,,,,,,,,,,,,,,,,,,,,,,,,,,,,,,,,,,,,,,,,,,,,,,,,,,,
1763973755.722081,34325.0,0.0,4375.384766,4387.94873,4514.615234,4521.282227,4399.615234,4513.205078,4540.256348,4388.974121,4578.333496,4400.128418,4486.153809,4508.333496,4566.538574,4396.282227,4399.615234,4523.589844,4542.692383,4549.615234,4516.538574,4387.94873,4397.692383,4564.743652,4516.410156,4495.641113,4387.436035,4578.846191,4381.922852,4545.0,4498.333496,4398.333496,4521.538574,4502.820313,2825.0,1.0,22.0,2048.0,519.0,,,,0.0,4.0,4.0,4.0,4.0,4.0,4.0,4.0,4.0,4.0,4.0,4.0,4.0,4.0,4.0,4.0,4.0,4.0,4.0,4.0,4.0,4.0,4.0,4.0,4.0,4.0,4.0,4.0,4.0,4.0,4.0,4.0,4.0,100.0,,,,,,,,,,,,,,,,,,,,,,,,,,,,,,,,,,,57733.0,0.0,0.661359,0.289429,0.246765,0.646484,1.009889,0.000977,-0.063973,27.5,-25.666666,-23.833334,,,,,,,,,,,,,,,,,,,,,,,,,,,,,,,,,,,,,,,,,,,,,,,,,,,,,,,,,,,,,,,,,,,,,,,,,,,,,,,,,,,,,,,,,,,,,,,,,,,,,,,,,,,,,,,,,,,,,,,,,,,,,,,,,,,,,,,,,,,,,,,,,,,,,,,,,,,,,,,,
1763973755.725987,34326.0,0.0,4377.692383,4387.05127,4513.205078,4519.615234,4400.897461,4515.512695,4543.461426,4385.512695,4576.794922,4395.897461,4488.461426,4510.0,4567.307617,4398.717773,4396.282227,4531.153809,4543.717773,4547.436035,4512.820313,4380.128418,4399.615234,4562.05127,4515.641113,4493.077148,4384.743652,4575.256348,4378.461426,4542.436035,4500.0,4397.692383,4519.743652,4503.589844,2962.0,1.0,22.0,2304.0,527.0,,,,0.0,4.0,4.0,4.0,4.0,4.0,4.0,4.0,4.0,4.0,4.0,4.0,4.0,4.0,4.0,4.0,4.0,4.0,4.0,4.0,4.0,4.0,4.0,4.0,4.0,4.0,4.0,4.0,4.0,4.0,4.0,4.0,4.0,100.0,,,,,,,,,,,,,,,,,,,,,,,,,,,,,,,,,,,,,,,,,,,,,,,,,,,,,,,,,,,,,,,,,,,,,,,,,,,,,,,,,,,,,,,,,,,,,,,,,,,,,,,,,,,,,,,,,,,,,,,,,,,,,,,,,,,,,,,,,,,,,,,,,,,,,,,,,,,,,,,,,,,,,,,,,,,,,,,,,,,,,,,,,,,,,,,,,,,,,,,,,,,,,,
1763973755.729893,34327.0,0.0,4391.410156,4397.179688,4523.077148,4529.230957,4411.538574,4525.512695,4557.820313,4393.846191,4586.282227,4398.077148,4498.717773,4522.563965,4580.0,4409.743652,4403.333496,4546.410156,4556.410156,4555.0,4520.128418,4385.256348,4410.256348,4572.179688,4528.589844,4502.692383,4393.461426,4585.0,4386.666504,4551.282227,4511.410156,4407.692383,4530.384766,4515.897461,2917.0,1.0,22.0,2304.0,527.0,,,,0.0,4.0,4.0,4.0,4.0,4.0,4.0,4.0,4.0,4.0,4.0,4.0,4.0,4.0,4.0,4.0,4.0,4.0,4.0,4.0,4.0,4.0,4.0,4.0,4.0,4.0,4.0,4.0,4.0,4.0,4.0,4.0,4.0,100.0,,,,,,,,,,,,,,,,,,,,,,,,,,,,,,,,,,,,,,,,,,,,,,,,,,,,,,,,,,,,,,,,,,,,,,,,,,,,,,,,,,,,,,,,,,,,,,,,,,,,,,,,,,,,,,,,,,,,,,,,,,,,,,,,,,,,,,,,,,,,,,,,,,,,,,,,,,,,,,,,,,,,,,,,,,,,,,,,,,,,,,,,,,,,,,,,,,,,,,,,,,,,,,
1763973755.733799,34328.0,0.0,4407.563965,4412.820313,4537.94873,4544.615234,4426.025879,4537.179688,4575.256348,4408.974121,4601.153809,4406.025879,4510.897461,4538.846191,4596.153809,4421.666504,4416.666504,4555.256348,4571.794922,4565.384766,4533.717773,4399.615234,4423.589844,4587.94873,4546.282227,4517.692383,4408.333496,4602.436035,4401.922852,4565.641113,4525.641113,4422.436035,4547.307617,4532.436035,2885.0,1.0,22.0,2048.0,535.0,,,,0.0,4.0,4.0,4.0,4.0,4.0,4.0,4.0,4.0,4.0,4.0,4.0,4.0,4.0,4.0,4.0,4.0,4.0,4.0,4.0,4.0,4.0,4.0,4.0,4.0,4.0,4.0,4.0,4.0,4.0,4.0,4.0,4.0,100.0,,,,,,,,,,,,,,,,,,,,,,,,,,,,,,,,,,,,,,,,,,,,,,,,,,,,,,,,,,,,,,,,,,,,,,,,,,,,,,,,,,,,,,,,,,,,,,,,,,,,,,,,,,,,,,,,,,,,,,,,,,,,,,,,,,,,,,,,,,,,,,,,,,,,,,,,,,,,,,,,,,,,,,,,,,,,,,,,,,,,,,,,,,,,,,,,,,,,,,,,,,,,,,
1763973755.737705,34329.0,0.0,4415.256348,4424.487305,4547.436035,4555.897461,4435.512695,4543.333496,4585.128418,4420.897461,4611.025879,4414.615234,4517.820313,4548.974121,4604.230957,4426.282227,4426.538574,4548.974121,4578.717773,4569.743652,4544.358887,4412.820313,4431.025879,4597.692383,4556.153809,4527.179688,4419.615234,4615.897461,4414.487305,4575.384766,4533.717773,4432.05127,4559.743652,4542.179688,2824.0,1.0,22.0,2048.0,535.0,,,,0.0,4.0,4.0,4.0,4.0,4.0,4.0,4.0,4.0,4.0,4.0,4.0,4.0,4.0,4.0,4.0,4.0,4.0,4.0,4.0,4.0,4.0,4.0,4.0,4.0,4.0,4.0,4.0,4.0,4.0,4.0,4.0,4.0,100.0,,,,,,,,,,,,,,,,,,,,,,,,,,,,,,,,,,,57734.0,0.0,0.661316,0.289612,0.246826,0.646423,0.989867,0.000977,-0.061531,28.666666,-25.666666,-23.0,,,,,,,,,,,,,,,,,,,,,,,,,,,,,,,,,,,,,,,,,,,,,,,,,,,,,,,,,,,,,,,,,,,,,,,,,,,,,,,,,,,,,,,,,,,,,,,,,,,,,,,,,,,,,,,,,,,,,,,,,,,,,,,,,,,,,,,,,,,,,,,,,,,,,,,,,,,,,,,,
1763973755.741611,34330.0,0.0,4410.384766,4425.256348,4545.512695,4556.794922,4434.743652,4541.025879,4582.94873,4422.436035,4609.358887,4417.820313,4516.410156,4547.94873,4598.846191,4421.153809,4425.641113,4532.820313,4573.077148,4565.256348,4545.512695,4415.512695,4428.717773,4595.0,4552.94873,4525.0,4420.769043,4616.922852,4416.794922,4574.743652,4530.897461,4430.641113,4560.128418,4538.461426,2785.0,1.0,22.0,1024.0,543.0,,,,0.0,4.0,4.0,4.0,4.0,4.0,4.0,4.0,4.0,4.0,4.0,4.0,4.0,4.0,4.0,4.0,4.0,4.0,4.0,4.0,4.0,4.0,4.0,4.0,4.0,4.0,4.0,4.0,4.0,4.0,4.0,4.0,4.0,100.0,,,,,,,,,,,,,,,,,,,,,,,,,,,,,,,,,,,,,,,,,,,,,,,,,,,,,,,,,,,,,,,,,,,,,,,,,,,,,,,,,,,,,,,,,,,,,,,,,,,,,,,,,,,,,,,,,,,,,,,,,,,,,,,,,,,,,,,,,,,,,,,,,,,,,,,,,,,,,,,,,,,,,,,,,,,,,,,,,,,,,,,,,,,,,,,,,,,,,,,,,,,,,,
1763973755.745517,34331.0,0.0,4398.077148,4415.769043,4534.102539,4548.205078,4425.512695,4532.820313,4572.179688,4413.974121,4597.05127,4414.102539,4509.871582,4538.333496,4585.0,4410.897461,4414.871582,4520.897461,4560.256348,4556.794922,4537.179688,4406.153809,4419.358887,4582.436035,4541.410156,4514.102539,4412.436035,4605.769043,4408.846191,4565.769043,4519.871582,4420.256348,4550.0,4524.102539,2990.0,1.0,22.0,1024.0,543.0,,,,0.0,4.0,4.0,4.0,4.0,4.0,4.0,4.0,4.0,4.0,4.0,4.0,4.0,4.0,4.0,4.0,4.0,4.0,4.0,4.0,4.0,4.0,4.0,4.0,4.0,4.0,4.0,4.0,4.0,4.0,4.0,4.0,4.0,100.0,,,,,,,,,,,,,,,,,,,,,,,,,,,,,,,,,,,,,,,,,,,,,,,,,,,,,,,,,,,,,,,,,,,,,,,,,,,,,,,,,,,,,,,,,,,,,,,,,,,,,,,,,,,,,,,,,,,,,,,,,,,,,,,,,,,,,,,,,,,,,,,,,,,,,,,,,,,,,,,,,,,,,,,,,,,,,,,,,,,,,,,,,,,,,,,,,,,,,,,,,,,,,,
1763973755.749423,34332.0,0.0,4387.307617,4403.205078,4521.025879,4536.410156,4414.743652,4524.615234,4561.025879,4401.794922,4582.820313,4407.692383,4503.589844,4527.307617,4572.05127,4402.820313,4401.794922,4522.436035,4549.871582,4551.153809,4525.512695,4391.794922,4410.256348,4569.487305,4531.282227,4503.461426,4400.769043,4590.897461,4396.666504,4556.153809,4508.717773,4408.333496,4537.436035,4508.717773,2955.0,1.0,22.0,256.0,550.0,,,,0.0,4.0,4.0,4.0,4.0,4.0,4.0,4.0,4.0,4.0,4.0,4.0,4.0,4.0,4.0,4.0,4.0,4.0,4.0,4.0,4.0,4.0,4.0,4.0,4.0,4.0,4.0,4.0,4.0,4.0,4.0,4.0,4.0,100.0,,,,,,,,,,,,,,,,,,,,,,,,,,,,,,,,,,,,,,,,,,,,,,,,,,,,,,,,,,,,,,,,,,,,,,,,,,,,,,,,,,,,,,,,,,,,,,,,,,,,,,,,,,,,,,,,,,,,,,,,,,,,,,,,,,,,,,,,,,,,,,,,,,,,,,,,,,,,,,,,,,,,,,,,,,,,,,,,,,,,,,,,,,,,,,,,,,,,,,,,,,,,,,
1763973755.753329,34333.0,0.0,4384.487305,4396.153809,4514.358887,4529.102539,4409.358887,4521.153809,4555.769043,4393.461426,4575.769043,4404.743652,4501.794922,4521.282227,4567.307617,4401.025879,4395.0,4533.461426,4548.205078,4550.769043,4517.94873,4383.077148,4407.307617,4563.846191,4529.230957,4500.384766,4393.974121,4582.436035,4388.333496,4553.077148,4504.615234,4402.692383,4531.282227,4501.922852,2799.0,1.0,22.0,256.0,550.0,,,,0.0,4.0,4.0,4.0,4.0,4.0,4.0,4.0,4.0,4.0,4.0,4.0,4.0,4.0,4.0,4.0,4.0,4.0,4.0,4.0,4.0,4.0,4.0,4.0,4.0,4.0,4.0,4.0,4.0,4.0,4.0,4.0,4.0,100.0,,,,,,,,,,,,,,,,,,,,,,,,,,,,,,,,,,,57735.0,0.0,0.661316,0.289612,0.246826,0.646423,0.989867,0.000977,-0.061531,28.5,-25.0,-25.0,,,,,,,,,,,,,,,,,,,,,,,,,,,,,,,,,,,,,,,,,,,,,,,,,,,,,,,,,,,,,,,,,,,,,,,,,,,,,,,,,,,,,,,,,,,,,,,,,,,,,,,,,,,,,,,,,,,,,,,,,,,,,,,,,,,,,,,,,,,,,,,,,,,,,,,,,,,,,,,,
1763973755.757235,34334.0,0.0,4388.846191,4398.333496,4517.05127,4529.615234,4411.538574,4523.846191,4557.307617,4393.077148,4579.743652,4408.077148,4504.743652,4521.922852,4571.153809,4405.128418,4398.461426,4540.512695,4553.846191,4553.205078,4518.333496,4386.282227,4411.794922,4567.692383,4534.487305,4506.025879,4396.282227,4585.128418,4389.102539,4558.461426,4509.358887,4405.641113,4534.743652,4507.179688,2983.0,1.0,22.0,256.0,558.0,,,,0.0,4.0,4.0,4.0,4.0,4.0,4.0,4.0,4.0,4.0,4.0,4.0,4.0,4.0,4.0,4.0,4.0,4.0,4.0,4.0,4.0,4.0,4.0,4.0,4.0,4.0,4.0,4.0,4.0,4.0,4.0,4.0,4.0,100.0,,,,,,,,,,,,,,,,,,,,,,,,,,,,,,,,,,,,,,,,,,,,,,,,,,,,,,,,,,,,,,,,,,,,,,,,,,,,,,,,,,,,,,,,,,,,,,,,,,,,,,,,,,,,,,,,,,,,,,,,,,,,,,,,,,,,,,,,,,,,,,,,,,,,,,,,,,,,,,,,,,,,,,,,,,,,,,,,,,,,,,,,,,,,,,,,,,,,,,,,,,,,,,
1763973755.761141,34335.0,0.0,4395.0,4406.538574,4526.153809,4535.641113,4418.205078,4529.871582,4561.538574,4399.358887,4591.282227,4415.0,4509.615234,4526.025879,4578.333496,4410.641113,4408.846191,4533.589844,4560.512695,4553.589844,4524.615234,4399.358887,4419.615234,4576.025879,4540.641113,4515.512695,4405.897461,4596.025879,4398.077148,4567.820313,4518.333496,4413.589844,4543.846191,4519.615234,2896.0,1.0,22.0,256.0,558.0,,,,0.0,4.0,4.0,4.0,4.0,4.0,4.0,4.0,4.0,4.0,4.0,4.0,4.0,4.0,4.0,4.0,4.0,4.0,4.0,4.0,4.0,4.0,4.0,4.0,4.0,4.0,4.0,4.0,4.0,4.0,4.0,4.0,4.0,100.0,,,,,,,,,,,,,,,,,,,,,,,,,,,,,,,,,,,,,,,,,,,,,,,,,,,,,,,,,,,,,,,,,,,,,,,,,,,,,,,,,,,,,,,,,,,,,,,,,,,,,,,,,,,,,,,,,,,,,,,,,,,,,,,,,,,,,,,,,,,,,,,,,,,,,,,,,,,,,,,,,,,,,,,,,,,,,,,,,,,,,,,,,,,,,,,,,,,,,,,,,,,,,,
1763973755.764947,34336.0,0.0,4397.307617,4413.461426,4535.128418,4541.410156,4423.589844,4534.230957,4563.461426,4407.179688,4602.307617,4420.512695,4512.307617,4528.077148,4581.538574,4412.692383,4418.077148,4513.461426,4561.282227,4549.102539,4530.641113,4413.846191,4424.487305,4581.538574,4541.538574,4521.153809,4415.384766,4606.666504,4408.205078,4574.743652,4525.128418,4420.0,4551.282227,4529.230957,2801.0,1.0,22.0,256.0,566.0,,,,0.0,4.0,4.0,4.0,4.0,4.0,4.0,4.0,4.0,4.0,4.0,4.0,4.0,4.0,4.0,4.0,4.0,4.0,4.0,4.0,4.0,4.0,4.0,4.0,4.0,4.0,4.0,4.0,4.0,4.0,4.0,4.0,4.0,100.0,,,,,,,,,,,,,,,,,,,,,,,,,,,,,,,,,,,,,,,,,,,,,,,,,,,,,,,,,,,,,,,,,,,,,,,,,,,,,,,,,,,,,,,,,,,,,,,,,,,,,,,,,,,,,,,,,,,,,,,,,,,,,,,,,,,,,,,,,,,,,,,,,,,,,,,,,,,,,,,,,,,,,,,,,,,,,,,,,,,,,,,,,,,,,,,,,,,,,,,,,,,,,,
1763973755.768853,34337.0,0.0,4393.846191,4413.846191,4538.461426,4543.205078,4423.717773,4533.717773,4560.897461,4411.538574,4605.641113,4420.897461,4510.769043,4524.871582,4577.307617,4409.487305,4419.615234,4492.05127,4554.487305,4540.897461,4531.025879,4421.025879,4422.05127,4579.615234,4535.897461,4518.461426,4417.692383,4609.615234,4412.179688,4575.0,4526.025879,4420.897461,4551.025879,4528.333496,2944.0,1.0,22.0,256.0,566.0,,,,0.0,4.0,4.0,4.0,4.0,4.0,4.0,4.0,4.0,4.0,4.0,4.0,4.0,4.0,4.0,4.0,4.0,4.0,4.0,4.0,4.0,4.0,4.0,4.0,4.0,4.0,4.0,4.0,4.0,4.0,4.0,4.0,4.0,100.0,,,,,,,,,,,,,,,,,,,,,,,,,,,,,,,,,,,57736.0,0.0,0.661372,0.289673,0.246765,0.646362,1.003541,-0.001953,-0.080088,29.0,-26.166666,-23.666666,,,,,,,,,,,,,,,,,,,,,,,,,,,,,,,,,,,,,,,,,,,,,,,,,,,,,,,,,,,,,,,,,,,,,,,,,,,,,,,,,,,,,,,,,,,,,,,,,,,,,,,,,,,,,,,,,,,,,,,,,,,,,,,,,,,,,,,,,,,,,,,,,,,,,,,,,,,,,,,,
1763973755.772659,34338.0,0.0,4387.436035,4407.563965,4534.487305,4540.897461,4419.230957,4528.461426,4555.512695,4410.512695,4599.615234,4416.538574,4505.897461,4517.94873,4568.717773,4403.461426,4413.077148,4482.692383,4544.230957,4532.94873,4525.641113,4418.077148,4413.589844,4571.666504,4527.692383,4509.358887,4411.794922,4604.230957,4407.692383,4570.128418,4521.922852,4416.410156,4543.974121,4517.820313,2247.0,1.0,22.0,256.0,574.0,,,,0.0,4.0,4.0,4.0,4.0,4.0,4.0,4.0,4.0,4.0,4.0,4.0,4.0,4.0,4.0,4.0,4.0,4.0,4.0,4.0,4.0,4.0,4.0,4.0,4.0,4.0,4.0,4.0,4.0,4.0,4.0,4.0,4.0,100.0,,,,,,,,,,,,,,,,,,,,,,,,,,,,,,,,,,,,,,,,,,,,,,,,,,,,,,,,,,,,,,,,,,,,,,,,,,,,,,,,,,,,,,,,,,,,,,,,,,,,,,,,,,,,,,,,,,,,,,,,,,,,,,,,,,,,,,,,,,,,,,,,,,,,,,,,,,,,,,,,,,,,,,,,,,,,,,,,,,,,,,,,,,,,,,,,,,,,,,,,,,,,,,
1763973755.776565,34339.0,0.0,4382.820313,4399.615234,4526.538574,4537.436035,4414.743652,4522.179688,4551.410156,4406.666504,4589.358887,4410.512695,4501.153809,4512.692383,4562.563965,4399.102539,4403.846191,4490.0,4536.922852,4530.128418,4518.717773,4409.102539,4405.769043,4564.487305,4523.205078,4501.153809,4402.94873,4595.512695,4399.487305,4564.871582,4517.307617,4411.153809,4536.153809,4505.641113,2925.0,1.0,22.0,256.0,574.0,,,,0.0,4.0,4.0,4.0,4.0,4.0,4.0,4.0,4.0,4.0,4.0,4.0,4.0,4.0,4.0,4.0,4.0,4.0,4.0,4.0,4.0,4.0,4.0,4.0,4.0,4.0,4.0,4.0,4.0,4.0,4.0,4.0,4.0,100.0,,,,,,,,,,,,,,,,,,,,,,,,,,,,,,,,,,,,,,,,,,,,,,,,,,,,,,,,,,,,,,,,,,,,,,,,,,,,,,,,,,,,,,,,,,,,,,,,,,,,,,,,,,,,,,,,,,,,,,,,,,,,,,,,,,,,,,,,,,,,,,,,,,,,,,,,,,,,,,,,,,,,,,,,,,,,,,,,,,,,,,,,,,,,,,,,,,,,,,,,,,,,,,
1763973755.780571,34340.0,0.0,4382.563965,4395.641113,4520.0,4535.769043,4414.358887,4519.358887,4551.282227,4403.846191,4581.922852,4406.922852,4499.743652,4513.077148,4563.589844,4399.615234,4397.94873,4506.794922,4537.05127,4533.846191,4514.871582,4401.025879,4405.0,4564.102539,4525.512695,4500.384766,4398.333496,4590.256348,4394.358887,4563.461426,4515.897461,4409.487305,4533.717773,4500.641113,2828.0,1.0,22.0,512.0,582.0,,,,0.0,4.0,4.0,4.0,4.0,4.0,4.0,4.0,4.0,4.0,4.0,4.0,4.0,4.0,4.0,4.0,4.0,4.0,4.0,4.0,4.0,4.0,4.0,4.0,4.0,4.0,4.0,4.0,4.0,4.0,4.0,4.0,4.0,100.0,,,,,,,,,,,,,,,,,,,,,,,,,,,,,,,,,,,,,,,,,,,,,,,,,,,,,,,,,,,,,,,,,,,,,,,,,,,,,,,,,,,,,,,,,,,,,,,,,,,,,,,,,,,,,,,,,,,,,,,,,,,,,,,,,,,,,,,,,,,,,,,,,,,,,,,,,,,,,,,,,,,,,,,,,,,,,,,,,,,,,,,,,,,,,,,,,,,,,,,,,,,,,,
1763973755.784477,34341.0,0.0,4385.897461,4397.307617,4517.563965,4536.410156,4418.333496,4521.410156,4554.871582,4403.589844,4581.153809,4407.692383,4502.179688,4518.717773,4570.256348,4404.102539,4397.307617,4520.384766,4543.461426,4540.128418,4515.256348,4397.563965,4412.692383,4570.897461,4532.436035,4507.436035,4400.897461,4590.641113,4395.641113,4566.153809,4518.077148,4412.05127,4536.666504,4505.0,2374.0,1.0,22.0,512.0,582.0,,,,0.0,4.0,4.0,4.0,4.0,4.0,4.0,4.0,4.0,4.0,4.0,4.0,4.0,4.0,4.0,4.0,4.0,4.0,4.0,4.0,4.0,4.0,4.0,4.0,4.0,4.0,4.0,4.0,4.0,4.0,4.0,4.0,4.0,100.0,,,,,,,,,,,,,,,,,,,,,,,,,,,,,,,,,,,57737.0,0.0,0.661256,0.289917,0.246948,0.646301,0.99182,-0.007813,-0.061531,28.5,-27.0,-23.666666,,,,,,,,,,,,,,,,,,,,,,,,,,,,,,,,,,,,,,,,,,,,,,,,,,,,,,,,,,,,,,,,,,,,,,,,,,,,,,,,,,,,,,,,,,,,,,,,,,,,,,,,,,,,,,,,,,,,,,,,,,,,,,,,,,,,,,,,,,,,,,,,,,,,,,,,,,,,,,,,
1763973755.788383,34342.0,0.0,4389.102539,4402.179688,4518.077148,4538.077148,4423.461426,4526.153809,4559.358887,4405.0,4585.0,4411.922852,4506.282227,4525.256348,4577.692383,4408.846191,4399.358887,4523.589844,4551.538574,4543.974121,4517.436035,4397.820313,4423.461426,4580.0,4538.846191,4516.538574,4407.820313,4594.102539,4401.282227,4569.487305,4521.410156,4416.282227,4540.641113,4513.846191,2916.0,1.0,22.0,768.0,589.0,,,,0.0,4.0,4.0,4.0,4.0,4.0,4.0,4.0,4.0,4.0,4.0,4.0,4.0,4.0,4.0,4.0,4.0,4.0,4.0,4.0,4.0,4.0,4.0,4.0,4.0,4.0,4.0,4.0,4.0,4.0,4.0,4.0,4.0,100.0,,,,,,,,,,,,,,,,,,,,,,,,,,,,,,,,,,,,,,,,,,,,,,,,,,,,,,,,,,,,,,,,,,,,,,,,,,,,,,,,,,,,,,,,,,,,,,,,,,,,,,,,,,,,,,,,,,,,,,,,,,,,,,,,,,,,,,,,,,,,,,,,,,,,,,,,,,,,,,,,,,,,,,,,,,,,,,,,,,,,,,,,,,,,,,,,,,,,,,,,,,,,,,
1763973755.792289,34343.0,0.0,4389.871582,4406.666504,4519.871582,4539.487305,4426.282227,4530.769043,4562.563965,4406.153809,4589.743652,4416.666504,4510.256348,4530.0,4582.820313,4411.410156,4401.538574,4520.384766,4557.692383,4543.974121,4519.871582,4399.358887,4430.897461,4586.538574,4541.922852,4521.922852,4413.461426,4597.05127,4406.666504,4571.153809,4523.589844,4419.358887,4541.922852,4520.769043,2928.0,1.0,22.0,768.0,589.0,,,,0.0,4.0,4.0,4.0,4.0,4.0,4.0,4.0,4.0,4.0,4.0,4.0,4.0,4.0,4.0,4.0,4.0,4.0,4.0,4.0,4.0,4.0,4.0,4.0,4.0,4.0,4.0,4.0,4.0,4.0,4.0,4.0,4.0,100.0,,,,,,,,,,,,,,,,,,,,,,,,,,,,,,,,,,,,,,,,,,,,,,,,,,,,,,,,,,,,,,,,,,,,,,,,,,,,,,,,,,,,,,,,,,,,,,,,,,,,,,,,,,,,,,,,,,,,,,,,,,,,,,,,,,,,,,,,,,,,,,,,,,,,,,,,,,,,,,,,,,,,,,,,,,,,,,,,,,,,,,,,,,,,,,,,,,,,,,,,,,,,,,
1763973755.796195,34344.0,0.0,4389.102539,4410.0,4522.94873,4541.282227,4426.794922,4534.230957,4565.128418,4407.692383,4593.589844,4419.615234,4513.974121,4534.487305,4587.436035,4412.692383,4404.358887,4521.666504,4562.179688,4544.102539,4523.077148,4401.153809,4432.307617,4589.615234,4543.077148,4522.307617,4415.0,4597.94873,4409.487305,4571.410156,4524.871582,4420.897461,4541.025879,4523.589844,2652.0,1.0,22.0,1024.0,597.0,,,,0.0,4.0,4.0,4.0,4.0,4.0,4.0,4.0,4.0,4.0,4.0,4.0,4.0,4.0,4.0,4.0,4.0,4.0,4.0,4.0,4.0,4.0,4.0,4.0,4.0,4.0,4.0,4.0,4.0,4.0,4.0,4.0,4.0,100.0,,,,,,,,,,,,,,,,,,,,,,,,,,,,,,,,,,,,,,,,,,,,,,,,,,,,,,,,,,,,,,,,,,,,,,,,,,,,,,,,,,,,,,,,,,,,,,,,,,,,,,,,,,,,,,,,,,,,,,,,,,,,,,,,,,,,,,,,,,,,,,,,,,,,,,,,,,,,,,,,,,,,,,,,,,,,,,,,,,,,,,,,,,,,,,,,,,,,,,,,,,,,,,
1763973755.800101,34345.0,0.0,4389.358887,4412.307617,4527.307617,4543.974121,4427.05127,4536.410156,4567.692383,4410.384766,4596.666504,4418.717773,4517.179688,4541.025879,4593.205078,4414.743652,4408.077148,4532.692383,4566.666504,4547.94873,4526.922852,4402.94873,4429.358887,4590.769043,4544.871582,4519.230957,4412.94873,4597.179688,4409.871582,4572.179688,4525.769043,4421.922852,4540.128418,4523.846191,2819.0,1.0,22.0,1024.0,597.0,,,,0.0,4.0,4.0,4.0,4.0,4.0,4.0,4.0,4.0,4.0,4.0,4.0,4.0,4.0,4.0,4.0,4.0,4.0,4.0,4.0,4.0,4.0,4.0,4.0,4.0,4.0,4.0,4.0,4.0,4.0,4.0,4.0,4.0,100.0,,,,,,,,,,,,,,,,,,,,,,,,,,,,,,,,,,,57738.0,0.0,0.661326,0.289673,0.246887,0.646362,1.011354,0.00879,-0.050787,27.166666,-25.666666,-26.833334,,,,,,,,,,,,,,,,,,,,,,,,,,,,,,,,,,,,,,,,,,,,,,,,,,,,,,,,,,,,,,,,,,,,,,,,,,,,,,,,,,,,,,,,,,,,,,,,,,,,,,,,,,,,,,,,,,,,,,,,,,,,,,,,,,,,,,,,,,,,,,,,,,,,,,,,,,,,,,,,
1763973755.804007,34346.0,0.0,4390.384766,4412.692383,4530.641113,4545.769043,4427.820313,4537.05127,4568.846191,4412.94873,4598.077148,4412.179688,4517.820313,4547.307617,4598.077148,4416.282227,4410.0,4546.538574,4569.743652,4552.820313,4528.461426,4402.820313,4424.615234,4590.128418,4546.025879,4514.230957,4408.589844,4594.487305,4407.436035,4572.307617,4525.769043,4421.666504,4539.615234,4523.205078,2645.0,1.0,22.0,1280.0,605.0,,,,0.0,4.0,4.0,4.0,4.0,4.0,4.0,4.0,4.0,4.0,4.0,4.0,4.0,4.0,4.0,4.0,4.0,4.0,4.0,4.0,4.0,4.0,4.0,4.0,4.0,4.0,4.0,4.0,4.0,4.0,4.0,4.0,4.0,100.0,,,,,,,,,,,,,,,,,,,,,,,,,,,,,,,,,,,,,,,,,,,,,,,,,,,,,,,,,,,,,,,,,,,,,,,,,,,,,,,,,,,,,,,,,,,,,,,,,,,,,,,,,,,,,,,,,,,,,,,,,,,,,,,,,,,,,,,,,,,,,,,,,,,,,,,,,,,,,,,,,,,,,,,,,,,,,,,,,,,,,,,,,,,,,,,,,,,,,,,,,,,,,,
1763973755.807913,34347.0,0.0,4390.128418,4410.128418,4529.487305,4543.077148,4427.563965,4535.256348,4566.025879,4412.05127,4595.769043,4400.641113,4513.333496,4548.846191,4597.179688,4414.230957,4407.307617,4550.641113,4568.077148,4552.820313,4524.358887,4398.589844,4419.615234,4586.282227,4543.461426,4507.436035,4403.077148,4589.102539,4402.307617,4569.871582,4523.205078,4418.333496,4538.333496,4521.538574,2966.0,1.0,22.0,1280.0,605.0,,,,0.0,4.0,4.0,4.0,4.0,4.0,4.0,4.0,4.0,4.0,4.0,4.0,4.0,4.0,4.0,4.0,4.0,4.0,4.0,4.0,4.0,4.0,4.0,4.0,4.0,4.0,4.0,4.0,4.0,4.0,4.0,4.0,4.0,100.0,,,,,,,,,,,,,,,,,,,,,,,,,,,,,,,,,,,,,,,,,,,,,,,,,,,,,,,,,,,,,,,,,,,,,,,,,,,,,,,,,,,,,,,,,,,,,,,,,,,,,,,,,,,,,,,,,,,,,,,,,,,,,,,,,,,,,,,,,,,,,,,,,,,,,,,,,,,,,,,,,,,,,,,,,,,,,,,,,,,,,,,,,,,,,,,,,,,,,,,,,,,,,,
1763973755.811819,34348.0,0.0,4388.589844,4405.512695,4523.974121,4535.641113,4425.641113,4531.922852,4559.871582,4407.179688,4589.871582,4388.717773,4505.384766,4543.846191,4590.128418,4408.717773,4400.641113,4539.871582,4561.922852,4546.282227,4516.794922,4391.666504,4416.153809,4580.128418,4537.820313,4501.153809,4398.589844,4582.692383,4396.794922,4564.871582,4519.230957,4413.205078,4536.153809,4519.102539,2924.0,1.0,22.0,1536.0,613.0,,,,0.0,4.0,4.0,4.0,4.0,4.0,4.0,4.0,4.0,4.0,4.0,4.0,4.0,4.0,4.0,4.0,4.0,4.0,4.0,4.0,4.0,4.0,4.0,4.0,4.0,4.0,4.0,4.0,4.0,4.0,4.0,4.0,4.0,100.0,,,,,,,,,,,,,,,,,,,,,,,,,,,,,,,,,,,,,,,,,,,,,,,,,,,,,,,,,,,,,,,,,,,,,,,,,,,,,,,,,,,,,,,,,,,,,,,,,,,,,,,,,,,,,,,,,,,,,,,,,,,,,,,,,,,,,,,,,,,,,,,,,,,,,,,,,,,,,,,,,,,,,,,,,,,,,,,,,,,,,,,,,,,,,,,,,,,,,,,,,,,,,,
1763973755.815725,34349.0,0.0,4389.871582,4403.461426,4520.0,4529.487305,4424.102539,4530.641113,4555.512695,4402.563965,4584.871582,4385.512695,4500.512695,4537.94873,4583.461426,4405.0,4396.410156,4522.563965,4557.179688,4540.256348,4514.743652,4387.94873,4417.692383,4577.563965,4535.128418,4501.025879,4398.846191,4580.641113,4396.153809,4562.563965,4517.94873,4411.410156,4535.897461,4518.589844,2778.0,1.0,22.0,1536.0,613.0,,,,0.0,4.0,4.0,4.0,4.0,4.0,4.0,4.0,4.0,4.0,4.0,4.0,4.0,4.0,4.0,4.0,4.0,4.0,4.0,4.0,4.0,4.0,4.0,4.0,4.0,4.0,4.0,4.0,4.0,4.0,4.0,4.0,4.0,100.0,,,,,,,,,,,,,,,,,,,,,,,,,,,,,,,,,,,57739.0,0.0,0.661313,0.289734,0.247009,0.646301,1.008424,0.002442,-0.057624,29.0,-26.166666,-24.166666,,,,,,,,,,,,,,,,,,,,,,,,,,,,,,,,,,,,,,,,,,,,,,,,,,,,,,,,,,,,,,,,,,,,,,,,,,,,,,,,,,,,,,,,,,,,,,,,,,,,,,,,,,,,,,,,,,,,,,,,,,,,,,,,,,,,,,,,,,,,,,,,,,,,,,,,,,,,,,,,
1763973755.819631,34350.0,0.0,4397.820313,4407.820313,4523.846191,4532.05127,4425.641113,4534.358887,4558.846191,4403.589844,4586.922852,4396.282227,4504.487305,4538.846191,4585.641113,4408.974121,4400.769043,4513.461426,4561.025879,4544.487305,4526.025879,4392.436035,4426.922852,4584.230957,4541.538574,4511.538574,4406.922852,4587.820313,4403.846191,4568.077148,4523.589844,4417.307617,4541.538574,4522.820313,2730.0,1.0,22.0,1792.0,621.0,,,,0.0,4.0,4.0,4.0,4.0,4.0,4.0,4.0,4.0,4.0,4.0,4.0,4.0,4.0,4.0,4.0,4.0,4.0,4.0,4.0,4.0,4.0,4.0,4.0,4.0,4.0,4.0,4.0,4.0,4.0,4.0,4.0,4.0,100.0,,,,,,,,,,,,,,,,,,,,,,,,,,,,,,,,,,,,,,,,,,,,,,,2.811358,4.097642,1.784136,1.605246,0.78735,2.613619,5.458105,1.416235,1.549663,0.709828,3.099394,3.419203,1.80085,1.118095,0.850685,2.475922,3.010781,1.18362,1.088238,0.614929,2.060987,2.966989,1.006424,1.002521,0.557242,1.791864,2.486263,0.726623,0.938258,0.468555,2.221173,3.636912,1.261076,1.3413,0.782086,1.617655,3.160491,0.867962,1.271647,0.763622,2.155639,1.934831,0.531022,1.086753,0.771218,1.001908,1.619551,0.781131,2.92013,1.37948,0.900116,1.48794,0.648262,1.445584,0.589464,3.091146,5.027687,2.2203,1.492206,0.792011,1.597707,2.351882,2.535425,1.918447,0.882772,0.56482,0.636975,0.95299,1.390654,0.750142,0.635552,1.065001,1.161523,1.171552,0.806056,1.353978,3.860907,2.806823,4.522161,1.635753,2.467062,6.186172,5.664547,1.820709,0.865277,1.048199,1.99868,1.771398,2.219351,1.142639,1.373227,1.406695,1.573083,1.621604,1.174238,1.398972,1.904192,1.029151,1.033159,1.0561,1.939588,3.082267,1.855982,1.240562,1.064834,3.157862,6.401623,4.526824,2.071192,1.019309,3.475045,5.947829,4.15426,2.038205,0.938376,3.337125,4.61883,2.162196,1.6892,0.800527,3.893473,5.488894,1.229269,1.783116,0.841445,2.49789,4.29816,0.999755,1.11519,0.839877,3.581911,5.946328,1.284892,1.704749,0.820406,3.470888,4.932867,2.05308,1.647202,0.823189,3.358279,5.384296,1.037894,1.651251,0.82523,3.277648,5.614227,1.086875,1.524142,0.76871,3.803973,7.102732,1.026814,1.207495,0.693115,3.209635,5.329859,0.991972,1.362157,0.676679
1763973755.823537,34351.0,0.0,4410.897461,4416.794922,4535.384766,4544.102539,4430.384766,4541.794922,4569.743652,4410.769043,4596.922852,4417.179688,4516.538574,4549.102539,4597.94873,4420.641113,4413.461426,4521.025879,4573.717773,4561.153809,4548.461426,4404.487305,4441.025879,4599.358887,4555.641113,4529.102539,4420.897461,4603.077148,4416.922852,4580.641113,4534.743652,4428.846191,4552.05127,4530.769043,2783.0,1.0,22.0,1792.0,621.0,,,,0.0,4.0,4.0,4.0,4.0,4.0,4.0,4.0,4.0,4.0,4.0,4.0,4.0,4.0,4.0,4.0,4.0,4.0,4.0,4.0,4.0,4.0,4.0,4.0,4.0,4.0,4.0,4.0,4.0,4.0,4.0,4.0,4.0,100.0,,,,,,,,,,,,,,,,,,,,,,,,,,,,,,,,,,,,,,,,,,,,,,,,,,,,,,,,,,,,,,,,,,,,,,,,,,,,,,,,,,,,,,,,,,,,,,,,,,,,,,,,,,,,,,,,,,,,,,,,,,,,,,,,,,,,,,,,,,,,,,,,,,,,,,,,,,,,,,,,,,,,,,,,,,,,,,,,,,,,,,,,,,,,,,,,,,,,,,,,,,,,,,
1763973755.827443,34352.0,0.0,4421.410156,4423.077148,4546.538574,4557.179688,4433.717773,4547.179688,4580.641113,4417.307617,4608.589844,4435.384766,4528.333496,4561.410156,4612.436035,4432.820313,4426.538574,4540.128418,4587.307617,4581.025879,4568.974121,4416.282227,4451.410156,4613.717773,4567.94873,4542.94873,4432.94873,4617.05127,4426.410156,4591.922852,4543.717773,4437.692383,4560.769043,4537.436035,2902.0,1.0,22.0,2048.0,629.0,,,,0.0,4.0,4.0,4.0,4.0,4.0,4.0,4.0,4.0,4.0,4.0,4.0,4.0,4.0,4.0,4.0,4.0,4.0,4.0,4.0,4.0,4.0,4.0,4.0,4.0,4.0,4.0,4.0,4.0,4.0,4.0,4.0,4.0,100.0,,,,,,,,,,,,,,,,,,,,,,,,,,,,,,,,,,,,,,,,,,,,,,,,,,,,,,,,,,,,,,,,,,,,,,,,,,,,,,,,,,,,,,,,,,,,,,,,,,,,,,,,,,,,,,,,,,,,,,,,,,,,,,,,,,,,,,,,,,,,,,,,,,,,,,,,,,,,,,,,,,,,,,,,,,,,,,,,,,,,,,,,,,,,,,,,,,,,,,,,,,,,,,
1763973755.831349,34353.0,0.0,4421.666504,4419.487305,4547.307617,4559.615234,4430.897461,4544.615234,4582.307617,4415.128418,4612.94873,4438.461426,4530.512695,4565.0,4617.692383,4436.666504,4430.897461,4557.692383,4591.410156,4590.256348,4573.461426,4418.846191,4449.487305,4616.410156,4568.589844,4542.820313,4434.615234,4619.871582,4424.230957,4592.307617,4542.307617,4436.410156,4560.0,4536.282227,3025.0,1.0,22.0,2048.0,629.0,,,,0.0,4.0,4.0,4.0,4.0,4.0,4.0,4.0,4.0,4.0,4.0,4.0,4.0,4.0,4.0,4.0,4.0,4.0,4.0,4.0,4.0,4.0,4.0,4.0,4.0,4.0,4.0,4.0,4.0,4.0,4.0,4.0,4.0,100.0,,,,,,,,,,,,,,,,,,,,,,,,,,,,,,,,,,,57740.0,0.0,0.661323,0.289795,0.24707,0.64624,1.001099,0.001953,-0.070809,28.5,-26.166666,-24.5,,,,,,,,,,,,,,,,,,,,,,,,,,,,,,,,,,,,,,,,,,,,,,,,,,,,,,,,,,,,,,,,,,,,,,,,,,,,,,,,,,,,,,,,,,,,,,,,,,,,,,,,,,,,,,,,,,,,,,,,,,,,,,,,,,,,,,,,,,,,,,,,,,,,,,,,,,,,,,,,
1763973755.835255,34354.0,0.0,4410.384766,4406.282227,4534.102539,4547.05127,4421.153809,4533.205078,4571.282227,4402.563965,4605.256348,4424.743652,4520.0,4554.102539,4608.846191,4429.358887,4423.846191,4562.436035,4582.179688,4581.666504,4557.820313,4409.358887,4434.230957,4603.717773,4555.128418,4527.820313,4423.846191,4609.230957,4410.256348,4579.743652,4529.102539,4424.487305,4547.820313,4525.256348,2806.0,1.0,22.0,2304.0,636.0,,,,0.0,4.0,4.0,4.0,4.0,4.0,4.0,4.0,4.0,4.0,4.0,4.0,4.0,4.0,4.0,4.0,4.0,4.0,4.0,4.0,4.0,4.0,4.0,4.0,4.0,4.0,4.0,4.0,4.0,4.0,4.0,4.0,4.0,100.0,,,,,,,,,,,,,,,,,,,,,,,,,,,,,,,,,,,,,,,,,,,,,,,,,,,,,,,,,,,,,,,,,,,,,,,,,,,,,,,,,,,,,,,,,,,,,,,,,,,,,,,,,,,,,,,,,,,,,,,,,,,,,,,,,,,,,,,,,,,,,,,,,,,,,,,,,,,,,,,,,,,,,,,,,,,,,,,,,,,,,,,,,,,,,,,,,,,,,,,,,,,,,,
1763973755.839161,34355.0,0.0,4394.230957,4390.769043,4513.333496,4525.897461,4409.230957,4518.717773,4553.589844,4386.025879,4589.358887,4404.230957,4502.692383,4533.717773,4590.641113,4415.897461,4410.897461,4551.922852,4564.871582,4560.128418,4531.282227,4393.974121,4413.077148,4582.307617,4535.384766,4507.05127,4406.794922,4592.179688,4393.077148,4561.153809,4511.153809,4408.846191,4530.512695,4509.743652,2990.0,1.0,22.0,2304.0,636.0,,,,0.0,4.0,4.0,4.0,4.0,4.0,4.0,4.0,4.0,4.0,4.0,4.0,4.0,4.0,4.0,4.0,4.0,4.0,4.0,4.0,4.0,4.0,4.0,4.0,4.0,4.0,4.0,4.0,4.0,4.0,4.0,4.0,4.0,100.0,,,,,,,,,,,,,,,,,,,,,,,,,,,,,,,,,,,,,,,,,,,,,,,,,,,,,,,,,,,,,,,,,,,,,,,,,,,,,,,,,,,,,,,,,,,,,,,,,,,,,,,,,,,,,,,,,,,,,,,,,,,,,,,,,,,,,,,,,,,,,,,,,,,,,,,,,,,,,,,,,,,,,,,,,,,,,,,,,,,,,,,,,,,,,,,,,,,,,,,,,,,,,,
1763973755.843067,34356.0,0.0,4383.077148,4381.922852,4497.179688,4509.102539,4401.538574,4509.487305,4539.615234,4375.641113,4575.256348,4391.538574,4488.717773,4515.641113,4573.846191,4404.487305,4401.282227,4533.205078,4549.230957,4538.589844,4508.846191,4383.205078,4397.94873,4563.461426,4521.025879,4492.05127,4393.205078,4579.615234,4383.461426,4547.436035,4499.102539,4398.461426,4518.205078,4498.077148,2970.0,1.0,22.0,2560.0,644.0,,,,0.0,4.0,4.0,4.0,4.0,4.0,4.0,4.0,4.0,4.0,4.0,4.0,4.0,4.0,4.0,4.0,4.0,4.0,4.0,4.0,4.0,4.0,4.0,4.0,4.0,4.0,4.0,4.0,4.0,4.0,4.0,4.0,4.0,100.0,,,,,,,,,,,,,,,,,,,,,,,,,,,,,,,,,,,,,,,,,,,,,,,,,,,,,,,,,,,,,,,,,,,,,,,,,,,,,,,,,,,,,,,,,,,,,,,,,,,,,,,,,,,,,,,,,,,,,,,,,,,,,,,,,,,,,,,,,,,,,,,,,,,,,,,,,,,,,,,,,,,,,,,,,,,,,,,,,,,,,,,,,,,,,,,,,,,,,,,,,,,,,,
1763973755.846973,34357.0,0.0,4383.205078,4383.974121,4494.615234,4506.538574,4401.666504,4510.769043,4536.794922,4377.563965,4572.179688,4394.230957,4485.769043,4510.128418,4567.563965,4401.794922,4401.153809,4518.461426,4543.205078,4528.717773,4501.153809,4384.230957,4396.410156,4555.641113,4519.615234,4489.743652,4390.128418,4577.820313,4386.794922,4546.025879,4499.358887,4398.205078,4517.05127,4496.538574,2821.0,1.0,22.0,2560.0,644.0,,,,0.0,4.0,4.0,4.0,4.0,4.0,4.0,4.0,4.0,4.0,4.0,4.0,4.0,4.0,4.0,4.0,4.0,4.0,4.0,4.0,4.0,4.0,4.0,4.0,4.0,4.0,4.0,4.0,4.0,4.0,4.0,4.0,4.0,100.0,,,,,,,,,,,,,,,,,,,,,,,,,,,,,,,,,,,57741.0,0.0,0.661274,0.289856,0.247131,0.64624,0.99475,-0.01172,-0.068368,29.5,-25.166666,-22.666666,,,,,,,,,,,,,,,,,,,,,,,,,,,,,,,,,,,,,,,,,,,,,,,,,,,,,,,,,,,,,,,,,,,,,,,,,,,,,,,,,,,,,,,,,,,,,,,,,,,,,,,,,,,,,,,,,,,,,,,,,,,,,,,,,,,,,,,,,,,,,,,,,,,,,,,,,,,,,,,,
1763973755.850879,34358.0,0.0,4393.461426,4394.102539,4505.641113,4518.589844,4407.820313,4521.025879,4545.512695,4389.871582,4581.922852,4408.077148,4494.487305,4518.461426,4573.846191,4407.692383,4409.358887,4515.769043,4547.563965,4533.974121,4508.205078,4395.897461,4407.179688,4560.128418,4529.358887,4498.333496,4397.692383,4585.769043,4400.0,4556.025879,4510.384766,4406.282227,4526.025879,4505.256348,2955.0,1.0,22.0,2560.0,652.0,,,,0.0,4.0,4.0,4.0,4.0,4.0,4.0,4.0,4.0,4.0,4.0,4.0,4.0,4.0,4.0,4.0,4.0,4.0,4.0,4.0,4.0,4.0,4.0,4.0,4.0,4.0,4.0,4.0,4.0,4.0,4.0,4.0,4.0,100.0,,,,,,,,,,,,,,,,,,,,,,,,,,,,,,,,,,,,,,,,,,,,,,,,,,,,,,,,,,,,,,,,,,,,,,,,,,,,,,,,,,,,,,,,,,,,,,,,,,,,,,,,,,,,,,,,,,,,,,,,,,,,,,,,,,,,,,,,,,,,,,,,,,,,,,,,,,,,,,,,,,,,,,,,,,,,,,,,,,,,,,,,,,,,,,,,,,,,,,,,,,,,,,
1763973755.854785,34359.0,0.0,4406.794922,4405.128418,4521.538574,4536.666504,4415.641113,4533.461426,4558.846191,4404.230957,4597.820313,4420.897461,4507.94873,4532.563965,4586.153809,4416.410156,4419.358887,4524.358887,4557.307617,4547.563965,4521.025879,4409.102539,4422.307617,4570.384766,4542.05127,4509.871582,4409.487305,4596.538574,4413.717773,4569.743652,4524.102539,4417.05127,4538.333496,4518.205078,2914.0,1.0,22.0,2560.0,652.0,,,,0.0,4.0,4.0,4.0,4.0,4.0,4.0,4.0,4.0,4.0,4.0,4.0,4.0,4.0,4.0,4.0,4.0,4.0,4.0,4.0,4.0,4.0,4.0,4.0,4.0,4.0,4.0,4.0,4.0,4.0,4.0,4.0,4.0,100.0,,,,,,,,,,,,,,,,,,,,,,,,,,,,,,,,,,,,,,,,,,,,,,,,,,,,,,,,,,,,,,,,,,,,,,,,,,,,,,,,,,,,,,,,,,,,,,,,,,,,,,,,,,,,,,,,,,,,,,,,,,,,,,,,,,,,,,,,,,,,,,,,,,,,,,,,,,,,,,,,,,,,,,,,,,,,,,,,,,,,,,,,,,,,,,,,,,,,,,,,,,,,,,
1763973755.858691,34360.0,0.0,4415.128418,4411.025879,4532.563965,4549.230957,4420.897461,4540.641113,4568.589844,4412.692383,4609.871582,4422.179688,4516.922852,4541.794922,4594.615234,4421.410156,4424.230957,4534.615234,4564.743652,4557.436035,4529.487305,4414.743652,4432.179688,4578.077148,4549.230957,4517.307617,4418.077148,4603.717773,4419.230957,4578.974121,4532.436035,4424.615234,4546.666504,4528.077148,2879.0,1.0,22.0,1280.0,660.0,,,,0.0,4.0,4.0,4.0,4.0,4.0,4.0,4.0,4.0,4.0,4.0,4.0,4.0,4.0,4.0,4.0,4.0,4.0,4.0,4.0,4.0,4.0,4.0,4.0,4.0,4.0,4.0,4.0,4.0,4.0,4.0,4.0,4.0,100.0,,,,,,,,,,,,,,,,,,,,,,,,,,,,,,,,,,,,,,,,,,,,,,,,,,,,,,,,,,,,,,,,,,,,,,,,,,,,,,,,,,,,,,,,,,,,,,,,,,,,,,,,,,,,,,,,,,,,,,,,,,,,,,,,,,,,,,,,,,,,,,,,,,,,,,,,,,,,,,,,,,,,,,,,,,,,,,,,,,,,,,,,,,,,,,,,,,,,,,,,,,,,,,
1763973755.862597,34361.0,0.0,4414.487305,4410.384766,4533.333496,4550.256348,4422.05127,4540.0,4569.102539,4411.666504,4611.794922,4410.256348,4516.282227,4540.256348,4593.333496,4419.102539,4421.666504,4536.282227,4565.384766,4555.256348,4528.589844,4409.487305,4432.05127,4578.205078,4547.436035,4517.563965,4419.358887,4604.487305,4414.487305,4579.102539,4531.538574,4426.153809,4547.05127,4530.641113,2820.0,1.0,22.0,1280.0,660.0,,,,0.0,4.0,4.0,4.0,4.0,4.0,4.0,4.0,4.0,4.0,4.0,4.0,4.0,4.0,4.0,4.0,4.0,4.0,4.0,4.0,4.0,4.0,4.0,4.0,4.0,4.0,4.0,4.0,4.0,4.0,4.0,4.0,4.0,100.0,,,,,,,,,,,,,,,,,,,,,,,,,,,,,,,,,,,57742.0,0.0,0.661257,0.289978,0.247192,0.646179,0.99475,-0.01172,-0.068368,27.5,-26.0,-23.833334,,,,,,,,,,,,,,,,,,,,,,,,,,,,,,,,,,,,,,,,,,,,,,,,,,,,,,,,,,,,,,,,,,,,,,,,,,,,,,,,,,,,,,,,,,,,,,,,,,,,,,,,,,,,,,,,,,,,,,,,,,,,,,,,,,,,,,,,,,,,,,,,,,,,,,,,,,,,,,,,
1763973755.866503,34362.0,0.0,4407.179688,4406.025879,4525.512695,4541.666504,4420.256348,4534.358887,4561.666504,4404.102539,4604.358887,4393.461426,4507.692383,4531.025879,4584.358887,4411.538574,4414.358887,4526.922852,4559.871582,4542.179688,4520.897461,4397.820313,4424.102539,4571.538574,4539.871582,4513.077148,4414.102539,4600.512695,4404.230957,4572.179688,4523.974121,4423.077148,4541.153809,4526.282227,2781.0,1.0,22.0,1536.0,668.0,,,,0.0,4.0,4.0,4.0,4.0,4.0,4.0,4.0,4.0,4.0,4.0,4.0,4.0,4.0,4.0,4.0,4.0,4.0,4.0,4.0,4.0,4.0,4.0,4.0,4.0,4.0,4.0,4.0,4.0,4.0,4.0,4.0,4.0,100.0,,,,,,,,,,,,,,,,,,,,,,,,,,,,,,,,,,,,,,,,,,,,,,,,,,,,,,,,,,,,,,,,,,,,,,,,,,,,,,,,,,,,,,,,,,,,,,,,,,,,,,,,,,,,,,,,,,,,,,,,,,,,,,,,,,,,,,,,,,,,,,,,,,,,,,,,,,,,,,,,,,,,,,,,,,,,,,,,,,,,,,,,,,,,,,,,,,,,,,,,,,,,,,
1763973755.870409,34363.0,0.0,4399.230957,4403.205078,4516.153809,4531.922852,4418.461426,4529.487305,4553.333496,4396.922852,4594.615234,4384.358887,4498.589844,4522.563965,4575.384766,4404.358887,4407.94873,4513.205078,4553.205078,4528.333496,4513.333496,4387.692383,4415.384766,4564.102539,4533.205078,4509.102539,4407.436035,4595.384766,4396.922852,4564.230957,4516.794922,4420.0,4534.230957,4519.358887,2989.0,1.0,22.0,1536.0,668.0,,,,0.0,4.0,4.0,4.0,4.0,4.0,4.0,4.0,4.0,4.0,4.0,4.0,4.0,4.0,4.0,4.0,4.0,4.0,4.0,4.0,4.0,4.0,4.0,4.0,4.0,4.0,4.0,4.0,4.0,4.0,4.0,4.0,4.0,100.0,,,,,,,,,,,,,,,,,,,,,,,,,,,,,,,,,,,,,,,,,,,,,,,,,,,,,,,,,,,,,,,,,,,,,,,,,,,,,,,,,,,,,,,,,,,,,,,,,,,,,,,,,,,,,,,,,,,,,,,,,,,,,,,,,,,,,,,,,,,,,,,,,,,,,,,,,,,,,,,,,,,,,,,,,,,,,,,,,,,,,,,,,,,,,,,,,,,,,,,,,,,,,,
1763973755.874315,34364.0,0.0,4397.307617,4405.769043,4512.820313,4529.615234,4419.487305,4530.0,4550.897461,4396.153809,4590.897461,4391.153809,4496.282227,4522.692383,4573.974121,4402.94873,4406.794922,4504.871582,4551.025879,4524.230957,4512.179688,4385.0,4412.94873,4562.563965,4533.461426,4509.358887,4404.487305,4592.307617,4397.820313,4561.538574,4516.538574,4420.641113,4531.922852,4515.512695,2954.0,1.0,22.0,1792.0,675.0,,,,0.0,4.0,4.0,4.0,4.0,4.0,4.0,4.0,4.0,4.0,4.0,4.0,4.0,4.0,4.0,4.0,4.0,4.0,4.0,4.0,4.0,4.0,4.0,4.0,4.0,4.0,4.0,4.0,4.0,4.0,4.0,4.0,4.0,100.0,,,,,,,,,,,,,,,,,,,,,,,,,,,,,,,,,,,,,,,,,,,,,,,,,,,,,,,,,,,,,,,,,,,,,,,,,,,,,,,,,,,,,,,,,,,,,,,,,,,,,,,,,,,,,,,,,,,,,,,,,,,,,,,,,,,,,,,,,,,,,,,,,,,,,,,,,,,,,,,,,,,,,,,,,,,,,,,,,,,,,,,,,,,,,,,,,,,,,,,,,,,,,,
1763973755.878221,34365.0,0.0,4403.589844,4414.358887,4518.974121,4537.436035,4424.487305,4536.282227,4556.794922,4403.077148,4596.794922,4411.922852,4503.205078,4532.436035,4581.794922,4408.461426,4411.666504,4507.179688,4555.769043,4533.461426,4519.743652,4390.0,4419.615234,4570.384766,4542.05127,4514.871582,4407.820313,4592.94873,4407.05127,4566.410156,4525.512695,4426.025879,4536.282227,4518.589844,2801.0,1.0,22.0,1792.0,675.0,,,,0.0,4.0,4.0,4.0,4.0,4.0,4.0,4.0,4.0,4.0,4.0,4.0,4.0,4.0,4.0,4.0,4.0,4.0,4.0,4.0,4.0,4.0,4.0,4.0,4.0,4.0,4.0,4.0,4.0,4.0,4.0,4.0,4.0,100.0,,,,,,,,,,,,,,,,,,,,,,,,,,,,,,,,,,,57743.0,0.0,0.661072,0.290161,0.247314,0.64624,0.989867,-0.015627,-0.058113,27.333334,-26.666666,-25.333334,,,,,,,,,,,,,,,,,,,,,,,,,,,,,,,,,,,,,,,,,,,,,,,,,,,,,,,,,,,,,,,,,,,,,,,,,,,,,,,,,,,,,,,,,,,,,,,,,,,,,,,,,,,,,,,,,,,,,,,,,,,,,,,,,,,,,,,,,,,,,,,,,,,,,,,,,,,,,,,,
1763973755.882127,34366.0,0.0,4414.615234,4426.538574,4532.436035,4551.538574,4432.307617,4544.615234,4567.307617,4414.102539,4609.358887,4436.410156,4516.538574,4546.666504,4594.615234,4418.461426,4420.0,4518.974121,4565.641113,4551.025879,4533.077148,4399.230957,4431.794922,4584.871582,4555.384766,4523.461426,4416.153809,4597.307617,4419.487305,4577.179688,4540.512695,4434.230957,4546.410156,4529.102539,2988.0,1.0,22.0,2048.0,683.0,,,,0.0,4.0,4.0,4.0,4.0,4.0,4.0,4.0,4.0,4.0,4.0,4.0,4.0,4.0,4.0,4.0,4.0,4.0,4.0,4.0,4.0,4.0,4.0,4.0,4.0,4.0,4.0,4.0,4.0,4.0,4.0,4.0,4.0,100.0,,,,,,,,,,,,,,,,,,,,,,,,,,,,,,,,,,,,,,,,,,,,,,,,,,,,,,,,,,,,,,,,,,,,,,,,,,,,,,,,,,,,,,,,,,,,,,,,,,,,,,,,,,,,,,,,,,,,,,,,,,,,,,,,,,,,,,,,,,,,,,,,,,,,,,,,,,,,,,,,,,,,,,,,,,,,,,,,,,,,,,,,,,,,,,,,,,,,,,,,,,,,,,
1763973755.886033,34367.0,0.0,4423.589844,4437.563965,4546.666504,4564.358887,4440.0,4550.641113,4576.666504,4423.333496,4620.897461,4451.666504,4529.102539,4557.563965,4605.128418,4427.307617,4427.94873,4534.358887,4576.153809,4567.94873,4546.410156,4408.077148,4442.94873,4599.487305,4567.436035,4531.922852,4425.769043,4604.102539,4428.974121,4588.461426,4554.615234,4442.179688,4558.333496,4542.820313,2903.0,1.0,22.0,2048.0,683.0,,,,0.0,4.0,4.0,4.0,4.0,4.0,4.0,4.0,4.0,4.0,4.0,4.0,4.0,4.0,4.0,4.0,4.0,4.0,4.0,4.0,4.0,4.0,4.0,4.0,4.0,4.0,4.0,4.0,4.0,4.0,4.0,4.0,4.0,100.0,,,,,,,,,,,,,,,,,,,,,,,,,,,,,,,,,,,,,,,,,,,,,,,,,,,,,,,,,,,,,,,,,,,,,,,,,,,,,,,,,,,,,,,,,,,,,,,,,,,,,,,,,,,,,,,,,,,,,,,,,,,,,,,,,,,,,,,,,,,,,,,,,,,,,,,,,,,,,,,,,,,,,,,,,,,,,,,,,,,,,,,,,,,,,,,,,,,,,,,,,,,,,,
1763973755.889939,34368.0,0.0,4425.256348,4442.692383,4554.487305,4569.615234,4444.230957,4550.897461,4579.743652,4425.641113,4624.615234,4450.769043,4534.102539,4560.128418,4608.077148,4430.256348,4431.666504,4546.282227,4581.922852,4577.05127,4554.230957,4413.461426,4446.666504,4607.563965,4572.820313,4536.666504,4432.307617,4610.512695,4431.282227,4594.871582,4560.897461,4446.410156,4567.05127,4552.94873,2801.0,1.0,22.0,2048.0,691.0,,,,0.0,4.0,4.0,4.0,4.0,4.0,4.0,4.0,4.0,4.0,4.0,4.0,4.0,4.0,4.0,4.0,4.0,4.0,4.0,4.0,4.0,4.0,4.0,4.0,4.0,4.0,4.0,4.0,4.0,4.0,4.0,4.0,4.0,100.0,,,,,,,,,,,,,,,,,,,,,,,,,,,,,,,,,,,,,,,,,,,,,,,,,,,,,,,,,,,,,,,,,,,,,,,,,,,,,,,,,,,,,,,,,,,,,,,,,,,,,,,,,,,,,,,,,,,,,,,,,,,,,,,,,,,,,,,,,,,,,,,,,,,,,,,,,,,,,,,,,,,,,,,,,,,,,,,,,,,,,,,,,,,,,,,,,,,,,,,,,,,,,,
1763973755.893845,34369.0,0.0,4418.846191,4439.102539,4551.666504,4565.0,4442.563965,4544.487305,4575.384766,4419.487305,4618.205078,4436.153809,4528.461426,4553.589844,4602.692383,4425.641113,4429.230957,4549.871582,4580.512695,4575.769043,4553.589844,4414.358887,4441.025879,4606.282227,4569.102539,4535.641113,4432.94873,4612.820313,4426.410156,4593.205078,4556.794922,4443.974121,4568.461426,4553.846191,2941.0,1.0,22.0,2048.0,691.0,,,,0.0,4.0,4.0,4.0,4.0,4.0,4.0,4.0,4.0,4.0,4.0,4.0,4.0,4.0,4.0,4.0,4.0,4.0,4.0,4.0,4.0,4.0,4.0,4.0,4.0,4.0,4.0,4.0,4.0,4.0,4.0,4.0,4.0,100.0,,,,,,,,,,,,,,,,,,,,,,,,,,,,,,,,,,,57744.0,0.0,0.661032,0.290283,0.247437,0.646179,0.989867,-0.015627,-0.058113,28.0,-26.833334,-23.833334,,,,,,,,,,,,,,,,,,,,,,,,,,,,,,,,,,,,,,,,,,,,,,,,,,,,,,,,,,,,,,,,,,,,,,,,,,,,,,,,,,,,,,,,,,,,,,,,,,,,,,,,,,,,,,,,,,,,,,,,,,,,,,,,,,,,,,,,,,,,,,,,,,,,,,,,,,,,,,,,
1763973755.897751,34370.0,0.0,4408.846191,4428.461426,4540.256348,4553.205078,4435.512695,4534.615234,4565.641113,4407.436035,4605.0,4417.436035,4515.769043,4542.307617,4592.820313,4416.025879,4421.922852,4545.384766,4573.077148,4567.307617,4546.538574,4412.179688,4430.256348,4598.333496,4559.230957,4529.358887,4428.205078,4609.615234,4417.94873,4584.743652,4545.512695,4435.128418,4562.307617,4545.0,2250.0,1.0,22.0,2304.0,699.0,,,,0.0,4.0,4.0,4.0,4.0,4.0,4.0,4.0,4.0,4.0,4.0,4.0,4.0,4.0,4.0,4.0,4.0,4.0,4.0,4.0,4.0,4.0,4.0,4.0,4.0,4.0,4.0,4.0,4.0,4.0,4.0,4.0,4.0,100.0,,,,,,,,,,,,,,,,,,,,,,,,,,,,,,,,,,,,,,,,,,,,,,,,,,,,,,,,,,,,,,,,,,,,,,,,,,,,,,,,,,,,,,,,,,,,,,,,,,,,,,,,,,,,,,,,,,,,,,,,,,,,,,,,,,,,,,,,,,,,,,,,,,,,,,,,,,,,,,,,,,,,,,,,,,,,,,,,,,,,,,,,,,,,,,,,,,,,,,,,,,,,,,
1763973755.901657,34371.0,0.0,4402.05127,4417.179688,4527.307617,4541.153809,4427.179688,4527.179688,4556.153809,4396.282227,4592.436035,4405.0,4503.717773,4533.077148,4585.128418,4407.307617,4414.102539,4538.461426,4565.128418,4558.461426,4538.846191,4410.128418,4421.922852,4590.769043,4550.384766,4522.563965,4422.179688,4603.461426,4411.794922,4576.025879,4534.615234,4424.743652,4553.461426,4532.563965,2924.0,1.0,22.0,2304.0,699.0,,,,0.0,4.0,4.0,4.0,4.0,4.0,4.0,4.0,4.0,4.0,4.0,4.0,4.0,4.0,4.0,4.0,4.0,4.0,4.0,4.0,4.0,4.0,4.0,4.0,4.0,4.0,4.0,4.0,4.0,4.0,4.0,4.0,4.0,100.0,,,,,,,,,,,,,,,,,,,,,,,,,,,,,,,,,,,,,,,,,,,,,,,,,,,,,,,,,,,,,,,,,,,,,,,,,,,,,,,,,,,,,,,,,,,,,,,,,,,,,,,,,,,,,,,,,,,,,,,,,,,,,,,,,,,,,,,,,,,,,,,,,,,,,,,,,,,,,,,,,,,,,,,,,,,,,,,,,,,,,,,,,,,,,,,,,,,,,,,,,,,,,,
1763973755.905563,34372.0,0.0,4403.205078,4412.307617,4520.512695,4536.282227,4423.333496,4526.538574,4552.820313,4392.692383,4587.94873,4403.589844,4499.615234,4531.282227,4585.0,4404.487305,4411.153809,4537.05127,4562.563965,4555.641113,4536.025879,4410.641113,4422.436035,4590.256348,4549.743652,4521.538574,4420.128418,4600.0,4412.307617,4573.589844,4531.410156,4419.743652,4548.461426,4525.0,2824.0,1.0,22.0,2560.0,707.0,,,,0.0,4.0,4.0,4.0,4.0,4.0,4.0,4.0,4.0,4.0,4.0,4.0,4.0,4.0,4.0,4.0,4.0,4.0,4.0,4.0,4.0,4.0,4.0,4.0,4.0,4.0,4.0,4.0,4.0,4.0,4.0,4.0,4.0,100.0,,,,,,,,,,,,,,,,,,,,,,,,,,,,,,,,,,,,,,,,,,,,,,,,,,,,,,,,,,,,,,,,,,,,,,,,,,,,,,,,,,,,,,,,,,,,,,,,,,,,,,,,,,,,,,,,,,,,,,,,,,,,,,,,,,,,,,,,,,,,,,,,,,,,,,,,,,,,,,,,,,,,,,,,,,,,,,,,,,,,,,,,,,,,,,,,,,,,,,,,,,,,,,
1763973755.909469,34373.0,0.0,4411.922852,4416.538574,4523.205078,4541.794922,4426.410156,4532.94873,4557.436035,4398.974121,4593.077148,4410.128418,4504.743652,4537.436035,4592.820313,4409.102539,4414.871582,4544.615234,4567.820313,4561.410156,4540.0,4413.205078,4431.666504,4598.461426,4558.846191,4528.077148,4424.743652,4603.077148,4419.358887,4580.0,4537.179688,4423.333496,4551.025879,4526.922852,2375.0,1.0,22.0,2560.0,707.0,,,,0.0,4.0,4.0,4.0,4.0,4.0,4.0,4.0,4.0,4.0,4.0,4.0,4.0,4.0,4.0,4.0,4.0,4.0,4.0,4.0,4.0,4.0,4.0,4.0,4.0,4.0,4.0,4.0,4.0,4.0,4.0,4.0,4.0,100.0,,,,,,,,,,,,,,,,,,,,,,,,,,,,,,,,,,,57745.0,0.0,0.660959,0.290344,0.247559,0.646179,0.989867,-0.01172,-0.069833,27.5,-26.0,-25.166666,,,,,,,,,,,,,,,,,,,,,,,,,,,,,,,,,,,,,,,,,,,,,,,,,,,,,,,,,,,,,,,,,,,,,,,,,,,,,,,,,,,,,,,,,,,,,,,,,,,,,,,,,,,,,,,,,,,,,,,,,,,,,,,,,,,,,,,,,,,,,,,,,,,,,,,,,,,,,,,,
1763973755.913375,34374.0,0.0,4422.436035,4425.384766,4532.179688,4553.846191,4433.589844,4541.153809,4566.153809,4410.384766,4602.563965,4416.794922,4513.846191,4545.641113,4602.94873,4417.179688,4422.179688,4556.410156,4577.563965,4571.666504,4546.794922,4415.0,4443.077148,4609.487305,4570.769043,4537.692383,4432.436035,4610.769043,4427.820313,4590.641113,4546.025879,4431.794922,4558.077148,4535.256348,2914.0,1.0,22.0,2560.0,714.0,,,,0.0,4.0,4.0,4.0,4.0,4.0,4.0,4.0,4.0,4.0,4.0,4.0,4.0,4.0,4.0,4.0,4.0,4.0,4.0,4.0,4.0,4.0,4.0,4.0,4.0,4.0,4.0,4.0,4.0,4.0,4.0,4.0,4.0,100.0,,,,,,,,,,,,,,,,,,,,,,,,,,,,,,,,,,,,,,,,,,,,,,,,,,,,,,,,,,,,,,,,,,,,,,,,,,,,,,,,,,,,,,,,,,,,,,,,,,,,,,,,,,,,,,,,,,,,,,,,,,,,,,,,,,,,,,,,,,,,,,,,,,,,,,,,,,,,,,,,,,,,,,,,,,,,,,,,,,,,,,,,,,,,,,,,,,,,,,,,,,,,,,
1763973755.917281,34375.0,0.0,4426.666504,4429.487305,4539.487305,4563.461426,4438.333496,4544.743652,4571.153809,4418.077148,4607.436035,4416.538574,4518.846191,4548.589844,4607.05127,4422.307617,4426.922852,4562.436035,4584.102539,4577.820313,4548.333496,4412.94873,4447.94873,4613.846191,4575.512695,4541.666504,4435.641113,4615.256348,4429.871582,4596.153809,4549.487305,4436.794922,4562.05127,4541.153809,2932.0,1.0,22.0,2560.0,714.0,,,,0.0,4.0,4.0,4.0,4.0,4.0,4.0,4.0,4.0,4.0,4.0,4.0,4.0,4.0,4.0,4.0,4.0,4.0,4.0,4.0,4.0,4.0,4.0,4.0,4.0,4.0,4.0,4.0,4.0,4.0,4.0,4.0,4.0,100.0,,,,,,,,,,,,,,,,,,,,,,,,,,,,,,,,,,,,,,,,,,,,,,,,,,,,,,,,,,,,,,,,,,,,,,,,,,,,,,,,,,,,,,,,,,,,,,,,,,,,,,,,,,,,,,,,,,,,,,,,,,,,,,,,,,,,,,,,,,,,,,,,,,,,,,,,,,,,,,,,,,,,,,,,,,,,,,,,,,,,,,,,,,,,,,,,,,,,,,,,,,,,,,
1763973755.921187,34376.0,0.0,4420.641113,4422.563965,4538.333496,4563.077148,4435.384766,4540.769043,4567.307617,4415.512695,4602.307617,4407.94873,4515.0,4542.307617,4601.153809,4420.0,4424.102539,4555.897461,4581.153809,4572.692383,4539.615234,4406.538574,4441.282227,4605.641113,4567.436035,4533.974121,4428.717773,4609.871582,4421.282227,4590.256348,4542.563965,4431.410156,4555.769043,4536.794922,2659.0,1.0,22.0,2561.0,722.0,,,,0.0,4.0,4.0,4.0,4.0,4.0,4.0,4.0,4.0,4.0,4.0,4.0,4.0,4.0,4.0,4.0,4.0,4.0,4.0,4.0,4.0,4.0,4.0,4.0,4.0,4.0,4.0,4.0,4.0,4.0,4.0,4.0,4.0,100.0,,,,,,,,,,,,,,,,,,,,,,,,,,,,,,,,,,,,,,,,,,,,,,,,,,,,,,,,,,,,,,,,,,,,,,,,,,,,,,,,,,,,,,,,,,,,,,,,,,,,,,,,,,,,,,,,,,,,,,,,,,,,,,,,,,,,,,,,,,,,,,,,,,,,,,,,,,,,,,,,,,,,,,,,,,,,,,,,,,,,,,,,,,,,,,,,,,,,,,,,,,,,,,
1763973755.925093,34377.0,0.0,4407.307617,4407.05127,4527.692383,4552.307617,4425.512695,4531.282227,4555.641113,4403.717773,4589.102539,4396.794922,4504.230957,4530.384766,4587.692383,4411.282227,4414.615234,4538.205078,4569.358887,4557.692383,4524.358887,4397.94873,4426.153809,4588.589844,4550.128418,4517.692383,4413.205078,4595.512695,4405.256348,4574.615234,4527.94873,4416.282227,4540.128418,4521.922852,2821.0,1.0,22.0,2561.0,722.0,,,,0.0,4.0,4.0,4.0,4.0,4.0,4.0,4.0,4.0,4.0,4.0,4.0,4.0,4.0,4.0,4.0,4.0,4.0,4.0,4.0,4.0,4.0,4.0,4.0,4.0,4.0,4.0,4.0,4.0,4.0,4.0,4.0,4.0,100.0,,,,,,,,,,,,,,,,,,,,,,,,,,,,,,,,,,,57746.0,0.0,0.660959,0.290344,0.247559,0.646179,1.005494,0.000488,-0.063973,27.333334,-25.5,-23.666666,,,,,,,,,,,,,,,,,,,,,,,,,,,,,,,,,,,,,,,,,,,,,,,,,,,,,,,,,,,,,,,,,,,,,,,,,,,,,,,,,,,,,,,,,,,,,,,,,,,,,,,,,,,,,,,,,,,,,,,,,,,,,,,,,,,,,,,,,,,,,,,,,,,,,,,,,,,,,,,,
1763973755.928999,34378.0,0.0,4395.512695,4392.436035,4513.717773,4538.589844,4414.871582,4522.692383,4544.102539,4390.897461,4576.410156,4391.538574,4493.589844,4520.769043,4575.256348,4402.307617,4404.615234,4518.589844,4555.897461,4542.307617,4512.820313,4391.666504,4411.922852,4573.333496,4534.230957,4502.563965,4398.077148,4581.410156,4390.897461,4559.102539,4514.615234,4400.128418,4523.589844,4505.512695,2659.0,1.0,22.0,2562.0,730.0,,,,0.0,4.0,4.0,4.0,4.0,4.0,4.0,4.0,4.0,4.0,4.0,4.0,4.0,4.0,4.0,4.0,4.0,4.0,4.0,4.0,4.0,4.0,4.0,4.0,4.0,4.0,4.0,4.0,4.0,4.0,4.0,4.0,4.0,100.0,,,,,,,,,,,,,,,,,,,,,,,,,,,,,,,,,,,,,,,,,,,,,,,,,,,,,,,,,,,,,,,,,,,,,,,,,,,,,,,,,,,,,,,,,,,,,,,,,,,,,,,,,,,,,,,,,,,,,,,,,,,,,,,,,,,,,,,,,,,,,,,,,,,,,,,,,,,,,,,,,,,,,,,,,,,,,,,,,,,,,,,,,,,,,,,,,,,,,,,,,,,,,,
1763973755.932905,34379.0,0.0,4392.436035,4388.077148,4504.743652,4530.769043,4410.641113,4520.384766,4540.641113,4386.282227,4572.820313,4397.692383,4489.615234,4519.871582,4571.282227,4399.230957,4400.512695,4507.05127,4549.102539,4535.769043,4513.333496,4390.769043,4407.179688,4568.717773,4529.102539,4497.820313,4392.820313,4577.05127,4386.794922,4553.461426,4511.025879,4392.692383,4516.794922,4497.820313,2968.0,1.0,22.0,2562.0,730.0,,,,0.0,4.0,4.0,4.0,4.0,4.0,4.0,4.0,4.0,4.0,4.0,4.0,4.0,4.0,4.0,4.0,4.0,4.0,4.0,4.0,4.0,4.0,4.0,4.0,4.0,4.0,4.0,4.0,4.0,4.0,4.0,4.0,4.0,100.0,,,,,,,,,,,,,,,,,,,,,,,,,,,,,,,,,,,,,,,,,,,,,,,,,,,,,,,,,,,,,,,,,,,,,,,,,,,,,,,,,,,,,,,,,,,,,,,,,,,,,,,,,,,,,,,,,,,,,,,,,,,,,,,,,,,,,,,,,,,,,,,,,,,,,,,,,,,,,,,,,,,,,,,,,,,,,,,,,,,,,,,,,,,,,,,,,,,,,,,,,,,,,,
1763973755.936811,34380.0,0.0,4398.846191,4395.512695,4505.128418,4532.436035,4414.487305,4524.743652,4546.922852,4392.563965,4580.384766,4412.563965,4493.589844,4526.794922,4576.922852,4403.077148,4403.846191,4507.307617,4551.410156,4539.487305,4524.615234,4394.871582,4412.436035,4575.256348,4535.641113,4503.846191,4399.102539,4584.487305,4393.846191,4559.487305,4517.692383,4397.563965,4522.94873,4502.692383,2933.0,1.0,22.0,2563.0,738.0,,,,0.0,4.0,4.0,4.0,4.0,4.0,4.0,4.0,4.0,4.0,4.0,4.0,4.0,4.0,4.0,4.0,4.0,4.0,4.0,4.0,4.0,4.0,4.0,4.0,4.0,4.0,4.0,4.0,4.0,4.0,4.0,4.0,4.0,100.0,,,,,,,,,,,,,,,,,,,,,,,,,,,,,,,,,,,,,,,,,,,,,,,,,,,,,,,,,,,,,,,,,,,,,,,,,,,,,,,,,,,,,,,,,,,,,,,,,,,,,,,,,,,,,,,,,,,,,,,,,,,,,,,,,,,,,,,,,,,,,,,,,,,,,,,,,,,,,,,,,,,,,,,,,,,,,,,,,,,,,,,,,,,,,,,,,,,,,,,,,,,,,,
1763973755.940717,34381.0,0.0,4408.589844,4408.077148,4512.05127,4540.256348,4422.05127,4531.282227,4557.436035,4404.102539,4592.563965,4427.179688,4501.025879,4534.615234,4585.897461,4408.974121,4410.128418,4515.256348,4558.589844,4547.179688,4536.538574,4399.615234,4419.743652,4584.871582,4545.897461,4512.563965,4409.615234,4596.282227,4405.384766,4570.0,4528.077148,4409.871582,4536.922852,4514.102539,2787.0,1.0,22.0,2563.0,738.0,,,,0.0,4.0,4.0,4.0,4.0,4.0,4.0,4.0,4.0,4.0,4.0,4.0,4.0,4.0,4.0,4.0,4.0,4.0,4.0,4.0,4.0,4.0,4.0,4.0,4.0,4.0,4.0,4.0,4.0,4.0,4.0,4.0,4.0,100.0,,,,,,,,,,,,,,,,,,,,,,,,,,,,,,,,,,,57747.0,0.0,0.660996,0.290344,0.24762,0.646118,1.007447,0.004883,-0.059089,27.333334,-25.5,-23.666666,,,,,,,,,,,,,,,,,,,,,,,,,,,,,,,,,,,,,,,,,,,,,,,,,,,,,,,,,,,,,,,,,,,,,,,,,,,,,,,,,,,,,,,,,,,,,,,,,,,,,,,,,,,,,,,,,,,,,,,,,,,,,,,,,,,,,,,,,,,,,,,,,,,,,,,,,,,,,,,,
1763973755.944623,34382.0,0.0,4414.230957,4416.794922,4518.846191,4547.563965,4427.05127,4535.128418,4563.846191,4412.563965,4600.0,4432.307617,4506.025879,4536.666504,4590.512695,4411.282227,4413.974121,4524.230957,4564.102539,4552.179688,4538.974121,4400.0,4420.256348,4588.461426,4551.025879,4515.128418,4415.384766,4603.205078,4412.307617,4575.512695,4535.0,4421.410156,4549.230957,4523.461426,2740.0,1.0,22.0,2564.0,746.0,,,,0.0,4.0,4.0,4.0,4.0,4.0,4.0,4.0,4.0,4.0,4.0,4.0,4.0,4.0,4.0,4.0,4.0,4.0,4.0,4.0,4.0,4.0,4.0,4.0,4.0,4.0,4.0,4.0,4.0,4.0,4.0,4.0,4.0,100.0,,,,,,,,,,,,,,,,,,,,,,,,,,,,,,,,,,,,,,,,,,,,,,,3.110969,3.318974,1.669145,1.442171,0.745516,2.869169,4.958306,1.389446,1.434085,0.669647,3.716265,3.088029,1.745561,1.006465,0.831933,2.541293,2.620622,1.061518,0.980019,0.604773,2.244844,2.619304,0.943714,0.92918,0.523427,1.869421,2.010695,0.658006,0.873416,0.449441,2.275699,2.587991,1.009311,1.222354,0.738486,1.807038,2.454906,0.858139,1.142749,0.710579,2.204481,1.770481,0.602051,1.00588,0.772382,0.988551,1.320511,0.804504,2.833819,1.428851,0.946087,1.046728,0.644065,1.394622,0.543822,3.238564,3.819628,1.859597,1.30901,0.741189,1.765031,1.596753,2.049933,1.721607,0.836188,0.523121,0.630138,1.02947,1.272379,0.712343,0.714001,1.260821,1.177732,1.037877,0.78816,1.613953,3.729241,2.814034,4.220287,1.80235,2.57897,4.226664,4.709144,1.617246,0.796856,1.323489,1.802829,1.605531,2.136253,1.106871,1.75567,1.332624,1.472495,1.459823,1.063451,1.796739,2.119388,0.977247,0.837523,1.048444,2.35676,3.378081,1.792287,1.091214,0.971878,3.871634,5.318733,3.985219,1.897402,0.912399,3.785047,4.870011,3.74767,1.796961,0.882183,4.016007,4.655819,2.154166,1.534925,0.751812,4.314388,5.400087,1.149127,1.637322,0.776991,3.070385,4.26301,0.872959,0.996047,0.836055,4.159259,5.789706,1.12053,1.572118,0.760568,3.936453,4.67349,2.077839,1.477057,0.757635,3.551379,4.771554,1.021582,1.449893,0.752216,4.137109,5.374816,1.020826,1.400273,0.709015,4.401562,6.847324,0.843475,1.124217,0.675743,3.674825,4.90354,0.861662,1.209896,0.649269
1763973755.948529,34383.0,0.0,4412.563965,4417.692383,4520.641113,4549.871582,4426.410156,4534.230957,4562.179688,4413.205078,4597.563965,4425.128418,4505.512695,4532.179688,4587.307617,4408.333496,4412.307617,4530.0,4564.230957,4552.05127,4530.384766,4394.743652,4412.307617,4583.589844,4547.692383,4508.974121,4412.563965,4601.025879,4411.025879,4572.436035,4535.256348,4426.282227,4553.461426,4525.897461,2791.0,1.0,22.0,2564.0,746.0,,,,0.0,4.0,4.0,4.0,4.0,4.0,4.0,4.0,4.0,4.0,4.0,4.0,4.0,4.0,4.0,4.0,4.0,4.0,4.0,4.0,4.0,4.0,4.0,4.0,4.0,4.0,4.0,4.0,4.0,4.0,4.0,4.0,4.0,100.0,,,,,,,,,,,,,,,,,,,,,,,,,,,,,,,,,,,,,,,,,,,,,,,,,,,,,,,,,,,,,,,,,,,,,,,,,,,,,,,,,,,,,,,,,,,,,,,,,,,,,,,,,,,,,,,,,,,,,,,,,,,,,,,,,,,,,,,,,,,,,,,,,,,,,,,,,,,,,,,,,,,,,,,,,,,,,,,,,,,,,,,,,,,,,,,,,,,,,,,,,,,,,,
1763973755.952435,34384.0,0.0,4405.641113,4412.692383,4516.794922,4546.794922,4421.538574,4530.0,4554.871582,4407.05127,4587.692383,4411.153809,4500.128418,4524.743652,4578.205078,4402.307617,4406.153809,4531.282227,4559.615234,4547.820313,4517.307617,4386.538574,4401.410156,4574.230957,4539.102539,4499.230957,4404.743652,4592.820313,4403.974121,4564.102539,4531.153809,4424.230957,4549.230957,4522.820313,2913.0,1.0,22.0,2564.0,754.0,,,,0.0,4.0,4.0,4.0,4.0,4.0,4.0,4.0,4.0,4.0,4.0,4.0,4.0,4.0,4.0,4.0,4.0,4.0,4.0,4.0,4.0,4.0,4.0,4.0,4.0,4.0,4.0,4.0,4.0,4.0,4.0,4.0,4.0,100.0,,,,,,,,,,,,,,,,,,,,,,,,,,,,,,,,,,,,,,,,,,,,,,,,,,,,,,,,,,,,,,,,,,,,,,,,,,,,,,,,,,,,,,,,,,,,,,,,,,,,,,,,,,,,,,,,,,,,,,,,,,,,,,,,,,,,,,,,,,,,,,,,,,,,,,,,,,,,,,,,,,,,,,,,,,,,,,,,,,,,,,,,,,,,,,,,,,,,,,,,,,,,,,
1763973755.956341,34385.0,0.0,4397.563965,4406.025879,4510.256348,4540.256348,4416.153809,4524.615234,4547.436035,4398.333496,4576.794922,4399.358887,4492.820313,4518.333496,4567.05127,4395.384766,4398.589844,4527.436035,4552.820313,4541.025879,4507.307617,4379.871582,4394.230957,4565.897461,4530.128418,4492.436035,4397.692383,4585.128418,4396.153809,4556.538574,4525.384766,4418.205078,4540.512695,4518.077148,3034.0,1.0,22.0,2564.0,754.0,,,,0.0,4.0,4.0,4.0,4.0,4.0,4.0,4.0,4.0,4.0,4.0,4.0,4.0,4.0,4.0,4.0,4.0,4.0,4.0,4.0,4.0,4.0,4.0,4.0,4.0,4.0,4.0,4.0,4.0,4.0,4.0,4.0,4.0,100.0,,,,,,,,,,,,,,,,,,,,,,,,,,,,,,,,,,,57748.0,0.0,0.660986,0.290283,0.247559,0.646179,0.992797,0.011232,-0.072763,28.333334,-26.0,-26.0,,,,,,,,,,,,,,,,,,,,,,,,,,,,,,,,,,,,,,,,,,,,,,,,,,,,,,,,,,,,,,,,,,,,,,,,,,,,,,,,,,,,,,,,,,,,,,,,,,,,,,,,,,,,,,,,,,,,,,,,,,,,,,,,,,,,,,,,,,,,,,,,,,,,,,,,,,,,,,,,
1763973755.960247,34386.0,0.0,4391.666504,4401.282227,4504.615234,4533.974121,4413.077148,4520.256348,4543.589844,4391.153809,4570.512695,4395.641113,4486.538574,4514.358887,4557.436035,4389.358887,4392.436035,4518.717773,4546.538574,4532.436035,4503.717773,4377.436035,4393.974121,4561.410156,4524.487305,4491.282227,4395.769043,4582.563965,4392.05127,4553.717773,4520.512695,4412.436035,4533.077148,4515.0,2816.0,1.0,22.0,2560.0,761.0,,,,0.0,4.0,4.0,4.0,4.0,4.0,4.0,4.0,4.0,4.0,4.0,4.0,4.0,4.0,4.0,4.0,4.0,4.0,4.0,4.0,4.0,4.0,4.0,4.0,4.0,4.0,4.0,4.0,4.0,4.0,4.0,4.0,4.0,100.0,,,,,,,,,,,,,,,,,,,,,,,,,,,,,,,,,,,,,,,,,,,,,,,,,,,,,,,,,,,,,,,,,,,,,,,,,,,,,,,,,,,,,,,,,,,,,,,,,,,,,,,,,,,,,,,,,,,,,,,,,,,,,,,,,,,,,,,,,,,,,,,,,,,,,,,,,,,,,,,,,,,,,,,,,,,,,,,,,,,,,,,,,,,,,,,,,,,,,,,,,,,,,,
1763973755.964153,34387.0,0.0,4390.384766,4400.384766,4503.589844,4531.538574,4414.871582,4518.974121,4544.615234,4388.974121,4571.666504,4400.128418,4484.230957,4512.563965,4552.436035,4385.769043,4390.897461,4507.94873,4542.563965,4524.871582,4506.025879,4380.384766,4400.256348,4561.282227,4524.102539,4495.512695,4399.871582,4586.666504,4393.333496,4556.666504,4518.077148,4410.512695,4531.410156,4515.384766,3004.0,1.0,22.0,2560.0,761.0,,,,0.0,4.0,4.0,4.0,4.0,4.0,4.0,4.0,4.0,4.0,4.0,4.0,4.0,4.0,4.0,4.0,4.0,4.0,4.0,4.0,4.0,4.0,4.0,4.0,4.0,4.0,4.0,4.0,4.0,4.0,4.0,4.0,4.0,100.0,,,,,,,,,,,,,,,,,,,,,,,,,,,,,,,,,,,,,,,,,,,,,,,,,,,,,,,,,,,,,,,,,,,,,,,,,,,,,,,,,,,,,,,,,,,,,,,,,,,,,,,,,,,,,,,,,,,,,,,,,,,,,,,,,,,,,,,,,,,,,,,,,,,,,,,,,,,,,,,,,,,,,,,,,,,,,,,,,,,,,,,,,,,,,,,,,,,,,,,,,,,,,,
1763973755.968059,34388.0,0.0,4395.0,4404.102539,4509.358887,4535.769043,4421.794922,4522.692383,4549.615234,4393.846191,4580.128418,4407.820313,4487.692383,4513.717773,4554.871582,4387.436035,4396.282227,4500.384766,4543.205078,4522.94873,4513.717773,4388.974121,4410.897461,4565.769043,4529.230957,4503.589844,4408.974121,4596.153809,4399.871582,4564.743652,4520.128418,4413.974121,4536.794922,4520.0,2977.0,1.0,22.0,1536.0,769.0,,,,0.0,4.0,4.0,4.0,4.0,4.0,4.0,4.0,4.0,4.0,4.0,4.0,4.0,4.0,4.0,4.0,4.0,4.0,4.0,4.0,4.0,4.0,4.0,4.0,4.0,4.0,4.0,4.0,4.0,4.0,4.0,4.0,4.0,100.0,,,,,,,,,,,,,,,,,,,,,,,,,,,,,,,,,,,,,,,,,,,,,,,,,,,,,,,,,,,,,,,,,,,,,,,,,,,,,,,,,,,,,,,,,,,,,,,,,,,,,,,,,,,,,,,,,,,,,,,,,,,,,,,,,,,,,,,,,,,,,,,,,,,,,,,,,,,,,,,,,,,,,,,,,,,,,,,,,,,,,,,,,,,,,,,,,,,,,,,,,,,,,,
1763973755.971965,34389.0,0.0,4404.487305,4412.05127,4520.769043,4546.153809,4431.794922,4531.025879,4556.922852,4404.871582,4593.077148,4412.94873,4497.179688,4518.589844,4565.384766,4395.384766,4407.94873,4500.256348,4549.615234,4529.358887,4525.384766,4401.025879,4422.94873,4574.487305,4538.846191,4513.974121,4420.641113,4608.077148,4409.743652,4575.641113,4527.820313,4421.666504,4547.179688,4528.205078,2837.0,1.0,22.0,1536.0,769.0,,,,0.0,4.0,4.0,4.0,4.0,4.0,4.0,4.0,4.0,4.0,4.0,4.0,4.0,4.0,4.0,4.0,4.0,4.0,4.0,4.0,4.0,4.0,4.0,4.0,4.0,4.0,4.0,4.0,4.0,4.0,4.0,4.0,4.0,100.0,,,,,,,,,,,,,,,,,,,,,,,,,,,,,,,,,,,57749.0,0.0,0.661059,0.290222,0.247437,0.646179,1.002075,-0.003418,-0.062996,28.0,-26.333334,-25.166666,,,,,,,,,,,,,,,,,,,,,,,,,,,,,,,,,,,,,,,,,,,,,,,,,,,,,,,,,,,,,,,,,,,,,,,,,,,,,,,,,,,,,,,,,,,,,,,,,,,,,,,,,,,,,,,,,,,,,,,,,,,,,,,,,,,,,,,,,,,,,,,,,,,,,,,,,,,,,,,,
1763973755.975871,34390.0,0.0,4414.102539,4420.897461,4532.692383,4557.692383,4440.0,4540.128418,4563.974121,4417.179688,4604.487305,4412.436035,4509.102539,4526.282227,4579.358887,4406.538574,4420.641113,4507.692383,4559.871582,4541.794922,4537.692383,4411.794922,4432.179688,4584.871582,4548.974121,4523.846191,4430.769043,4617.94873,4418.717773,4585.769043,4538.589844,4429.615234,4557.179688,4536.153809,2969.0,1.0,22.0,1280.0,777.0,,,,0.0,4.0,4.0,4.0,4.0,4.0,4.0,4.0,4.0,4.0,4.0,4.0,4.0,4.0,4.0,4.0,4.0,4.0,4.0,4.0,4.0,4.0,4.0,4.0,4.0,4.0,4.0,4.0,4.0,4.0,4.0,4.0,4.0,100.0,,,,,,,,,,,,,,,,,,,,,,,,,,,,,,,,,,,,,,,,,,,,,,,,,,,,,,,,,,,,,,,,,,,,,,,,,,,,,,,,,,,,,,,,,,,,,,,,,,,,,,,,,,,,,,,,,,,,,,,,,,,,,,,,,,,,,,,,,,,,,,,,,,,,,,,,,,,,,,,,,,,,,,,,,,,,,,,,,,,,,,,,,,,,,,,,,,,,,,,,,,,,,,
1763973755.979777,34391.0,0.0,4417.436035,4425.384766,4538.333496,4563.589844,4442.05127,4544.230957,4568.205078,4423.974121,4607.820313,4406.922852,4516.922852,4532.692383,4588.974121,4413.846191,4426.794922,4518.205078,4568.077148,4553.333496,4544.743652,4415.769043,4434.487305,4591.538574,4554.487305,4529.358887,4434.230957,4620.512695,4421.922852,4590.512695,4545.384766,4433.205078,4561.153809,4538.205078,2927.0,1.0,22.0,1280.0,777.0,,,,0.0,4.0,4.0,4.0,4.0,4.0,4.0,4.0,4.0,4.0,4.0,4.0,4.0,4.0,4.0,4.0,4.0,4.0,4.0,4.0,4.0,4.0,4.0,4.0,4.0,4.0,4.0,4.0,4.0,4.0,4.0,4.0,4.0,100.0,,,,,,,,,,,,,,,,,,,,,,,,,,,,,,,,,,,,,,,,,,,,,,,,,,,,,,,,,,,,,,,,,,,,,,,,,,,,,,,,,,,,,,,,,,,,,,,,,,,,,,,,,,,,,,,,,,,,,,,,,,,,,,,,,,,,,,,,,,,,,,,,,,,,,,,,,,,,,,,,,,,,,,,,,,,,,,,,,,,,,,,,,,,,,,,,,,,,,,,,,,,,,,
1763973755.983683,34392.0,0.0,4411.666504,4421.538574,4534.615234,4559.743652,4436.666504,4540.0,4568.077148,4421.282227,4601.025879,4401.282227,4516.153809,4533.846191,4589.230957,4412.179688,4422.179688,4526.538574,4569.230957,4557.94873,4543.205078,4411.794922,4428.333496,4590.384766,4552.436035,4527.692383,4428.846191,4613.461426,4417.179688,4586.794922,4542.436035,4429.230957,4556.666504,4531.153809,2900.0,1.0,22.0,1280.0,785.0,,,,0.0,4.0,4.0,4.0,4.0,4.0,4.0,4.0,4.0,4.0,4.0,4.0,4.0,4.0,4.0,4.0,4.0,4.0,4.0,4.0,4.0,4.0,4.0,4.0,4.0,4.0,4.0,4.0,4.0,4.0,4.0,4.0,4.0,100.0,,,,,,,,,,,,,,,,,,,,,,,,,,,,,,,,,,,,,,,,,,,,,,,,,,,,,,,,,,,,,,,,,,,,,,,,,,,,,,,,,,,,,,,,,,,,,,,,,,,,,,,,,,,,,,,,,,,,,,,,,,,,,,,,,,,,,,,,,,,,,,,,,,,,,,,,,,,,,,,,,,,,,,,,,,,,,,,,,,,,,,,,,,,,,,,,,,,,,,,,,,,,,,
1763973755.987589,34393.0,0.0,4400.641113,4411.410156,4525.128418,4548.589844,4427.179688,4530.0,4564.487305,4411.282227,4589.230957,4400.897461,4508.589844,4529.230957,4581.794922,4403.077148,4410.384766,4530.256348,4563.205078,4555.384766,4535.128418,4403.589844,4417.692383,4582.94873,4544.615234,4520.128418,4417.179688,4600.0,4407.563965,4576.538574,4530.128418,4419.358887,4546.538574,4518.077148,2831.0,1.0,22.0,1280.0,785.0,,,,0.0,4.0,4.0,4.0,4.0,4.0,4.0,4.0,4.0,4.0,4.0,4.0,4.0,4.0,4.0,4.0,4.0,4.0,4.0,4.0,4.0,4.0,4.0,4.0,4.0,4.0,4.0,4.0,4.0,4.0,4.0,4.0,4.0,100.0,,,,,,,,,,,,,,,,,,,,,,,,,,,,,,,,,,,57750.0,0.0,0.661042,0.290344,0.247498,0.646118,1.000122,-0.00586,-0.061531,28.5,-27.0,-25.833334,,,,,,,,,,,,,,,,,,,,,,,,,,,,,,,,,,,,,,,,,,,,,,,,,,,,,,,,,,,,,,,,,,,,,,,,,,,,,,,,,,,,,,,,,,,,,,,,,,,,,,,,,,,,,,,,,,,,,,,,,,,,,,,,,,,,,,,,,,,,,,,,,,,,,,,,,,,,,,,,
1763973755.991495,34394.0,0.0,4391.666504,4401.025879,4516.922852,4537.05127,4418.589844,4521.282227,4560.384766,4400.769043,4581.410156,4407.692383,4500.512695,4523.077148,4574.487305,4394.487305,4400.128418,4531.025879,4555.769043,4550.641113,4526.153809,4397.820313,4409.102539,4575.512695,4536.538574,4510.897461,4405.512695,4587.436035,4398.461426,4566.153809,4515.384766,4408.974121,4536.794922,4506.282227,2798.0,1.0,22.0,256.0,793.0,,,,0.0,4.0,4.0,4.0,4.0,4.0,4.0,4.0,4.0,4.0,4.0,4.0,4.0,4.0,4.0,4.0,4.0,4.0,4.0,4.0,4.0,4.0,4.0,4.0,4.0,4.0,4.0,4.0,4.0,4.0,4.0,4.0,4.0,100.0,,,,,,,,,,,,,,,,,,,,,,,,,,,,,,,,,,,,,,,,,,,,,,,,,,,,,,,,,,,,,,,,,,,,,,,,,,,,,,,,,,,,,,,,,,,,,,,,,,,,,,,,,,,,,,,,,,,,,,,,,,,,,,,,,,,,,,,,,,,,,,,,,,,,,,,,,,,,,,,,,,,,,,,,,,,,,,,,,,,,,,,,,,,,,,,,,,,,,,,,,,,,,,
1763973755.995401,34395.0,0.0,4390.0,4396.538574,4515.769043,4532.179688,4414.743652,4519.743652,4558.461426,4395.897461,4583.077148,4418.846191,4497.692383,4520.256348,4573.717773,4393.333496,4398.589844,4531.538574,4552.563965,4548.589844,4521.410156,4398.333496,4407.563965,4573.717773,4533.717773,4504.615234,4399.615234,4581.794922,4394.102539,4560.897461,4506.410156,4403.205078,4531.794922,4502.179688,2999.0,1.0,22.0,256.0,793.0,,,,0.0,4.0,4.0,4.0,4.0,4.0,4.0,4.0,4.0,4.0,4.0,4.0,4.0,4.0,4.0,4.0,4.0,4.0,4.0,4.0,4.0,4.0,4.0,4.0,4.0,4.0,4.0,4.0,4.0,4.0,4.0,4.0,4.0,100.0,,,,,,,,,,,,,,,,,,,,,,,,,,,,,,,,,,,,,,,,,,,,,,,,,,,,,,,,,,,,,,,,,,,,,,,,,,,,,,,,,,,,,,,,,,,,,,,,,,,,,,,,,,,,,,,,,,,,,,,,,,,,,,,,,,,,,,,,,,,,,,,,,,,,,,,,,,,,,,,,,,,,,,,,,,,,,,,,,,,,,,,,,,,,,,,,,,,,,,,,,,,,,,
1763973755.999307,34396.0,0.0,4395.256348,4399.102539,4521.025879,4535.128418,4415.769043,4525.256348,4559.358887,4398.077148,4592.436035,4427.692383,4501.153809,4522.692383,4579.743652,4400.256348,4405.769043,4532.436035,4555.128418,4550.512695,4521.794922,4403.333496,4412.563965,4578.461426,4536.666504,4503.717773,4400.897461,4584.230957,4394.615234,4562.05127,4506.666504,4403.205078,4532.436035,4506.410156,2967.0,1.0,22.0,256.0,800.0,,,,0.0,4.0,4.0,4.0,4.0,4.0,4.0,4.0,4.0,4.0,4.0,4.0,4.0,4.0,4.0,4.0,4.0,4.0,4.0,4.0,4.0,4.0,4.0,4.0,4.0,4.0,4.0,4.0,4.0,4.0,4.0,4.0,4.0,100.0,,,,,,,,,,,,,,,,,,,,,,,,,,,,,,,,,,,,,,,,,,,,,,,,,,,,,,,,,,,,,,,,,,,,,,,,,,,,,,,,,,,,,,,,,,,,,,,,,,,,,,,,,,,,,,,,,,,,,,,,,,,,,,,,,,,,,,,,,,,,,,,,,,,,,,,,,,,,,,,,,,,,,,,,,,,,,,,,,,,,,,,,,,,,,,,,,,,,,,,,,,,,,,
1763973756.003213,34397.0,0.0,4401.794922,4404.615234,4527.307617,4541.153809,4418.846191,4532.94873,4560.897461,4403.077148,4602.05127,4428.589844,4506.666504,4527.563965,4586.666504,4409.615234,4415.128418,4531.538574,4559.615234,4553.333496,4525.512695,4407.820313,4419.358887,4585.384766,4541.153809,4506.666504,4406.410156,4590.256348,4397.179688,4566.410156,4512.820313,4406.666504,4536.410156,4514.358887,2817.0,1.0,22.0,256.0,800.0,,,,0.0,4.0,4.0,4.0,4.0,4.0,4.0,4.0,4.0,4.0,4.0,4.0,4.0,4.0,4.0,4.0,4.0,4.0,4.0,4.0,4.0,4.0,4.0,4.0,4.0,4.0,4.0,4.0,4.0,4.0,4.0,4.0,4.0,100.0,,,,,,,,,,,,,,,,,,,,,,,,,,,,,,,,,,,57751.0,0.0,0.661059,0.290222,0.247437,0.646179,0.998657,-0.003907,-0.061531,25.833334,-24.833334,-24.666666,,,,,,,,,,,,,,,,,,,,,,,,,,,,,,,,,,,,,,,,,,,,,,,,,,,,,,,,,,,,,,,,,,,,,,,,,,,,,,,,,,,,,,,,,,,,,,,,,,,,,,,,,,,,,,,,,,,,,,,,,,,,,,,,,,,,,,,,,,,,,,,,,,,,,,,,,,,,,,,,
1763973756.007219,34398.0,0.0,4403.974121,4407.563965,4528.589844,4543.461426,4420.128418,4536.538574,4560.641113,4405.0,4603.717773,4419.871582,4508.589844,4529.615234,4588.333496,4414.487305,4418.589844,4527.05127,4560.897461,4552.94873,4529.102539,4407.307617,4422.692383,4588.717773,4542.05127,4510.384766,4411.025879,4593.717773,4399.102539,4568.846191,4518.461426,4410.256348,4539.743652,4520.0,3000.0,1.0,22.0,512.0,808.0,,,,0.0,4.0,4.0,4.0,4.0,4.0,4.0,4.0,4.0,4.0,4.0,4.0,4.0,4.0,4.0,4.0,4.0,4.0,4.0,4.0,4.0,4.0,4.0,4.0,4.0,4.0,4.0,4.0,4.0,4.0,4.0,4.0,4.0,100.0,,,,,,,,,,,,,,,,,,,,,,,,,,,,,,,,,,,,,,,,,,,,,,,,,,,,,,,,,,,,,,,,,,,,,,,,,,,,,,,,,,,,,,,,,,,,,,,,,,,,,,,,,,,,,,,,,,,,,,,,,,,,,,,,,,,,,,,,,,,,,,,,,,,,,,,,,,,,,,,,,,,,,,,,,,,,,,,,,,,,,,,,,,,,,,,,,,,,,,,,,,,,,,
1763973756.011125,34399.0,0.0,4399.230957,4404.358887,4522.307617,4538.846191,4418.205078,4533.077148,4556.794922,4400.512695,4594.871582,4406.282227,4503.846191,4525.769043,4582.820313,4411.666504,4412.436035,4520.512695,4556.538574,4547.05127,4529.615234,4400.384766,4419.615234,4585.769043,4537.436035,4511.282227,4410.0,4591.025879,4398.717773,4566.282227,4518.461426,4411.282227,4539.615234,4519.358887,2915.0,1.0,22.0,512.0,808.0,,,,0.0,4.0,4.0,4.0,4.0,4.0,4.0,4.0,4.0,4.0,4.0,4.0,4.0,4.0,4.0,4.0,4.0,4.0,4.0,4.0,4.0,4.0,4.0,4.0,4.0,4.0,4.0,4.0,4.0,4.0,4.0,4.0,4.0,100.0,,,,,,,,,,,,,,,,,,,,,,,,,,,,,,,,,,,,,,,,,,,,,,,,,,,,,,,,,,,,,,,,,,,,,,,,,,,,,,,,,,,,,,,,,,,,,,,,,,,,,,,,,,,,,,,,,,,,,,,,,,,,,,,,,,,,,,,,,,,,,,,,,,,,,,,,,,,,,,,,,,,,,,,,,,,,,,,,,,,,,,,,,,,,,,,,,,,,,,,,,,,,,,
1763973756.015031,34400.0,0.0,4390.128418,4395.897461,4510.128418,4529.487305,4413.461426,4524.615234,4549.871582,4390.897461,4579.871582,4395.641113,4494.102539,4517.692383,4573.846191,4403.717773,4399.743652,4516.666504,4548.974121,4538.205078,4526.410156,4389.358887,4411.666504,4578.333496,4529.358887,4508.077148,4402.820313,4582.820313,4396.153809,4559.230957,4512.307617,4409.358887,4535.641113,4513.077148,2806.0,1.0,22.0,768.0,816.0,,,,0.0,4.0,4.0,4.0,4.0,4.0,4.0,4.0,4.0,4.0,4.0,4.0,4.0,4.0,4.0,4.0,4.0,4.0,4.0,4.0,4.0,4.0,4.0,4.0,4.0,4.0,4.0,4.0,4.0,4.0,4.0,4.0,4.0,100.0,,,,,,,,,,,,,,,,,,,,,,,,,,,,,,,,,,,,,,,,,,,,,,,,,,,,,,,,,,,,,,,,,,,,,,,,,,,,,,,,,,,,,,,,,,,,,,,,,,,,,,,,,,,,,,,,,,,,,,,,,,,,,,,,,,,,,,,,,,,,,,,,,,,,,,,,,,,,,,,,,,,,,,,,,,,,,,,,,,,,,,,,,,,,,,,,,,,,,,,,,,,,,,
1763973756.018937,34401.0,0.0,4382.05127,4386.922852,4497.820313,4520.769043,4408.846191,4516.410156,4542.563965,4381.794922,4567.05127,4393.205078,4484.871582,4511.153809,4567.692383,4397.179688,4388.461426,4519.487305,4543.717773,4532.307617,4521.025879,4379.230957,4402.94873,4571.538574,4522.692383,4502.692383,4393.077148,4574.102539,4393.077148,4551.922852,4504.487305,4405.769043,4530.128418,4504.743652,2947.0,1.0,22.0,768.0,816.0,,,,0.0,4.0,4.0,4.0,4.0,4.0,4.0,4.0,4.0,4.0,4.0,4.0,4.0,4.0,4.0,4.0,4.0,4.0,4.0,4.0,4.0,4.0,4.0,4.0,4.0,4.0,4.0,4.0,4.0,4.0,4.0,4.0,4.0,100.0,,,,,,,,,,,,,,,,,,,,,,,,,,,,,,,,,,,57752.0,0.0,0.661053,0.2901,0.247437,0.64624,0.998657,-0.003907,-0.061531,27.333334,-24.666666,-22.833334,,,,,,,,,,,,,,,,,,,,,,,,,,,,,,,,,,,,,,,,,,,,,,,,,,,,,,,,,,,,,,,,,,,,,,,,,,,,,,,,,,,,,,,,,,,,,,,,,,,,,,,,,,,,,,,,,,,,,,,,,,,,,,,,,,,,,,,,,,,,,,,,,,,,,,,,,,,,,,,,
1763973756.022843,34402.0,0.0,4380.128418,4382.436035,4490.897461,4518.077148,4406.794922,4513.717773,4538.974121,4378.333496,4563.589844,4398.333496,4482.179688,4511.794922,4568.974121,4397.307617,4385.897461,4528.333496,4545.384766,4533.846191,4516.666504,4375.384766,4398.717773,4570.128418,4522.179688,4498.974121,4386.794922,4570.128418,4391.282227,4549.487305,4500.384766,4403.205078,4526.538574,4498.846191,2256.0,1.0,22.0,1024.0,824.0,,,,0.0,4.0,4.0,4.0,4.0,4.0,4.0,4.0,4.0,4.0,4.0,4.0,4.0,4.0,4.0,4.0,4.0,4.0,4.0,4.0,4.0,4.0,4.0,4.0,4.0,4.0,4.0,4.0,4.0,4.0,4.0,4.0,4.0,100.0,,,,,,,,,,,,,,,,,,,,,,,,,,,,,,,,,,,,,,,,,,,,,,,,,,,,,,,,,,,,,,,,,,,,,,,,,,,,,,,,,,,,,,,,,,,,,,,,,,,,,,,,,,,,,,,,,,,,,,,,,,,,,,,,,,,,,,,,,,,,,,,,,,,,,,,,,,,,,,,,,,,,,,,,,,,,,,,,,,,,,,,,,,,,,,,,,,,,,,,,,,,,,,
1763973756.026749,34403.0,0.0,4385.769043,4384.487305,4492.179688,4522.436035,4408.974121,4517.820313,4541.666504,4382.94873,4570.641113,4405.256348,4487.05127,4520.256348,4577.307617,4404.487305,4394.102539,4537.820313,4554.358887,4541.666504,4515.641113,4380.641113,4401.538574,4575.0,4528.461426,4500.128418,4387.94873,4572.820313,4392.179688,4554.487305,4502.05127,4402.820313,4526.538574,4497.436035,2929.0,1.0,22.0,1024.0,824.0,,,,0.0,4.0,4.0,4.0,4.0,4.0,4.0,4.0,4.0,4.0,4.0,4.0,4.0,4.0,4.0,4.0,4.0,4.0,4.0,4.0,4.0,4.0,4.0,4.0,4.0,4.0,4.0,4.0,4.0,4.0,4.0,4.0,4.0,100.0,,,,,,,,,,,,,,,,,,,,,,,,,,,,,,,,,,,,,,,,,,,,,,,,,,,,,,,,,,,,,,,,,,,,,,,,,,,,,,,,,,,,,,,,,,,,,,,,,,,,,,,,,,,,,,,,,,,,,,,,,,,,,,,,,,,,,,,,,,,,,,,,,,,,,,,,,,,,,,,,,,,,,,,,,,,,,,,,,,,,,,,,,,,,,,,,,,,,,,,,,,,,,,
1763973756.030655,34404.0,0.0,4395.641113,4391.025879,4499.358887,4531.410156,4413.717773,4525.512695,4549.743652,4393.205078,4583.333496,4407.94873,4495.897461,4531.666504,4587.307617,4413.717773,4408.589844,4540.769043,4565.769043,4550.769043,4518.717773,4393.205078,4410.256348,4583.077148,4537.563965,4506.282227,4396.282227,4580.641113,4395.769043,4564.230957,4507.307617,4404.230957,4529.487305,4500.0,2833.0,1.0,22.0,1280.0,832.0,,,,0.0,4.0,4.0,4.0,4.0,4.0,4.0,4.0,4.0,4.0,4.0,4.0,4.0,4.0,4.0,4.0,4.0,4.0,4.0,4.0,4.0,4.0,4.0,4.0,4.0,4.0,4.0,4.0,4.0,4.0,4.0,4.0,4.0,100.0,,,,,,,,,,,,,,,,,,,,,,,,,,,,,,,,,,,,,,,,,,,,,,,,,,,,,,,,,,,,,,,,,,,,,,,,,,,,,,,,,,,,,,,,,,,,,,,,,,,,,,,,,,,,,,,,,,,,,,,,,,,,,,,,,,,,,,,,,,,,,,,,,,,,,,,,,,,,,,,,,,,,,,,,,,,,,,,,,,,,,,,,,,,,,,,,,,,,,,,,,,,,,,
1763973756.034561,34405.0,0.0,4404.102539,4398.077148,4507.307617,4540.128418,4418.461426,4531.410156,4557.820313,4403.333496,4594.102539,4404.102539,4502.05127,4539.102539,4592.307617,4419.358887,4421.410156,4534.871582,4573.461426,4556.153809,4524.743652,4406.794922,4420.256348,4590.384766,4543.717773,4514.487305,4407.563965,4589.102539,4400.641113,4573.333496,4512.563965,4406.282227,4533.717773,4504.743652,2382.0,1.0,22.0,1280.0,832.0,,,,0.0,4.0,4.0,4.0,4.0,4.0,4.0,4.0,4.0,4.0,4.0,4.0,4.0,4.0,4.0,4.0,4.0,4.0,4.0,4.0,4.0,4.0,4.0,4.0,4.0,4.0,4.0,4.0,4.0,4.0,4.0,4.0,4.0,100.0,,,,,,,,,,,,,,,,,,,,,,,,,,,,,,,,,,,57753.0,0.0,0.661162,0.290039,0.247375,0.646179,0.98596,0.00293,-0.077158,27.666666,-25.5,-24.5,,,,,,,,,,,,,,,,,,,,,,,,,,,,,,,,,,,,,,,,,,,,,,,,,,,,,,,,,,,,,,,,,,,,,,,,,,,,,,,,,,,,,,,,,,,,,,,,,,,,,,,,,,,,,,,,,,,,,,,,,,,,,,,,,,,,,,,,,,,,,,,,,,,,,,,,,,,,,,,,
1763973756.038467,34406.0,0.0,4407.436035,4402.692383,4511.922852,4544.871582,4420.897461,4532.563965,4560.512695,4407.94873,4598.461426,4397.05127,4501.410156,4538.589844,4590.128418,4418.846191,4426.282227,4524.487305,4574.102539,4556.282227,4532.820313,4414.743652,4427.05127,4594.487305,4544.358887,4521.410156,4416.794922,4595.769043,4405.0,4577.307617,4515.256348,4407.563965,4537.820313,4510.512695,2920.0,1.0,22.0,1536.0,839.0,,,,0.0,4.0,4.0,4.0,4.0,4.0,4.0,4.0,4.0,4.0,4.0,4.0,4.0,4.0,4.0,4.0,4.0,4.0,4.0,4.0,4.0,4.0,4.0,4.0,4.0,4.0,4.0,4.0,4.0,4.0,4.0,4.0,4.0,100.0,,,,,,,,,,,,,,,,,,,,,,,,,,,,,,,,,,,,,,,,,,,,,,,,,,,,,,,,,,,,,,,,,,,,,,,,,,,,,,,,,,,,,,,,,,,,,,,,,,,,,,,,,,,,,,,,,,,,,,,,,,,,,,,,,,,,,,,,,,,,,,,,,,,,,,,,,,,,,,,,,,,,,,,,,,,,,,,,,,,,,,,,,,,,,,,,,,,,,,,,,,,,,,
1763973756.042373,34407.0,0.0,4406.282227,4404.487305,4512.820313,4545.256348,4421.153809,4530.0,4556.794922,4405.769043,4597.179688,4392.820313,4494.871582,4531.794922,4583.717773,4414.102539,4422.307617,4516.794922,4569.743652,4553.589844,4541.922852,4414.102539,4429.358887,4595.641113,4541.410156,4525.0,4420.897461,4599.871582,4407.94873,4576.282227,4515.897461,4408.717773,4541.282227,4516.538574,2941.0,1.0,22.0,1536.0,839.0,,,,0.0,4.0,4.0,4.0,4.0,4.0,4.0,4.0,4.0,4.0,4.0,4.0,4.0,4.0,4.0,4.0,4.0,4.0,4.0,4.0,4.0,4.0,4.0,4.0,4.0,4.0,4.0,4.0,4.0,4.0,4.0,4.0,4.0,100.0,,,,,,,,,,,,,,,,,,,,,,,,,,,,,,,,,,,,,,,,,,,,,,,,,,,,,,,,,,,,,,,,,,,,,,,,,,,,,,,,,,,,,,,,,,,,,,,,,,,,,,,,,,,,,,,,,,,,,,,,,,,,,,,,,,,,,,,,,,,,,,,,,,,,,,,,,,,,,,,,,,,,,,,,,,,,,,,,,,,,,,,,,,,,,,,,,,,,,,,,,,,,,,
1763973756.046279,34408.0,0.0,4403.589844,4405.128418,4512.563965,4543.717773,4420.256348,4527.179688,4550.384766,4399.487305,4594.487305,4396.410156,4487.436035,4523.974121,4578.205078,4409.102539,4414.358887,4515.897461,4565.0,4551.025879,4549.102539,4407.436035,4428.077148,4595.0,4538.589844,4525.384766,4420.256348,4602.179688,4409.230957,4573.846191,4516.410156,4410.897461,4544.487305,4521.666504,2663.0,1.0,22.0,1792.0,847.0,,,,0.0,4.0,4.0,4.0,4.0,4.0,4.0,4.0,4.0,4.0,4.0,4.0,4.0,4.0,4.0,4.0,4.0,4.0,4.0,4.0,4.0,4.0,4.0,4.0,4.0,4.0,4.0,4.0,4.0,4.0,4.0,4.0,4.0,100.0,,,,,,,,,,,,,,,,,,,,,,,,,,,,,,,,,,,,,,,,,,,,,,,,,,,,,,,,,,,,,,,,,,,,,,,,,,,,,,,,,,,,,,,,,,,,,,,,,,,,,,,,,,,,,,,,,,,,,,,,,,,,,,,,,,,,,,,,,,,,,,,,,,,,,,,,,,,,,,,,,,,,,,,,,,,,,,,,,,,,,,,,,,,,,,,,,,,,,,,,,,,,,,
1763973756.050185,34409.0,0.0,4402.307617,4406.538574,4513.589844,4542.94873,4419.615234,4526.666504,4546.538574,4393.846191,4593.846191,4407.692383,4483.974121,4520.128418,4576.666504,4406.410156,4408.974121,4521.922852,4562.94873,4551.025879,4550.384766,4400.897461,4424.487305,4593.461426,4538.846191,4524.102539,4417.692383,4603.333496,4409.615234,4573.717773,4518.461426,4415.384766,4548.077148,4525.128418,2825.0,1.0,22.0,1792.0,847.0,,,,0.0,4.0,4.0,4.0,4.0,4.0,4.0,4.0,4.0,4.0,4.0,4.0,4.0,4.0,4.0,4.0,4.0,4.0,4.0,4.0,4.0,4.0,4.0,4.0,4.0,4.0,4.0,4.0,4.0,4.0,4.0,4.0,4.0,100.0,,,,,,,,,,,,,,,,,,,,,,,,,,,,,,,,,,,57754.0,0.0,0.661162,0.290039,0.247375,0.646179,0.993285,0.002442,-0.063484,28.5,-25.0,-24.166666,,,,,,,,,,,,,,,,,,,,,,,,,,,,,,,,,,,,,,,,,,,,,,,,,,,,,,,,,,,,,,,,,,,,,,,,,,,,,,,,,,,,,,,,,,,,,,,,,,,,,,,,,,,,,,,,,,,,,,,,,,,,,,,,,,,,,,,,,,,,,,,,,,,,,,,,,,,,,,,,
1763973756.054091,34410.0,0.0,4403.589844,4409.743652,4516.666504,4545.0,4420.769043,4528.974121,4548.461426,4393.077148,4596.282227,4421.666504,4487.05127,4522.436035,4578.589844,4406.666504,4410.0,4532.179688,4563.974121,4554.230957,4543.589844,4400.0,4420.128418,4590.897461,4542.94873,4522.692383,4415.641113,4604.230957,4410.128418,4577.307617,4522.436035,4422.307617,4552.307617,4527.05127,2669.0,1.0,22.0,2048.0,855.0,,,,0.0,4.0,4.0,4.0,4.0,4.0,4.0,4.0,4.0,4.0,4.0,4.0,4.0,4.0,4.0,4.0,4.0,4.0,4.0,4.0,4.0,4.0,4.0,4.0,4.0,4.0,4.0,4.0,4.0,4.0,4.0,4.0,4.0,100.0,,,,,,,,,,,,,,,,,,,,,,,,,,,,,,,,,,,,,,,,,,,,,,,,,,,,,,,,,,,,,,,,,,,,,,,,,,,,,,,,,,,,,,,,,,,,,,,,,,,,,,,,,,,,,,,,,,,,,,,,,,,,,,,,,,,,,,,,,,,,,,,,,,,,,,,,,,,,,,,,,,,,,,,,,,,,,,,,,,,,,,,,,,,,,,,,,,,,,,,,,,,,,,
1763973756.057997,34411.0,0.0,4407.05127,4415.0,4521.153809,4549.615234,4424.743652,4533.333496,4555.641113,4398.077148,4600.128418,4431.794922,4495.128418,4529.487305,4582.436035,4409.743652,4416.538574,4543.205078,4566.153809,4559.102539,4532.179688,4405.512695,4416.666504,4588.205078,4549.230957,4522.436035,4416.025879,4605.512695,4412.05127,4582.820313,4528.077148,4430.512695,4557.05127,4529.487305,2974.0,1.0,22.0,2048.0,855.0,,,,0.0,4.0,4.0,4.0,4.0,4.0,4.0,4.0,4.0,4.0,4.0,4.0,4.0,4.0,4.0,4.0,4.0,4.0,4.0,4.0,4.0,4.0,4.0,4.0,4.0,4.0,4.0,4.0,4.0,4.0,4.0,4.0,4.0,100.0,,,,,,,,,,,,,,,,,,,,,,,,,,,,,,,,,,,,,,,,,,,,,,,,,,,,,,,,,,,,,,,,,,,,,,,,,,,,,,,,,,,,,,,,,,,,,,,,,,,,,,,,,,,,,,,,,,,,,,,,,,,,,,,,,,,,,,,,,,,,,,,,,,,,,,,,,,,,,,,,,,,,,,,,,,,,,,,,,,,,,,,,,,,,,,,,,,,,,,,,,,,,,,
1763973756.061903,34412.0,0.0,4411.666504,4421.025879,4525.128418,4555.128418,4430.897461,4537.820313,4564.871582,4406.794922,4603.846191,4435.128418,4504.615234,4537.820313,4586.538574,4414.230957,4423.461426,4550.384766,4568.333496,4562.05127,4523.333496,4412.692383,4415.128418,4587.179688,4555.256348,4522.692383,4418.589844,4607.179688,4415.897461,4587.692383,4533.846191,4437.94873,4560.897461,4534.230957,2939.0,1.0,22.0,2304.0,863.0,,,,0.0,4.0,4.0,4.0,4.0,4.0,4.0,4.0,4.0,4.0,4.0,4.0,4.0,4.0,4.0,4.0,4.0,4.0,4.0,4.0,4.0,4.0,4.0,4.0,4.0,4.0,4.0,4.0,4.0,4.0,4.0,4.0,4.0,100.0,,,,,,,,,,,,,,,,,,,,,,,,,,,,,,,,,,,,,,,,,,,,,,,,,,,,,,,,,,,,,,,,,,,,,,,,,,,,,,,,,,,,,,,,,,,,,,,,,,,,,,,,,,,,,,,,,,,,,,,,,,,,,,,,,,,,,,,,,,,,,,,,,,,,,,,,,,,,,,,,,,,,,,,,,,,,,,,,,,,,,,,,,,,,,,,,,,,,,,,,,,,,,,
1763973756.065809,34413.0,0.0,4415.512695,4425.128418,4526.538574,4558.205078,4436.153809,4540.641113,4571.666504,4415.0,4606.153809,4432.692383,4510.641113,4543.589844,4589.487305,4417.179688,4425.128418,4549.102539,4569.615234,4559.487305,4520.769043,4414.230957,4415.256348,4587.820313,4558.333496,4521.410156,4421.410156,4607.563965,4419.615234,4588.974121,4537.307617,4441.410156,4561.922852,4539.871582,2793.0,1.0,22.0,2304.0,863.0,,,,0.0,4.0,4.0,4.0,4.0,4.0,4.0,4.0,4.0,4.0,4.0,4.0,4.0,4.0,4.0,4.0,4.0,4.0,4.0,4.0,4.0,4.0,4.0,4.0,4.0,4.0,4.0,4.0,4.0,4.0,4.0,4.0,4.0,100.0,,,,,,,,,,,,,,,,,,,,,,,,,,,,,,,,,,,57755.0,0.0,0.661189,0.289978,0.247375,0.646179,1.000122,-0.00293,-0.042974,27.5,-24.833334,-23.833334,,,,,,,,,,,,,,,,,,,,,,,,,,,,,,,,,,,,,,,,,,,,,,,,,,,,,,,,,,,,,,,,,,,,,,,,,,,,,,,,,,,,,,,,,,,,,,,,,,,,,,,,,,,,,,,,,,,,,,,,,,,,,,,,,,,,,,,,,,,,,,,,,,,,,,,,,,,,,,,,
1763973756.069715,34414.0,0.0,4416.153809,4424.230957,4524.615234,4556.922852,4436.922852,4540.128418,4572.563965,4418.205078,4605.897461,4426.666504,4509.871582,4544.487305,4589.230957,4415.256348,4419.358887,4536.666504,4569.102539,4550.256348,4522.692383,4406.666504,4414.230957,4587.94873,4556.666504,4517.692383,4421.025879,4604.871582,4420.0,4585.384766,4535.512695,4437.820313,4558.333496,4542.563965,2743.0,1.0,22.0,1024.0,871.0,,,,0.0,4.0,4.0,4.0,4.0,4.0,4.0,4.0,4.0,4.0,4.0,4.0,4.0,4.0,4.0,4.0,4.0,4.0,4.0,4.0,4.0,4.0,4.0,4.0,4.0,4.0,4.0,4.0,4.0,4.0,4.0,4.0,4.0,100.0,,,,,,,,,,,,,,,,,,,,,,,,,,,,,,,,,,,,,,,,,,,,,,,3.335778,2.690924,1.539996,1.242341,0.756988,3.111948,4.315355,1.505234,1.294932,0.673929,4.327406,2.885203,1.714575,0.927943,0.848413,2.464597,2.122431,0.9924,0.842132,0.644273,2.312576,2.18809,0.981144,0.811313,0.514967,1.903778,1.577144,0.624291,0.783567,0.460417,2.283557,1.722628,0.832385,1.060602,0.732336,1.886043,1.791789,0.916443,0.995419,0.702525,2.102987,1.494427,0.703915,0.9039,0.803986,0.916108,1.020845,0.882748,2.67169,1.502563,1.007014,0.761515,0.735009,1.279597,0.532242,3.204623,3.011318,1.57179,1.12077,0.71787,1.835185,1.341232,1.640764,1.467698,0.838555,0.493413,0.64929,1.092062,1.113258,0.708203,0.767793,1.375926,1.136785,0.874079,0.785219,1.76019,3.486269,2.585313,3.73181,2.009981,2.58795,3.254662,3.671675,1.352511,0.762009,1.566642,1.71865,1.384224,1.928947,1.08485,2.044865,1.34532,1.382269,1.254505,1.00455,2.043703,2.277129,0.928228,0.663565,1.027205,2.558006,3.564704,1.698782,0.924401,0.944995,4.329925,5.046645,3.353426,1.658805,0.866988,3.902532,4.481626,3.220848,1.497207,0.868354,4.370486,4.967698,2.114919,1.318906,0.752712,4.361879,5.155309,1.136411,1.424228,0.756745,3.460724,4.132131,0.920774,0.859869,0.864312,4.545801,5.521348,1.10138,1.397375,0.773233,4.145779,4.668901,2.031946,1.259945,0.751107,3.682429,4.131285,1.091094,1.235164,0.727216,5.018829,5.021522,1.045999,1.230534,0.701571,4.840938,6.324286,0.875396,1.013626,0.712227,3.995638,4.308611,0.95976,1.021964,0.690992
1763973756.073621,34415.0,0.0,4412.820313,4417.179688,4520.384766,4551.410156,4432.05127,4536.282227,4567.436035,4414.743652,4602.05127,4419.230957,4503.077148,4540.641113,4585.512695,4407.820313,4408.205078,4516.410156,4566.538574,4537.307617,4523.846191,4392.94873,4409.230957,4584.615234,4550.384766,4511.922852,4415.384766,4598.333496,4415.0,4577.563965,4527.820313,4427.820313,4550.769043,4538.846191,2798.0,1.0,22.0,1024.0,871.0,,,,0.0,4.0,4.0,4.0,4.0,4.0,4.0,4.0,4.0,4.0,4.0,4.0,4.0,4.0,4.0,4.0,4.0,4.0,4.0,4.0,4.0,4.0,4.0,4.0,4.0,4.0,4.0,4.0,4.0,4.0,4.0,4.0,4.0,100.0,,,,,,,,,,,,,,,,,,,,,,,,,,,,,,,,,,,,,,,,,,,,,,,,,,,,,,,,,,,,,,,,,,,,,,,,,,,,,,,,,,,,,,,,,,,,,,,,,,,,,,,,,,,,,,,,,,,,,,,,,,,,,,,,,,,,,,,,,,,,,,,,,,,,,,,,,,,,,,,,,,,,,,,,,,,,,,,,,,,,,,,,,,,,,,,,,,,,,,,,,,,,,,
1763973756.077527,34416.0,0.0,4408.077148,4406.666504,4515.641113,4543.974121,4424.358887,4531.282227,4559.871582,4406.794922,4595.512695,4412.436035,4494.743652,4534.615234,4580.769043,4398.461426,4397.179688,4498.205078,4562.692383,4526.922852,4521.282227,4380.897461,4400.512695,4577.692383,4542.307617,4506.538574,4406.410156,4590.256348,4406.282227,4569.102539,4517.692383,4415.897461,4542.179688,4529.743652,2917.0,1.0,22.0,256.0,879.0,,,,0.0,4.0,4.0,4.0,4.0,4.0,4.0,4.0,4.0,4.0,4.0,4.0,4.0,4.0,4.0,4.0,4.0,4.0,4.0,4.0,4.0,4.0,4.0,4.0,4.0,4.0,4.0,4.0,4.0,4.0,4.0,4.0,4.0,100.0,,,,,,,,,,,,,,,,,,,,,,,,,,,,,,,,,,,,,,,,,,,,,,,,,,,,,,,,,,,,,,,,,,,,,,,,,,,,,,,,,,,,,,,,,,,,,,,,,,,,,,,,,,,,,,,,,,,,,,,,,,,,,,,,,,,,,,,,,,,,,,,,,,,,,,,,,,,,,,,,,,,,,,,,,,,,,,,,,,,,,,,,,,,,,,,,,,,,,,,,,,,,,,
1763973756.081433,34417.0,0.0,4405.512695,4398.461426,4512.307617,4537.692383,4418.589844,4528.205078,4554.871582,4399.102539,4588.846191,4407.692383,4489.743652,4530.641113,4578.589844,4392.94873,4390.769043,4492.179688,4559.871582,4524.102539,4515.769043,4376.538574,4391.666504,4570.128418,4536.025879,4503.205078,4398.077148,4583.717773,4398.205078,4563.846191,4510.641113,4408.333496,4535.769043,4520.128418,3039.0,1.0,22.0,256.0,879.0,,,,0.0,4.0,4.0,4.0,4.0,4.0,4.0,4.0,4.0,4.0,4.0,4.0,4.0,4.0,4.0,4.0,4.0,4.0,4.0,4.0,4.0,4.0,4.0,4.0,4.0,4.0,4.0,4.0,4.0,4.0,4.0,4.0,4.0,100.0,,,,,,,,,,,,,,,,,,,,,,,,,,,,,,,,,,,57756.0,0.0,0.661126,0.2901,0.247559,0.646118,0.990844,-0.004395,-0.051764,28.666666,-25.666666,-22.666666,,,,,,,,,,,,,,,,,,,,,,,,,,,,,,,,,,,,,,,,,,,,,,,,,,,,,,,,,,,,,,,,,,,,,,,,,,,,,,,,,,,,,,,,,,,,,,,,,,,,,,,,,,,,,,,,,,,,,,,,,,,,,,,,,,,,,,,,,,,,,,,,,,,,,,,,,,,,,,,,
1763973756.085339,34418.0,0.0,4407.563965,4396.794922,4510.384766,4535.0,4418.077148,4529.230957,4554.871582,4396.282227,4584.102539,4405.641113,4490.256348,4531.282227,4581.538574,4395.0,4390.0,4502.94873,4560.512695,4529.230957,4510.512695,4379.230957,4387.307617,4566.153809,4535.0,4502.692383,4394.487305,4581.153809,4395.128418,4564.230957,4510.256348,4408.846191,4532.820313,4515.0,2821.0,1.0,22.0,256.0,886.0,,,,0.0,4.0,4.0,4.0,4.0,4.0,4.0,4.0,4.0,4.0,4.0,4.0,4.0,4.0,4.0,4.0,4.0,4.0,4.0,4.0,4.0,4.0,4.0,4.0,4.0,4.0,4.0,4.0,4.0,4.0,4.0,4.0,4.0,100.0,,,,,,,,,,,,,,,,,,,,,,,,,,,,,,,,,,,,,,,,,,,,,,,,,,,,,,,,,,,,,,,,,,,,,,,,,,,,,,,,,,,,,,,,,,,,,,,,,,,,,,,,,,,,,,,,,,,,,,,,,,,,,,,,,,,,,,,,,,,,,,,,,,,,,,,,,,,,,,,,,,,,,,,,,,,,,,,,,,,,,,,,,,,,,,,,,,,,,,,,,,,,,,
1763973756.089245,34419.0,0.0,4413.077148,4401.922852,4509.230957,4536.538574,4423.205078,4533.589844,4558.333496,4400.128418,4582.05127,4405.0,4494.871582,4536.153809,4588.333496,4402.94873,4392.563965,4525.128418,4564.358887,4537.94873,4507.94873,4383.589844,4389.615234,4567.820313,4539.358887,4504.615234,4396.282227,4582.436035,4398.077148,4569.358887,4515.897461,4416.410156,4532.94873,4515.897461,3014.0,1.0,22.0,256.0,886.0,,,,0.0,4.0,4.0,4.0,4.0,4.0,4.0,4.0,4.0,4.0,4.0,4.0,4.0,4.0,4.0,4.0,4.0,4.0,4.0,4.0,4.0,4.0,4.0,4.0,4.0,4.0,4.0,4.0,4.0,4.0,4.0,4.0,4.0,100.0,,,,,,,,,,,,,,,,,,,,,,,,,,,,,,,,,,,,,,,,,,,,,,,,,,,,,,,,,,,,,,,,,,,,,,,,,,,,,,,,,,,,,,,,,,,,,,,,,,,,,,,,,,,,,,,,,,,,,,,,,,,,,,,,,,,,,,,,,,,,,,,,,,,,,,,,,,,,,,,,,,,,,,,,,,,,,,,,,,,,,,,,,,,,,,,,,,,,,,,,,,,,,,
1763973756.093051,34420.0,0.0,4418.717773,4410.256348,4508.974121,4540.769043,4430.897461,4539.102539,4562.05127,4408.205078,4582.307617,4404.358887,4500.384766,4542.563965,4594.743652,4411.794922,4395.641113,4546.794922,4568.974121,4544.102539,4508.333496,4384.871582,4397.307617,4573.461426,4546.538574,4508.461426,4401.794922,4586.153809,4405.0,4575.769043,4523.589844,4426.538574,4535.769043,4520.384766,2984.0,1.0,22.0,512.0,894.0,,,,0.0,4.0,4.0,4.0,4.0,4.0,4.0,4.0,4.0,4.0,4.0,4.0,4.0,4.0,4.0,4.0,4.0,4.0,4.0,4.0,4.0,4.0,4.0,4.0,4.0,4.0,4.0,4.0,4.0,4.0,4.0,4.0,4.0,100.0,,,,,,,,,,,,,,,,,,,,,,,,,,,,,,,,,,,,,,,,,,,,,,,,,,,,,,,,,,,,,,,,,,,,,,,,,,,,,,,,,,,,,,,,,,,,,,,,,,,,,,,,,,,,,,,,,,,,,,,,,,,,,,,,,,,,,,,,,,,,,,,,,,,,,,,,,,,,,,,,,,,,,,,,,,,,,,,,,,,,,,,,,,,,,,,,,,,,,,,,,,,,,,
1763973756.096957,34421.0,0.0,4421.282227,4417.05127,4509.743652,4545.384766,4437.692383,4542.563965,4564.358887,4416.282227,4584.871582,4402.179688,4503.461426,4546.922852,4597.05127,4416.794922,4397.94873,4555.641113,4571.282227,4544.871582,4510.128418,4382.563965,4405.897461,4579.230957,4552.307617,4512.820313,4407.94873,4590.512695,4411.410156,4580.512695,4528.974121,4433.846191,4541.025879,4524.743652,2842.0,1.0,22.0,512.0,894.0,,,,0.0,4.0,4.0,4.0,4.0,4.0,4.0,4.0,4.0,4.0,4.0,4.0,4.0,4.0,4.0,4.0,4.0,4.0,4.0,4.0,4.0,4.0,4.0,4.0,4.0,4.0,4.0,4.0,4.0,4.0,4.0,4.0,4.0,100.0,,,,,,,,,,,,,,,,,,,,,,,,,,,,,,,,,,,57757.0,0.0,0.661176,0.290039,0.247498,0.646118,1.005982,-0.006837,-0.048346,29.5,-24.5,-23.833334,,,,,,,,,,,,,,,,,,,,,,,,,,,,,,,,,,,,,,,,,,,,,,,,,,,,,,,,,,,,,,,,,,,,,,,,,,,,,,,,,,,,,,,,,,,,,,,,,,,,,,,,,,,,,,,,,,,,,,,,,,,,,,,,,,,,,,,,,,,,,,,,,,,,,,,,,,,,,,,,
1763973756.100863,34422.0,0.0,4419.743652,4419.743652,4511.666504,4548.333496,4440.769043,4542.436035,4565.0,4420.128418,4589.102539,4399.230957,4503.205078,4546.922852,4594.230957,4416.666504,4400.769043,4547.436035,4569.743652,4541.282227,4512.179688,4381.282227,4411.922852,4582.179688,4553.846191,4516.410156,4412.563965,4594.743652,4414.487305,4581.922852,4529.615234,4435.256348,4547.05127,4526.153809,2981.0,1.0,22.0,768.0,902.0,,,,0.0,4.0,4.0,4.0,4.0,4.0,4.0,4.0,4.0,4.0,4.0,4.0,4.0,4.0,4.0,4.0,4.0,4.0,4.0,4.0,4.0,4.0,4.0,4.0,4.0,4.0,4.0,4.0,4.0,4.0,4.0,4.0,4.0,100.0,,,,,,,,,,,,,,,,,,,,,,,,,,,,,,,,,,,,,,,,,,,,,,,,,,,,,,,,,,,,,,,,,,,,,,,,,,,,,,,,,,,,,,,,,,,,,,,,,,,,,,,,,,,,,,,,,,,,,,,,,,,,,,,,,,,,,,,,,,,,,,,,,,,,,,,,,,,,,,,,,,,,,,,,,,,,,,,,,,,,,,,,,,,,,,,,,,,,,,,,,,,,,,
1763973756.104769,34423.0,0.0,4415.512695,4418.333496,4513.461426,4548.717773,4439.102539,4539.358887,4564.230957,4418.461426,4593.846191,4397.94873,4500.897461,4543.077148,4588.589844,4413.333496,4405.384766,4527.94873,4565.384766,4537.436035,4515.512695,4385.641113,4413.974121,4582.05127,4550.897461,4518.717773,4414.615234,4598.589844,4413.589844,4580.256348,4526.282227,4431.025879,4551.282227,4525.384766,2932.0,1.0,22.0,768.0,902.0,,,,0.0,4.0,4.0,4.0,4.0,4.0,4.0,4.0,4.0,4.0,4.0,4.0,4.0,4.0,4.0,4.0,4.0,4.0,4.0,4.0,4.0,4.0,4.0,4.0,4.0,4.0,4.0,4.0,4.0,4.0,4.0,4.0,4.0,100.0,,,,,,,,,,,,,,,,,,,,,,,,,,,,,,,,,,,,,,,,,,,,,,,,,,,,,,,,,,,,,,,,,,,,,,,,,,,,,,,,,,,,,,,,,,,,,,,,,,,,,,,,,,,,,,,,,,,,,,,,,,,,,,,,,,,,,,,,,,,,,,,,,,,,,,,,,,,,,,,,,,,,,,,,,,,,,,,,,,,,,,,,,,,,,,,,,,,,,,,,,,,,,,
1763973756.108674,34424.0,0.0,4410.897461,4414.743652,4513.333496,4547.179688,4433.589844,4535.0,4562.05127,4412.820313,4596.922852,4401.153809,4498.461426,4537.563965,4583.461426,4409.871582,4411.153809,4509.871582,4560.769043,4537.05127,4522.05127,4395.769043,4413.589844,4581.410156,4545.512695,4520.0,4414.743652,4601.666504,4410.897461,4576.410156,4522.05127,4424.743652,4552.05127,4524.743652,2908.0,1.0,22.0,256.0,910.0,,,,0.0,4.0,4.0,4.0,4.0,4.0,4.0,4.0,4.0,4.0,4.0,4.0,4.0,4.0,4.0,4.0,4.0,4.0,4.0,4.0,4.0,4.0,4.0,4.0,4.0,4.0,4.0,4.0,4.0,4.0,4.0,4.0,4.0,100.0,,,,,,,,,,,,,,,,,,,,,,,,,,,,,,,,,,,,,,,,,,,,,,,,,,,,,,,,,,,,,,,,,,,,,,,,,,,,,,,,,,,,,,,,,,,,,,,,,,,,,,,,,,,,,,,,,,,,,,,,,,,,,,,,,,,,,,,,,,,,,,,,,,,,,,,,,,,,,,,,,,,,,,,,,,,,,,,,,,,,,,,,,,,,,,,,,,,,,,,,,,,,,,
1763973756.11258,34425.0,0.0,4407.563965,4411.666504,4510.128418,4544.102539,4426.666504,4531.538574,4558.717773,4406.282227,4596.282227,4408.461426,4497.05127,4532.94873,4581.538574,4407.820313,4415.256348,4505.0,4558.333496,4541.922852,4531.538574,4406.153809,4413.077148,4582.436035,4540.769043,4521.153809,4414.487305,4603.717773,4409.615234,4572.05127,4519.358887,4420.384766,4549.615234,4524.871582,2835.0,1.0,22.0,256.0,910.0,,,,0.0,4.0,4.0,4.0,4.0,4.0,4.0,4.0,4.0,4.0,4.0,4.0,4.0,4.0,4.0,4.0,4.0,4.0,4.0,4.0,4.0,4.0,4.0,4.0,4.0,4.0,4.0,4.0,4.0,4.0,4.0,4.0,4.0,100.0,,,,,,,,,,,,,,,,,,,,,,,,,,,,,,,,,,,57758.0,0.0,0.661252,0.289917,0.247437,0.646118,0.995239,0.001465,-0.060066,28.0,-26.833334,-24.666666,,,,,,,,,,,,,,,,,,,,,,,,,,,,,,,,,,,,,,,,,,,,,,,,,,,,,,,,,,,,,,,,,,,,,,,,,,,,,,,,,,,,,,,,,,,,,,,,,,,,,,,,,,,,,,,,,,,,,,,,,,,,,,,,,,,,,,,,,,,,,,,,,,,,,,,,,,,,,,,,
1763973756.116486,34426.0,0.0,4405.512695,4409.871582,4504.615234,4539.487305,4420.897461,4529.487305,4555.0,4400.769043,4591.666504,4416.538574,4496.153809,4530.256348,4583.589844,4406.922852,4415.641113,4516.538574,4558.846191,4551.025879,4540.128418,4410.641113,4413.846191,4585.769043,4538.717773,4522.307617,4414.230957,4604.230957,4410.769043,4568.846191,4519.230957,4419.743652,4545.512695,4524.615234,2808.0,1.0,22.0,512.0,918.0,,,,0.0,4.0,4.0,4.0,4.0,4.0,4.0,4.0,4.0,4.0,4.0,4.0,4.0,4.0,4.0,4.0,4.0,4.0,4.0,4.0,4.0,4.0,4.0,4.0,4.0,4.0,4.0,4.0,4.0,4.0,4.0,4.0,4.0,100.0,,,,,,,,,,,,,,,,,,,,,,,,,,,,,,,,,,,,,,,,,,,,,,,,,,,,,,,,,,,,,,,,,,,,,,,,,,,,,,,,,,,,,,,,,,,,,,,,,,,,,,,,,,,,,,,,,,,,,,,,,,,,,,,,,,,,,,,,,,,,,,,,,,,,,,,,,,,,,,,,,,,,,,,,,,,,,,,,,,,,,,,,,,,,,,,,,,,,,,,,,,,,,,
1763973756.120392,34427.0,0.0,4403.205078,4408.717773,4499.615234,4533.589844,4418.205078,4528.461426,4551.410156,4397.05127,4585.128418,4420.0,4494.871582,4529.230957,4587.692383,4406.794922,4413.077148,4537.436035,4561.410156,4560.641113,4543.077148,4406.794922,4415.769043,4589.358887,4539.102539,4522.05127,4413.589844,4602.692383,4412.692383,4567.94873,4520.384766,4421.794922,4541.410156,4521.666504,3006.0,1.0,22.0,512.0,918.0,,,,0.0,4.0,4.0,4.0,4.0,4.0,4.0,4.0,4.0,4.0,4.0,4.0,4.0,4.0,4.0,4.0,4.0,4.0,4.0,4.0,4.0,4.0,4.0,4.0,4.0,4.0,4.0,4.0,4.0,4.0,4.0,4.0,4.0,100.0,,,,,,,,,,,,,,,,,,,,,,,,,,,,,,,,,,,,,,,,,,,,,,,,,,,,,,,,,,,,,,,,,,,,,,,,,,,,,,,,,,,,,,,,,,,,,,,,,,,,,,,,,,,,,,,,,,,,,,,,,,,,,,,,,,,,,,,,,,,,,,,,,,,,,,,,,,,,,,,,,,,,,,,,,,,,,,,,,,,,,,,,,,,,,,,,,,,,,,,,,,,,,,
1763973756.124297,34428.0,0.0,4398.974121,4407.307617,4496.922852,4527.179688,4418.589844,4527.692383,4548.333496,4394.743652,4579.358887,4415.769043,4492.436035,4528.333496,4590.0,4407.307617,4411.025879,4554.615234,4563.333496,4566.153809,4537.820313,4398.846191,4417.307617,4590.384766,4539.615234,4519.487305,4411.922852,4598.589844,4412.05127,4568.589844,4521.282227,4423.974121,4538.461426,4515.897461,2971.0,1.0,22.0,768.0,925.0,,,,0.0,4.0,4.0,4.0,4.0,4.0,4.0,4.0,4.0,4.0,4.0,4.0,4.0,4.0,4.0,4.0,4.0,4.0,4.0,4.0,4.0,4.0,4.0,4.0,4.0,4.0,4.0,4.0,4.0,4.0,4.0,4.0,4.0,100.0,,,,,,,,,,,,,,,,,,,,,,,,,,,,,,,,,,,,,,,,,,,,,,,,,,,,,,,,,,,,,,,,,,,,,,,,,,,,,,,,,,,,,,,,,,,,,,,,,,,,,,,,,,,,,,,,,,,,,,,,,,,,,,,,,,,,,,,,,,,,,,,,,,,,,,,,,,,,,,,,,,,,,,,,,,,,,,,,,,,,,,,,,,,,,,,,,,,,,,,,,,,,,,
1763973756.128203,34429.0,0.0,4393.461426,4405.641113,4497.179688,4521.666504,4421.153809,4526.538574,4545.128418,4393.333496,4576.794922,4405.256348,4489.230957,4526.025879,4587.94873,4408.717773,4412.307617,4558.461426,4562.563965,4565.128418,4527.563965,4393.717773,4417.692383,4587.692383,4538.077148,4514.871582,4408.974121,4593.077148,4406.922852,4569.230957,4521.153809,4424.358887,4537.179688,4510.128418,2822.0,1.0,22.0,768.0,925.0,,,,0.0,4.0,4.0,4.0,4.0,4.0,4.0,4.0,4.0,4.0,4.0,4.0,4.0,4.0,4.0,4.0,4.0,4.0,4.0,4.0,4.0,4.0,4.0,4.0,4.0,4.0,4.0,4.0,4.0,4.0,4.0,4.0,4.0,100.0,,,,,,,,,,,,,,,,,,,,,,,,,,,,,,,,,,,57759.0,0.0,0.66118,0.289978,0.247559,0.646118,0.995239,0.001465,-0.060066,26.5,-25.0,-27.0,,,,,,,,,,,,,,,,,,,,,,,,,,,,,,,,,,,,,,,,,,,,,,,,,,,,,,,,,,,,,,,,,,,,,,,,,,,,,,,,,,,,,,,,,,,,,,,,,,,,,,,,,,,,,,,,,,,,,,,,,,,,,,,,,,,,,,,,,,,,,,,,,,,,,,,,,,,,,,,,
1763973756.132109,34430.0,0.0,4389.358887,4405.256348,4499.615234,4519.230957,4424.230957,4525.641113,4541.794922,4392.563965,4578.717773,4393.974121,4486.538574,4522.692383,4582.563965,4410.512695,4417.05127,4549.102539,4559.487305,4558.717773,4519.743652,4396.410156,4417.94873,4583.205078,4534.871582,4510.512695,4406.025879,4588.589844,4399.743652,4568.589844,4520.512695,4423.589844,4537.436035,4508.589844,3007.0,1.0,22.0,1024.0,933.0,,,,0.0,4.0,4.0,4.0,4.0,4.0,4.0,4.0,4.0,4.0,4.0,4.0,4.0,4.0,4.0,4.0,4.0,4.0,4.0,4.0,4.0,4.0,4.0,4.0,4.0,4.0,4.0,4.0,4.0,4.0,4.0,4.0,4.0,100.0,,,,,,,,,,,,,,,,,,,,,,,,,,,,,,,,,,,,,,,,,,,,,,,,,,,,,,,,,,,,,,,,,,,,,,,,,,,,,,,,,,,,,,,,,,,,,,,,,,,,,,,,,,,,,,,,,,,,,,,,,,,,,,,,,,,,,,,,,,,,,,,,,,,,,,,,,,,,,,,,,,,,,,,,,,,,,,,,,,,,,,,,,,,,,,,,,,,,,,,,,,,,,,
1763973756.136015,34431.0,0.0,4390.0,4407.94873,4503.461426,4521.794922,4426.794922,4526.153809,4540.128418,4393.846191,4585.128418,4389.230957,4486.538574,4520.384766,4578.077148,4412.692383,4423.461426,4535.384766,4556.538574,4551.794922,4520.897461,4406.025879,4420.512695,4581.153809,4533.077148,4509.743652,4405.384766,4588.077148,4395.256348,4567.692383,4521.666504,4423.717773,4538.589844,4513.846191,2920.0,1.0,22.0,1024.0,933.0,,,,0.0,4.0,4.0,4.0,4.0,4.0,4.0,4.0,4.0,4.0,4.0,4.0,4.0,4.0,4.0,4.0,4.0,4.0,4.0,4.0,4.0,4.0,4.0,4.0,4.0,4.0,4.0,4.0,4.0,4.0,4.0,4.0,4.0,100.0,,,,,,,,,,,,,,,,,,,,,,,,,,,,,,,,,,,,,,,,,,,,,,,,,,,,,,,,,,,,,,,,,,,,,,,,,,,,,,,,,,,,,,,,,,,,,,,,,,,,,,,,,,,,,,,,,,,,,,,,,,,,,,,,,,,,,,,,,,,,,,,,,,,,,,,,,,,,,,,,,,,,,,,,,,,,,,,,,,,,,,,,,,,,,,,,,,,,,,,,,,,,,,
1763973756.139921,34432.0,0.0,4395.512695,4413.717773,4508.461426,4529.102539,4428.461426,4528.333496,4541.538574,4398.205078,4593.717773,4395.128418,4490.512695,4521.282227,4577.436035,4414.871582,4428.974121,4527.820313,4556.666504,4550.128418,4531.538574,4416.794922,4426.410156,4584.102539,4534.871582,4513.333496,4408.333496,4592.307617,4397.307617,4568.589844,4525.641113,4425.769043,4540.512695,4524.102539,2814.0,1.0,22.0,1280.0,941.0,,,,0.0,4.0,4.0,4.0,4.0,4.0,4.0,4.0,4.0,4.0,4.0,4.0,4.0,4.0,4.0,4.0,4.0,4.0,4.0,4.0,4.0,4.0,4.0,4.0,4.0,4.0,4.0,4.0,4.0,4.0,4.0,4.0,4.0,100.0,,,,,,,,,,,,,,,,,,,,,,,,,,,,,,,,,,,,,,,,,,,,,,,,,,,,,,,,,,,,,,,,,,,,,,,,,,,,,,,,,,,,,,,,,,,,,,,,,,,,,,,,,,,,,,,,,,,,,,,,,,,,,,,,,,,,,,,,,,,,,,,,,,,,,,,,,,,,,,,,,,,,,,,,,,,,,,,,,,,,,,,,,,,,,,,,,,,,,,,,,,,,,,
1763973756.143826,34433.0,0.0,4402.436035,4419.487305,4513.205078,4537.94873,4429.615234,4531.410156,4546.153809,4404.743652,4601.410156,4407.94873,4496.666504,4525.0,4580.384766,4416.025879,4431.794922,4529.743652,4560.0,4555.0,4544.743652,4422.436035,4432.307617,4590.256348,4539.102539,4518.974121,4413.205078,4598.461426,4403.974121,4571.410156,4530.512695,4428.461426,4543.077148,4533.589844,2945.0,1.0,22.0,1280.0,941.0,,,,0.0,4.0,4.0,4.0,4.0,4.0,4.0,4.0,4.0,4.0,4.0,4.0,4.0,4.0,4.0,4.0,4.0,4.0,4.0,4.0,4.0,4.0,4.0,4.0,4.0,4.0,4.0,4.0,4.0,4.0,4.0,4.0,4.0,100.0,,,,,,,,,,,,,,,,,,,,,,,,,,,,,,,,,,,57760.0,0.0,0.661282,0.289734,0.247253,0.64624,0.992309,0.006837,-0.062996,28.666666,-25.166666,-23.5,,,,,,,,,,,,,,,,,,,,,,,,,,,,,,,,,,,,,,,,,,,,,,,,,,,,,,,,,,,,,,,,,,,,,,,,,,,,,,,,,,,,,,,,,,,,,,,,,,,,,,,,,,,,,,,,,,,,,,,,,,,,,,,,,,,,,,,,,,,,,,,,,,,,,,,,,,,,,,,,
1763973756.147732,34434.0,0.0,4405.769043,4421.025879,4516.025879,4543.205078,4429.871582,4533.333496,4551.025879,4409.615234,4604.358887,4417.94873,4501.410156,4528.974121,4583.077148,4415.128418,4430.512695,4536.025879,4563.589844,4562.436035,4551.794922,4419.358887,4433.333496,4593.974121,4541.794922,4521.922852,4415.641113,4602.436035,4409.487305,4573.461426,4532.436035,4428.974121,4544.871582,4536.410156,2264.0,1.0,22.0,1536.0,949.0,,,,0.0,4.0,4.0,4.0,4.0,4.0,4.0,4.0,4.0,4.0,4.0,4.0,4.0,4.0,4.0,4.0,4.0,4.0,4.0,4.0,4.0,4.0,4.0,4.0,4.0,4.0,4.0,4.0,4.0,4.0,4.0,4.0,4.0,100.0,,,,,,,,,,,,,,,,,,,,,,,,,,,,,,,,,,,,,,,,,,,,,,,,,,,,,,,,,,,,,,,,,,,,,,,,,,,,,,,,,,,,,,,,,,,,,,,,,,,,,,,,,,,,,,,,,,,,,,,,,,,,,,,,,,,,,,,,,,,,,,,,,,,,,,,,,,,,,,,,,,,,,,,,,,,,,,,,,,,,,,,,,,,,,,,,,,,,,,,,,,,,,,
1763973756.151638,34435.0,0.0,4403.205078,4416.666504,4515.512695,4541.025879,4428.717773,4532.563965,4552.94873,4409.615234,4601.153809,4416.153809,4502.436035,4529.871582,4582.179688,4411.794922,4425.128418,4537.563965,4563.461426,4565.641113,4548.205078,4410.128418,4427.820313,4591.153809,4539.615234,4519.230957,4412.436035,4601.153809,4408.461426,4571.666504,4528.717773,4425.384766,4543.974121,4530.512695,2937.0,1.0,22.0,1536.0,949.0,,,,0.0,4.0,4.0,4.0,4.0,4.0,4.0,4.0,4.0,4.0,4.0,4.0,4.0,4.0,4.0,4.0,4.0,4.0,4.0,4.0,4.0,4.0,4.0,4.0,4.0,4.0,4.0,4.0,4.0,4.0,4.0,4.0,4.0,100.0,,,,,,,,,,,,,,,,,,,,,,,,,,,,,,,,,,,,,,,,,,,,,,,,,,,,,,,,,,,,,,,,,,,,,,,,,,,,,,,,,,,,,,,,,,,,,,,,,,,,,,,,,,,,,,,,,,,,,,,,,,,,,,,,,,,,,,,,,,,,,,,,,,,,,,,,,,,,,,,,,,,,,,,,,,,,,,,,,,,,,,,,,,,,,,,,,,,,,,,,,,,,,,
1763973756.155544,34436.0,0.0,4396.538574,4408.461426,4511.025879,4532.179688,4425.384766,4529.358887,4551.025879,4404.615234,4593.589844,4401.794922,4500.128418,4526.922852,4577.563965,4407.820313,4417.307617,4529.871582,4558.717773,4560.641113,4536.025879,4400.641113,4418.461426,4582.05127,4533.205078,4511.282227,4404.358887,4595.0,4400.769043,4565.512695,4520.384766,4418.333496,4538.974121,4518.846191,2840.0,1.0,22.0,1792.0,957.0,,,,0.0,4.0,4.0,4.0,4.0,4.0,4.0,4.0,4.0,4.0,4.0,4.0,4.0,4.0,4.0,4.0,4.0,4.0,4.0,4.0,4.0,4.0,4.0,4.0,4.0,4.0,4.0,4.0,4.0,4.0,4.0,4.0,4.0,100.0,,,,,,,,,,,,,,,,,,,,,,,,,,,,,,,,,,,,,,,,,,,,,,,,,,,,,,,,,,,,,,,,,,,,,,,,,,,,,,,,,,,,,,,,,,,,,,,,,,,,,,,,,,,,,,,,,,,,,,,,,,,,,,,,,,,,,,,,,,,,,,,,,,,,,,,,,,,,,,,,,,,,,,,,,,,,,,,,,,,,,,,,,,,,,,,,,,,,,,,,,,,,,,
1763973756.159449,34437.0,0.0,4390.384766,4401.153809,4503.846191,4522.307617,4420.384766,4525.512695,4547.436035,4397.436035,4585.384766,4383.589844,4496.666504,4522.05127,4572.436035,4404.871582,4409.615234,4516.794922,4552.179688,4549.230957,4521.922852,4395.512695,4410.384766,4571.666504,4526.410156,4502.563965,4396.025879,4587.179688,4391.025879,4557.94873,4511.666504,4411.025879,4531.282227,4507.05127,2390.0,1.0,22.0,1792.0,957.0,,,,0.0,4.0,4.0,4.0,4.0,4.0,4.0,4.0,4.0,4.0,4.0,4.0,4.0,4.0,4.0,4.0,4.0,4.0,4.0,4.0,4.0,4.0,4.0,4.0,4.0,4.0,4.0,4.0,4.0,4.0,4.0,4.0,4.0,100.0,,,,,,,,,,,,,,,,,,,,,,,,,,,,,,,,,,,57761.0,0.0,0.661232,0.289795,0.247314,0.64624,0.992309,0.006837,-0.062996,28.666666,-25.166666,-23.5,,,,,,,,,,,,,,,,,,,,,,,,,,,,,,,,,,,,,,,,,,,,,,,,,,,,,,,,,,,,,,,,,,,,,,,,,,,,,,,,,,,,,,,,,,,,,,,,,,,,,,,,,,,,,,,,,,,,,,,,,,,,,,,,,,,,,,,,,,,,,,,,,,,,,,,,,,,,,,,,
1763973756.163355,34438.0,0.0,4388.717773,4398.333496,4496.666504,4517.94873,4415.641113,4523.589844,4545.769043,4392.94873,4580.0,4372.94873,4495.128418,4518.461426,4570.769043,4403.846191,4404.358887,4507.05127,4547.94873,4538.333496,4512.94873,4395.384766,4406.794922,4566.153809,4523.717773,4497.820313,4391.666504,4581.666504,4385.0,4552.820313,4506.922852,4407.05127,4524.230957,4499.871582,2928.0,1.0,22.0,2048.0,964.0,,,,0.0,4.0,4.0,4.0,4.0,4.0,4.0,4.0,4.0,4.0,4.0,4.0,4.0,4.0,4.0,4.0,4.0,4.0,4.0,4.0,4.0,4.0,4.0,4.0,4.0,4.0,4.0,4.0,4.0,4.0,4.0,4.0,4.0,100.0,,,,,,,,,,,,,,,,,,,,,,,,,,,,,,,,,,,,,,,,,,,,,,,,,,,,,,,,,,,,,,,,,,,,,,,,,,,,,,,,,,,,,,,,,,,,,,,,,,,,,,,,,,,,,,,,,,,,,,,,,,,,,,,,,,,,,,,,,,,,,,,,,,,,,,,,,,,,,,,,,,,,,,,,,,,,,,,,,,,,,,,,,,,,,,,,,,,,,,,,,,,,,,
1763973756.167261,34439.0,0.0,4392.820313,4400.512695,4492.94873,4521.410156,4413.333496,4525.256348,4547.94873,4393.846191,4579.102539,4377.05127,4496.666504,4518.589844,4574.487305,4404.230957,4403.077148,4508.077148,4548.974121,4534.615234,4512.692383,4397.307617,4408.077148,4568.077148,4527.307617,4498.846191,4392.436035,4580.641113,4385.512695,4552.820313,4508.461426,4408.077148,4521.153809,4498.333496,2950.0,1.0,22.0,2048.0,964.0,,,,0.0,4.0,4.0,4.0,4.0,4.0,4.0,4.0,4.0,4.0,4.0,4.0,4.0,4.0,4.0,4.0,4.0,4.0,4.0,4.0,4.0,4.0,4.0,4.0,4.0,4.0,4.0,4.0,4.0,4.0,4.0,4.0,4.0,100.0,,,,,,,,,,,,,,,,,,,,,,,,,,,,,,,,,,,,,,,,,,,,,,,,,,,,,,,,,,,,,,,,,,,,,,,,,,,,,,,,,,,,,,,,,,,,,,,,,,,,,,,,,,,,,,,,,,,,,,,,,,,,,,,,,,,,,,,,,,,,,,,,,,,,,,,,,,,,,,,,,,,,,,,,,,,,,,,,,,,,,,,,,,,,,,,,,,,,,,,,,,,,,,
