title:Neutral5, start timestamp:1764665421.825380, stop timestamp:1764665428.526939, headset type:FLEX2, headset serial:F30002B4, headset firmware:2f10, channels:283, sampling rate:eeg_256;mot_64;pow_8, samples:1717      , version:2.2, ,,,,,,,,,,,,,,,,,,,,,,,,,,,,,,,,,,,,,,,,,,,,,,,,,,,,,,,,,,,,,,,,,,,,,,,,,,,,,,,,,,,,,,,,,,,,,,,,,,,,,,,,,,,,,,,,,,,,,,,,,,,,,,,,,,,,,,,,,,,,,,,,,,,,,,,,,,,,,,,,,,,,,,,,,,,,,,,,,,,,,,,,,,,,,,,,,,,,,,,,,,,,,,,,,,,,,,,,,,,,,,,,,,,,,,,,,,,,,,,,,,,,,,,,,,,,,,,,,,,,,,,,,,,,,,,,
Timestamp,EEG.Counter,EEG.Interpolated,EEG.Cz,EEG.Fz,EEG.Fp1,EEG.F7,EEG.F3,EEG.FC1,EEG.C3,EEG.FC5,EEG.FT9,EEG.T7,EEG.CP5,EEG.CP1,EEG.P3,EEG.P7,EEG.PO9,EEG.O1,EEG.Pz,EEG.Oz,EEG.O2,EEG.PO10,EEG.P8,EEG.P4,EEG.CP2,EEG.CP6,EEG.T8,EEG.FT10,EEG.FC6,EEG.C4,EEG.FC2,EEG.F4,EEG.F8,EEG.Fp2,EEG.RawCq,EEG.Battery,EEG.BatteryPercent,EEG.FwBufferSize,EEG.FwClockTime,MarkerIndex,MarkerType,MarkerValueInt,EEG.MarkerHardware,CQ.Cz,CQ.Fz,CQ.Fp1,CQ.F7,CQ.F3,CQ.FC1,CQ.C3,CQ.FC5,CQ.FT9,CQ.T7,CQ.CP5,CQ.CP1,CQ.P3,CQ.P7,CQ.PO9,CQ.O1,CQ.Pz,CQ.Oz,CQ.O2,CQ.PO10,CQ.P8,CQ.P4,CQ.CP2,CQ.CP6,CQ.T8,CQ.FT10,CQ.FC6,CQ.C4,CQ.FC2,CQ.F4,CQ.F8,CQ.Fp2,CQ.Overall,EQ.SampleRateQuality,EQ.OVERALL,EQ.Cz,EQ.Fz,EQ.Fp1,EQ.F7,EQ.F3,EQ.FC1,EQ.C3,EQ.FC5,EQ.FT9,EQ.T7,EQ.CP5,EQ.CP1,EQ.P3,EQ.P7,EQ.PO9,EQ.O1,EQ.Pz,EQ.Oz,EQ.O2,EQ.PO10,EQ.P8,EQ.P4,EQ.CP2,EQ.CP6,EQ.T8,EQ.FT10,EQ.FC6,EQ.C4,EQ.FC2,EQ.F4,EQ.F8,EQ.Fp2,MOT.CounterMems,MOT.InterpolatedMems,MOT.Q0,MOT.Q1,MOT.Q2,MOT.Q3,MOT.AccX,MOT.AccY,MOT.AccZ,MOT.MagX,MOT.MagY,MOT.MagZ,POW.Cz.Theta,POW.Cz.Alpha,POW.Cz.BetaL,POW.Cz.BetaH,POW.Cz.Gamma,POW.Fz.Theta,POW.Fz.Alpha,POW.Fz.BetaL,POW.Fz.BetaH,POW.Fz.Gamma,POW.Fp1.Theta,POW.Fp1.Alpha,POW.Fp1.BetaL,POW.Fp1.BetaH,POW.Fp1.Gamma,POW.F7.Theta,POW.F7.Alpha,POW.F7.BetaL,POW.F7.BetaH,POW.F7.Gamma,POW.F3.Theta,POW.F3.Alpha,POW.F3.BetaL,POW.F3.BetaH,POW.F3.Gamma,POW.FC1.Theta,POW.FC1.Alpha,POW.FC1.BetaL,POW.FC1.BetaH,POW.FC1.Gamma,POW.C3.Theta,POW.C3.Alpha,POW.C3.BetaL,POW.C3.BetaH,POW.C3.Gamma,POW.FC5.Theta,POW.FC5.Alpha,POW.FC5.BetaL,POW.FC5.BetaH,POW.FC5.Gamma,POW.FT9.Theta,POW.FT9.Alpha,POW.FT9.BetaL,POW.FT9.BetaH,POW.FT9.Gamma,POW.T7.Theta,POW.T7.Alpha,POW.T7.BetaL,POW.T7.BetaH,POW.T7.Gamma,POW.CP5.Theta,POW.CP5.Alpha,POW.CP5.BetaL,POW.CP5.BetaH,POW.CP5.Gamma,POW.CP1.Theta,POW.CP1.Alpha,POW.CP1.BetaL,POW.CP1.BetaH,POW.CP1.Gamma,POW.P3.Theta,POW.P3.Alpha,POW.P3.BetaL,POW.P3.BetaH,POW.P3.Gamma,POW.P7.Theta,POW.P7.Alpha,POW.P7.BetaL,POW.P7.BetaH,POW.P7.Gamma,POW.PO9.Theta,POW.PO9.Alpha,POW.PO9.BetaL,POW.PO9.BetaH,POW.PO9.Gamma,POW.O1.Theta,POW.O1.Alpha,POW.O1.BetaL,POW.O1.BetaH,POW.O1.Gamma,POW.Pz.Theta,POW.Pz.Alpha,POW.Pz.BetaL,POW.Pz.BetaH,POW.Pz.Gamma,POW.Oz.Theta,POW.Oz.Alpha,POW.Oz.BetaL,POW.Oz.BetaH,POW.Oz.Gamma,POW.O2.Theta,POW.O2.Alpha,POW.O2.BetaL,POW.O2.BetaH,POW.O2.Gamma,POW.PO10.Theta,POW.PO10.Alpha,POW.PO10.BetaL,POW.PO10.BetaH,POW.PO10.Gamma,POW.P8.Theta,POW.P8.Alpha,POW.P8.BetaL,POW.P8.BetaH,POW.P8.Gamma,POW.P4.Theta,POW.P4.Alpha,POW.P4.BetaL,POW.P4.BetaH,POW.P4.Gamma,POW.CP2.Theta,POW.CP2.Alpha,POW.CP2.BetaL,POW.CP2.BetaH,POW.CP2.Gamma,POW.CP6.Theta,POW.CP6.Alpha,POW.CP6.BetaL,POW.CP6.BetaH,POW.CP6.Gamma,POW.T8.Theta,POW.T8.Alpha,POW.T8.BetaL,POW.T8.BetaH,POW.T8.Gamma,POW.FT10.Theta,POW.FT10.Alpha,POW.FT10.BetaL,POW.FT10.BetaH,POW.FT10.Gamma,POW.FC6.Theta,POW.FC6.Alpha,POW.FC6.BetaL,POW.FC6.BetaH,POW.FC6.Gamma,POW.C4.Theta,POW.C4.Alpha,POW.C4.BetaL,POW.C4.BetaH,POW.C4.Gamma,POW.FC2.Theta,POW.FC2.Alpha,POW.FC2.BetaL,POW.FC2.BetaH,POW.FC2.Gamma,POW.F4.Theta,POW.F4.Alpha,POW.F4.BetaL,POW.F4.BetaH,POW.F4.Gamma,POW.F8.Theta,POW.F8.Alpha,POW.F8.BetaL,POW.F8.BetaH,POW.F8.Gamma,POW.Fp2.Theta,POW.Fp2.Alpha,POW.Fp2.BetaL,POW.Fp2.BetaH,POW.Fp2.Gamma
1764665422.153191,27391,0,4390,4388.589844,4500.897461,4530.769043,4396.794922,4510.256348,4535.384766,4393.717773,4565.512695,4380.128418,4514.615234,4507.563965,4573.077148,4398.333496,4387.179688,4511.282227,4546.922852,4532.820313,4510,4386.153809,4404.358887,4567.94873,4513.717773,4504.102539,4386.922852,4561.922852,4371.922852,4550.897461,4501.794922,4386.153809,4500.641113,4475,2845,1,24,2304,36566,1,1,3,0,4,4,4,4,4,4,4,4,4,4,4,4,4,4,4,4,4,4,4,4,4,4,4,4,4,4,4,4,4,4,4,4,100,,,,,,,,,,,,,,,,,,,,,,,,,,,,,,,,,,,,,,,,,,,,,,,,,,,,,,,,,,,,,,,,,,,,,,,,,,,,,,,,,,,,,,,,,,,,,,,,,,,,,,,,,,,,,,,,,,,,,,,,,,,,,,,,,,,,,,,,,,,,,,,,,,,,,,,,,,,,,,,,,,,,,,,,,,,,,,,,,,,,,,,,,,,,,,,,,,,,,,,,,,,,,,
1764665422.157097,27392,0,4398.077148,4397.94873,4513.717773,4544.487305,4405.512695,4520.128418,4545.384766,4405.641113,4580.512695,4391.153809,4519.743652,4518.846191,4580.512695,4400.641113,4392.692383,4517.94873,4560.641113,4544.871582,4518.461426,4398.717773,4415.128418,4580,4522.05127,4514.487305,4405.128418,4575.641113,4385.512695,4562.563965,4506.922852,4397.307617,4514.743652,4488.205078,2792,1,24,2304,36573,,,,0,4,4,4,4,4,4,4,4,4,4,4,4,4,4,4,4,4,4,4,4,4,4,4,4,4,4,4,4,4,4,4,4,100,,,,,,,,,,,,,,,,,,,,,,,,,,,,,,,,,,,,,,,,,,,,,,,,,,,,,,,,,,,,,,,,,,,,,,,,,,,,,,,,,,,,,,,,,,,,,,,,,,,,,,,,,,,,,,,,,,,,,,,,,,,,,,,,,,,,,,,,,,,,,,,,,,,,,,,,,,,,,,,,,,,,,,,,,,,,,,,,,,,,,,,,,,,,,,,,,,,,,,,,,,,,,,
1764665422.161002,27393,0,4389.230957,4388.077148,4508.077148,4540.641113,4399.358887,4514.358887,4538.205078,4401.922852,4579.102539,4388.717773,4511.794922,4516.538574,4572.307617,4393.589844,4386.922852,4512.563965,4556.538574,4539.487305,4510.897461,4393.077148,4407.179688,4573.974121,4513.974121,4507.307617,4404.871582,4573.974121,4381.153809,4555,4501.410156,4392.563965,4511.153809,4485.769043,2953,1,24,2304,36573,,,,0,4,4,4,4,4,4,4,4,4,4,4,4,4,4,4,4,4,4,4,4,4,4,4,4,4,4,4,4,4,4,4,4,100,,,,,,,,,,,,,,,,,,,,,,,,,,,,,,,,,,,39616,0,0.018975,-0.693359,-0.720276,-0.009766,0.993285,0.040044,0.041021,20.833334,0,55.333332,,,,,,,,,,,,,,,,,,,,,,,,,,,,,,,,,,,,,,,,,,,,,,,,,,,,,,,,,,,,,,,,,,,,,,,,,,,,,,,,,,,,,,,,,,,,,,,,,,,,,,,,,,,,,,,,,,,,,,,,,,,,,,,,,,,,,,,,,,,,,,,,,,,,,,,,,,,,,,,,
1764665422.164908,27394,0,4367.436035,4364.487305,4487.05127,4520.897461,4381.410156,4495.769043,4517.436035,4384.102539,4562.307617,4373.974121,4495,4500.512695,4551.410156,4380.897461,4373.077148,4497.94873,4535,4518.846191,4492.05127,4372.692383,4384.102539,4552.94873,4493.077148,4485.897461,4385.256348,4556.794922,4361.282227,4531.794922,4487.307617,4374.230957,4492.436035,4468.717773,2620,1,24,1280,36581,,,,0,4,4,4,4,4,4,4,4,4,4,4,4,4,4,4,4,4,4,4,4,4,4,4,4,4,4,4,4,4,4,4,4,100,,,,,,,,,,,,,,,,,,,,,,,,,,,,,,,,,,,,,,,,,,,,,,,,,,,,,,,,,,,,,,,,,,,,,,,,,,,,,,,,,,,,,,,,,,,,,,,,,,,,,,,,,,,,,,,,,,,,,,,,,,,,,,,,,,,,,,,,,,,,,,,,,,,,,,,,,,,,,,,,,,,,,,,,,,,,,,,,,,,,,,,,,,,,,,,,,,,,,,,,,,,,,,
1764665422.168814,27395,0,4344.615234,4340,4462.94873,4496.025879,4361.410156,4474.871582,4494.230957,4362.05127,4540.128418,4355.897461,4478.077148,4478.461426,4528.589844,4369.102539,4358.589844,4481.538574,4506.666504,4494.102539,4473.333496,4348.974121,4358.205078,4528.333496,4469.743652,4460.897461,4356.794922,4533.205078,4337.563965,4505.128418,4471.666504,4352.436035,4469.487305,4446.666504,2884,1,24,1280,36581,,,,0,4,4,4,4,4,4,4,4,4,4,4,4,4,4,4,4,4,4,4,4,4,4,4,4,4,4,4,4,4,4,4,4,100,,,,,,,,,,,,,,,,,,,,,,,,,,,,,,,,,,,,,,,,,,,,,,,,,,,,,,,,,,,,,,,,,,,,,,,,,,,,,,,,,,,,,,,,,,,,,,,,,,,,,,,,,,,,,,,,,,,,,,,,,,,,,,,,,,,,,,,,,,,,,,,,,,,,,,,,,,,,,,,,,,,,,,,,,,,,,,,,,,,,,,,,,,,,,,,,,,,,,,,,,,,,,,
1764665422.172720,27396,0,4330.897461,4325.641113,4447.179688,4478.974121,4348.205078,4461.538574,4478.974121,4345.897461,4524.615234,4343.846191,4467.94873,4460.512695,4514.487305,4362.820313,4349.871582,4469.871582,4484.871582,4477.436035,4463.333496,4332.94873,4341.666504,4511.666504,4453.974121,4443.333496,4333.717773,4514.487305,4321.538574,4487.94873,4461.153809,4337.94873,4453.846191,4431.282227,2781,1,24,256,36589,,,,0,4,4,4,4,4,4,4,4,4,4,4,4,4,4,4,4,4,4,4,4,4,4,4,4,4,4,4,4,4,4,4,4,100,,,,,,,,,,,,,,,,,,,,,,,,,,,,,,,,,,,,,,,,,,,,,,,,,,,,,,,,,,,,,,,,,,,,,,,,,,,,,,,,,,,,,,,,,,,,,,,,,,,,,,,,,,,,,,,,,,,,,,,,,,,,,,,,,,,,,,,,,,,,,,,,,,,,,,,,,,,,,,,,,,,,,,,,,,,,,,,,,,,,,,,,,,,,,,,,,,,,,,,,,,,,,,
1764665422.176626,27397,0,4329.487305,4325.256348,4444.871582,4476.153809,4346.025879,4459.615234,4476.794922,4340.641113,4521.666504,4342.05127,4466.922852,4453.333496,4513.333496,4363.333496,4348.974121,4465.512695,4477.820313,4473.846191,4464.102539,4329.615234,4339.487305,4507.563965,4450.384766,4438.717773,4325.769043,4508.333496,4318.974121,4485.641113,4459.615234,4336.153809,4451.410156,4428.461426,2813,1,24,256,36589,,,,0,4,4,4,4,4,4,4,4,4,4,4,4,4,4,4,4,4,4,4,4,4,4,4,4,4,4,4,4,4,4,4,4,100,,,,,,,,,,,,,,,,,,,,,,,,,,,,,,,,,,,39617,0,0.018944,-0.693359,-0.720276,-0.009827,0.98596,0.027835,0.041021,19.166666,0.333333,54.166668,,,,,,,,,,,,,,,,,,,,,,,,,,,,,,,,,,,,,,,,,,,,,,,,,,,,,,,,,,,,,,,,,,,,,,,,,,,,,,,,,,,,,,,,,,,,,,,,,,,,,,,,,,,,,,,,,,,,,,,,,,,,,,,,,,,,,,,,,,,,,,,,,,,,,,,,,,,,,,,,
1764665422.180531,27398,0,4337.94873,4335.256348,4454.230957,4485.897461,4353.974121,4466.922852,4486.538574,4345.512695,4530.384766,4349.487305,4473.717773,4457.563965,4522.436035,4369.230957,4354.358887,4467.820313,4485.128418,4481.282227,4471.794922,4336.666504,4348.077148,4513.717773,4457.307617,4445.512695,4334.102539,4515.641113,4327.820313,4495.384766,4466.538574,4345.384766,4460.384766,4437.436035,2819,1,24,512,36597,,,,0,4,4,4,4,4,4,4,4,4,4,4,4,4,4,4,4,4,4,4,4,4,4,4,4,4,4,4,4,4,4,4,4,100,,,,,,,,,,,,,,,,,,,,,,,,,,,,,,,,,,,,,,,,,,,,,,,,,,,,,,,,,,,,,,,,,,,,,,,,,,,,,,,,,,,,,,,,,,,,,,,,,,,,,,,,,,,,,,,,,,,,,,,,,,,,,,,,,,,,,,,,,,,,,,,,,,,,,,,,,,,,,,,,,,,,,,,,,,,,,,,,,,,,,,,,,,,,,,,,,,,,,,,,,,,,,,
1764665422.184437,27399,0,4350.897461,4349.615234,4468.846191,4501.025879,4368.077148,4478.589844,4501.794922,4356.153809,4545.128418,4362.307617,4485,4469.230957,4535.512695,4376.922852,4362.563965,4474.230957,4499.743652,4492.563965,4480.256348,4347.94873,4359.358887,4524.102539,4468.717773,4457.692383,4352.563965,4530.641113,4341.538574,4508.846191,4478.205078,4359.230957,4473.717773,4452.05127,3011,1,24,512,36597,,,,0,4,4,4,4,4,4,4,4,4,4,4,4,4,4,4,4,4,4,4,4,4,4,4,4,4,4,4,4,4,4,4,4,100,,,,,,,,,,,,,,,,,,,,,,,,,,,,,,,,,,,,,,,,,,,,,,,,,,,,,,,,,,,,,,,,,,,,,,,,,,,,,,,,,,,,,,,,,,,,,,,,,,,,,,,,,,,,,,,,,,,,,,,,,,,,,,,,,,,,,,,,,,,,,,,,,,,,,,,,,,,,,,,,,,,,,,,,,,,,,,,,,,,,,,,,,,,,,,,,,,,,,,,,,,,,,,
1764665422.188343,27400,0,4363.077148,4362.820313,4482.436035,4514.615234,4382.820313,4489.358887,4515.256348,4367.692383,4559.358887,4376.025879,4496.922852,4481.922852,4546.282227,4383.077148,4370.256348,4481.794922,4513.461426,4500.769043,4485,4356.922852,4366.025879,4532.692383,4478.974121,4467.820313,4371.538574,4545.641113,4353.589844,4519.230957,4489.230957,4371.282227,4485,4465.897461,2894,1,24,512,36605,,,,0,4,4,4,4,4,4,4,4,4,4,4,4,4,4,4,4,4,4,4,4,4,4,4,4,4,4,4,4,4,4,4,4,100,,,,,,,,,,,,,,,,,,,,,,,,,,,,,,,,,,,,,,,,,,,,,,,,,,,,,,,,,,,,,,,,,,,,,,,,,,,,,,,,,,,,,,,,,,,,,,,,,,,,,,,,,,,,,,,,,,,,,,,,,,,,,,,,,,,,,,,,,,,,,,,,,,,,,,,,,,,,,,,,,,,,,,,,,,,,,,,,,,,,,,,,,,,,,,,,,,,,,,,,,,,,,,
1764665422.192249,27401,0,4371.282227,4372.436035,4491.922852,4523.205078,4394.230957,4496.666504,4522.436035,4377.692383,4568.974121,4387.179688,4506.410156,4491.025879,4551.538574,4386.153809,4375.769043,4487.692383,4521.538574,4503.717773,4485.384766,4360.897461,4366.025879,4536.666504,4485.128418,4472.307617,4384.230957,4555.256348,4360.769043,4524.358887,4496.025879,4378.461426,4491.922852,4475.384766,2745,1,24,512,36605,,,,0,4,4,4,4,4,4,4,4,4,4,4,4,4,4,4,4,4,4,4,4,4,4,4,4,4,4,4,4,4,4,4,4,100,,,,,,,,,,,,,,,,,,,,,,,,,,,,,,,,,,,39618,0,0.018944,-0.693359,-0.720276,-0.009827,0.98596,0.027835,0.041021,19.333334,0.833333,53.5,,,,,,,,,,,,,,,,,,,,,,,,,,,,,,,,,,,,,,,,,,,,,,,,,,,,,,,,,,,,,,,,,,,,,,,,,,,,,,,,,,,,,,,,,,,,,,,,,,,,,,,,,,,,,,,,,,,,,,,,,,,,,,,,,,,,,,,,,,,,,,,,,,,,,,,,,,,,,,,,
1764665422.196154,27402,0,4374.871582,4378.589844,4497.307617,4527.692383,4401.025879,4500.384766,4524.358887,4385.128418,4572.820313,4393.974121,4511.922852,4495,4552.05127,4386.666504,4378.205078,4490.512695,4524.487305,4503.589844,4483.717773,4360.641113,4363.077148,4536.922852,4488.077148,4471.538574,4387.563965,4557.94873,4363.846191,4526.025879,4497.692383,4381.282227,4495.641113,4480.128418,1898,1,24,256,36612,,,,0,4,4,4,4,4,4,4,4,4,4,4,4,4,4,4,4,4,4,4,4,4,4,4,4,4,4,4,4,4,4,4,4,100,,,,,,,,,,,,,,,,,,,,,,,,,,,,,,,,,,,,,,,,,,,,,,,,,,,,,,,,,,,,,,,,,,,,,,,,,,,,,,,,,,,,,,,,,,,,,,,,,,,,,,,,,,,,,,,,,,,,,,,,,,,,,,,,,,,,,,,,,,,,,,,,,,,,,,,,,,,,,,,,,,,,,,,,,,,,,,,,,,,,,,,,,,,,,,,,,,,,,,,,,,,,,,
1764665422.200060,27403,0,4374.230957,4380.769043,4498.717773,4528.846191,4403.077148,4501.025879,4523.846191,4388.461426,4571.282227,4395,4512.436035,4494.230957,4549.230957,4385.384766,4376.794922,4489.615234,4524.487305,4502.820313,4482.94873,4358.333496,4361.410156,4536.153809,4489.102539,4468.589844,4382.563965,4554.871582,4363.205078,4526.410156,4495,4380.512695,4497.179688,4480.641113,2722,1,24,256,36612,,,,0,4,4,4,4,4,4,4,4,4,4,4,4,4,4,4,4,4,4,4,4,4,4,4,4,4,4,4,4,4,4,4,4,100,,,,,,,,,,,,,,,,,,,,,,,,,,,,,,,,,,,,,,,,,,,,,,,,,,,,,,,,,,,,,,,,,,,,,,,,,,,,,,,,,,,,,,,,,,,,,,,,,,,,,,,,,,,,,,,,,,,,,,,,,,,,,,,,,,,,,,,,,,,,,,,,,,,,,,,,,,,,,,,,,,,,,,,,,,,,,,,,,,,,,,,,,,,,,,,,,,,,,,,,,,,,,,
1764665422.203966,27404,0,4370.128418,4377.307617,4494.615234,4525.641113,4399.487305,4498.333496,4522.307617,4385.256348,4564.102539,4389.615234,4507.563965,4490.256348,4544.230957,4382.05127,4370.512695,4485.256348,4522.820313,4501.922852,4484.102539,4355.256348,4362.563965,4535.769043,4488.461426,4465.256348,4372.05127,4547.179688,4358.717773,4525.384766,4489.615234,4376.538574,4495.384766,4476.538574,2508,1,24,512,36620,,,,0,4,4,4,4,4,4,4,4,4,4,4,4,4,4,4,4,4,4,4,4,4,4,4,4,4,4,4,4,4,4,4,4,100,,,,,,,,,,,,,,,,,,,,,,,,,,,,,,,,,,,,,,,,,,,,,,,,,,,,,,,,,,,,,,,,,,,,,,,,,,,,,,,,,,,,,,,,,,,,,,,,,,,,,,,,,,,,,,,,,,,,,,,,,,,,,,,,,,,,,,,,,,,,,,,,,,,,,,,,,,,,,,,,,,,,,,,,,,,,,,,,,,,,,,,,,,,,,,,,,,,,,,,,,,,,,,
1764665422.207872,27405,0,4363.974121,4368.717773,4485.128418,4517.307617,4391.025879,4492.307617,4519.230957,4375.769043,4552.820313,4379.358887,4499.230957,4485.128418,4538.589844,4377.05127,4361.794922,4479.487305,4519.743652,4500.256348,4486.282227,4351.538574,4365.128418,4536.410156,4485.897461,4463.077148,4360.769043,4537.307617,4351.410156,4522.179688,4483.846191,4370.897461,4490,4468.974121,2221,1,24,512,36620,,,,0,4,4,4,4,4,4,4,4,4,4,4,4,4,4,4,4,4,4,4,4,4,4,4,4,4,4,4,4,4,4,4,4,100,,,,,,,,,,,,,,,,,,,,,,,,,,,,,,,,,,,39619,0,0.018944,-0.693359,-0.720276,-0.009827,1.005005,0.033696,0.049811,19.5,1.833333,52.5,,,,,,,,,,,,,,,,,,,,,,,,,,,,,,,,,,,,,,,,,,,,,,,,,,,,,,,,,,,,,,,,,,,,,,,,,,,,,,,,,,,,,,,,,,,,,,,,,,,,,,,,,,,,,,,,,,,,,,,,,,,,,,,,,,,,,,,,,,,,,,,,,,,,,,,,,,,,,,,,
1764665422.211778,27406,0,4359.102539,4360.512695,4474.487305,4507.436035,4382.307617,4486.410156,4516.025879,4365.897461,4542.692383,4369.102539,4492.307617,4482.692383,4535.256348,4373.589844,4355.641113,4476.666504,4517.436035,4499.743652,4489.230957,4348.461426,4368.461426,4539.102539,4483.333496,4464.230957,4355.641113,4530.128418,4345.641113,4519.102539,4481.538574,4367.563965,4484.358887,4462.563965,2730,1,24,768,36628,,,,0,4,4,4,4,4,4,4,4,4,4,4,4,4,4,4,4,4,4,4,4,4,4,4,4,4,4,4,4,4,4,4,4,100,,,,,,,,,,,,,,,,,,,,,,,,,,,,,,,,,,,,,,,,,,,,,,,,,,,,,,,,,,,,,,,,,,,,,,,,,,,,,,,,,,,,,,,,,,,,,,,,,,,,,,,,,,,,,,,,,,,,,,,,,,,,,,,,,,,,,,,,,,,,,,,,,,,,,,,,,,,,,,,,,,,,,,,,,,,,,,,,,,,,,,,,,,,,,,,,,,,,,,,,,,,,,,
1764665422.215683,27407,0,4360,4359.487305,4470.512695,4503.333496,4380.128418,4486.025879,4516.538574,4363.846191,4541.153809,4365.897461,4491.666504,4486.538574,4537.692383,4375.641113,4357.563965,4480.384766,4519.358887,4503.589844,4493.205078,4348.846191,4373.717773,4544.871582,4484.871582,4470.769043,4361.410156,4531.025879,4347.179688,4520.641113,4485.512695,4370.769043,4484.615234,4463.205078,2510,1,24,768,36628,,,,0,4,4,4,4,4,4,4,4,4,4,4,4,4,4,4,4,4,4,4,4,4,4,4,4,4,4,4,4,4,4,4,4,100,,,,,,,,,,,,,,,,,,,,,,,,,,,,,,,,,,,,,,,,,,,,,,,,,,,,,,,,,,,,,,,,,,,,,,,,,,,,,,,,,,,,,,,,,,,,,,,,,,,,,,,,,,,,,,,,,,,,,,,,,,,,,,,,,,,,,,,,,,,,,,,,,,,,,,,,,,,,,,,,,,,,,,,,,,,,,,,,,,,,,,,,,,,,,,,,,,,,,,,,,,,,,,
1764665422.219589,27408,0,4367.563965,4368.333496,4477.05127,4509.358887,4387.436035,4493.461426,4522.94873,4373.077148,4550.897461,4372.05127,4498.589844,4496.282227,4546.410156,4384.230957,4367.307617,4490.384766,4526.922852,4512.179688,4497.563965,4353.846191,4381.410156,4553.333496,4492.307617,4482.05127,4375.769043,4540.641113,4356.666504,4528.717773,4494.358887,4380.641113,4493.333496,4472.307617,2888,1,24,1024,36636,,,,0,4,4,4,4,4,4,4,4,4,4,4,4,4,4,4,4,4,4,4,4,4,4,4,4,4,4,4,4,4,4,4,4,100,,,,,,,,,,,,,,,,,,,,,,,,,,,,,,,,,,,,,,,,,,,,,,,,,,,,,,,,,,,,,,,,,,,,,,,,,,,,,,,,,,,,,,,,,,,,,,,,,,,,,,,,,,,,,,,,,,,,,,,,,,,,,,,,,,,,,,,,,,,,,,,,,,,,,,,,,,,,,,,,,,,,,,,,,,,,,,,,,,,,,,,,,,,,,,,,,,,,,,,,,,,,,,
1764665422.223495,27409,0,4377.179688,4381.025879,4489.615234,4521.282227,4398.589844,4505,4532.436035,4387.692383,4566.538574,4382.179688,4507.94873,4506.153809,4556.922852,4393.846191,4377.94873,4501.410156,4536.410156,4521.410156,4500.897461,4361.025879,4389.230957,4560.256348,4502.179688,4492.563965,4388.589844,4553.205078,4367.94873,4538.974121,4502.692383,4391.410156,4504.871582,4483.333496,2942,1,24,1024,36636,,,,0,4,4,4,4,4,4,4,4,4,4,4,4,4,4,4,4,4,4,4,4,4,4,4,4,4,4,4,4,4,4,4,4,100,,,,,,,,,,,,,,,,,,,,,,,,,,,,,,,,,,,39620,0,0.019038,-0.693359,-0.720276,-0.009644,0.995239,0.041509,0.039556,20.333334,0.333333,53.333332,,,,,,,,,,,,,,,,,,,,,,,,,,,,,,,,,,,,,,,,,,,,,,,,,,,,,,,,,,,,,,,,,,,,,,,,,,,,,,,,,,,,,,,,,,,,,,,,,,,,,,,,,,,,,,,,,,,,,,,,,,,,,,,,,,,,,,,,,,,,,,,,,,,,,,,,,,,,,,,,
1764665422.227401,27410,0,4381.538574,4387.436035,4498.589844,4529.615234,4404.230957,4512.692383,4537.820313,4396.538574,4577.179688,4387.436035,4512.692383,4509.102539,4563.461426,4397.179688,4380.641113,4506.153809,4541.538574,4525.384766,4501.410156,4366.153809,4392.94873,4561.025879,4507.563965,4495.897461,4389.230957,4559.871582,4372.307617,4544.230957,4504.871582,4395.128418,4509.871582,4486.922852,1778,1,24,1280,36644,,,,0,4,4,4,4,4,4,4,4,4,4,4,4,4,4,4,4,4,4,4,4,4,4,4,4,4,4,4,4,4,4,4,4,100,,,,,,,,,,,,,,,,,,,,,,,,,,,,,,,,,,,,,,,,,,,,,,,,,,,,,,,,,,,,,,,,,,,,,,,,,,,,,,,,,,,,,,,,,,,,,,,,,,,,,,,,,,,,,,,,,,,,,,,,,,,,,,,,,,,,,,,,,,,,,,,,,,,,,,,,,,,,,,,,,,,,,,,,,,,,,,,,,,,,,,,,,,,,,,,,,,,,,,,,,,,,,,
1764665422.231306,27411,0,4376.794922,4382.436035,4496.794922,4527.436035,4398.333496,4510.641113,4534.230957,4392.692383,4575.128418,4382.307617,4508.846191,4502.05127,4562.820313,4391.025879,4372.436035,4501.922852,4538.333496,4521.410156,4499.102539,4366.410156,4390.256348,4554.615234,4503.846191,4489.615234,4376.153809,4556.025879,4366.025879,4540.256348,4499.487305,4388.589844,4503.717773,4479.358887,2961,1,24,1280,36644,,,,0,4,4,4,4,4,4,4,4,4,4,4,4,4,4,4,4,4,4,4,4,4,4,4,4,4,4,4,4,4,4,4,4,100,,,,,,,,,,,,,,,,,,,,,,,,,,,,,,,,,,,,,,,,,,,,,,,,,,,,,,,,,,,,,,,,,,,,,,,,,,,,,,,,,,,,,,,,,,,,,,,,,,,,,,,,,,,,,,,,,,,,,,,,,,,,,,,,,,,,,,,,,,,,,,,,,,,,,,,,,,,,,,,,,,,,,,,,,,,,,,,,,,,,,,,,,,,,,,,,,,,,,,,,,,,,,,
1764665422.235212,27412,0,4366.025879,4369.487305,4485.641113,4516.282227,4383.974121,4500.512695,4523.461426,4378.974121,4562.563965,4369.871582,4498.846191,4489.230957,4557.05127,4379.871582,4359.102539,4492.692383,4529.102539,4513.077148,4495.384766,4363.205078,4383.205078,4545.128418,4493.077148,4477.05127,4358.846191,4544.743652,4353.589844,4529.871582,4490.769043,4375.769043,4490.641113,4466.410156,2554,1,24,1536,36651,,,,0,4,4,4,4,4,4,4,4,4,4,4,4,4,4,4,4,4,4,4,4,4,4,4,4,4,4,4,4,4,4,4,4,100,,,,,,,,,,,,,,,,,,,,,,,,,,,,,,,,,,,,,,,,,,,,,,,,,,,,,,,,,,,,,,,,,,,,,,,,,,,,,,,,,,,,,,,,,,,,,,,,,,,,,,,,,,,,,,,,,,,,,,,,,,,,,,,,,,,,,,,,,,,,,,,,,,,,,,,,,,,,,,,,,,,,,,,,,,,,,,,,,,,,,,,,,,,,,,,,,,,,,,,,,,,,,,
1764665422.239118,27413,0,4356.282227,4357.436035,4473.717773,4504.102539,4370.769043,4489.487305,4511.794922,4365.384766,4548.846191,4358.974121,4489.358887,4479.358887,4551.666504,4371.025879,4350.256348,4486.410156,4520,4506.794922,4492.94873,4360,4376.794922,4538.461426,4481.922852,4465.384766,4350,4533.589844,4343.717773,4520.256348,4484.358887,4365,4479.615234,4457.692383,2837,1,24,1536,36651,,,,0,4,4,4,4,4,4,4,4,4,4,4,4,4,4,4,4,4,4,4,4,4,4,4,4,4,4,4,4,4,4,4,4,100,,,,,,,,,,,,,,,,,,,,,,,,,,,,,,,,,,,39621,0,0.018982,-0.693298,-0.720337,-0.009583,0.984495,0.042486,0.036626,18.333334,0.333333,53.333332,,,,,,,,,,,,,,,,,,,,,,,,,,,,,,,,,,,,,,,,,,,,,,,,,,,,,,,,,,,,,,,,,,,,,,,,,,,,,,,,,,,,,,,,,,,,,,,,,,,,,,,,,,,,,,,,,,,,,,,,,,,,,,,,,,,,,,,,,,,,,,,,,,,,,,,,,,,,,,,,
1764665422.243024,27414,0,4353.077148,4353.205078,4468.717773,4498.717773,4366.538574,4484.102539,4505.128418,4360.512695,4542.94873,4356.538574,4485.512695,4478.077148,4550.641113,4369.743652,4351.410156,4487.05127,4516.282227,4506.025879,4492.436035,4359.230957,4374.230957,4537.436035,4476.538574,4460.384766,4354.871582,4529.230957,4341.794922,4516.410156,4483.077148,4361.922852,4476.794922,4458.717773,2943,1,24,1792,36659,,,,0,4,4,4,4,4,4,4,4,4,4,4,4,4,4,4,4,4,4,4,4,4,4,4,4,4,4,4,4,4,4,4,4,100,,,,,,,,,,,,,,,,,,,,,,,,,,,,,,,,,,,,,,,,,,,,,,,,,,,,,,,,,,,,,,,,,,,,,,,,,,,,,,,,,,,,,,,,,,,,,,,,,,,,,,,,,,,,,,,,,,,,,,,,,,,,,,,,,,,,,,,,,,,,,,,,,,,,,,,,,,,,,,,,,,,,,,,,,,,,,,,,,,,,,,,,,,,,,,,,,,,,,,,,,,,,,,
1764665422.246929,27415,0,4355.512695,4356.538574,4471.410156,4501.410156,4371.666504,4485,4504.487305,4365.256348,4546.153809,4361.153809,4487.563965,4484.230957,4553.717773,4374.871582,4359.743652,4492.05127,4518.077148,4508.461426,4492.563965,4360.384766,4375.384766,4539.487305,4477.563965,4462.179688,4366.666504,4531.538574,4345.641113,4518.333496,4484.871582,4366.282227,4480.769043,4467.179688,2857,1,24,1792,36659,,,,0,4,4,4,4,4,4,4,4,4,4,4,4,4,4,4,4,4,4,4,4,4,4,4,4,4,4,4,4,4,4,4,4,100,,,,,,,,,,,,,,,,,,,,,,,,,,,,,,,,,,,,,,,,,,,,,,,,,,,,,,,,,,,,,,,,,,,,,,,,,,,,,,,,,,,,,,,,,,,,,,,,,,,,,,,,,,,,,,,,,,,,,,,,,,,,,,,,,,,,,,,,,,,,,,,,,,,,,,,,,,,,,,,,,,,,,,,,,,,,,,,,,,,,,,,,,,,,,,,,,,,,,,,,,,,,,,
1764665422.250835,27416,0,4359.358887,4362.05127,4476.410156,4507.179688,4379.743652,4488.333496,4506.538574,4373.461426,4552.563965,4365.769043,4492.05127,4491.153809,4557.05127,4381.538574,4367.692383,4495.256348,4521.538574,4509.102539,4490.897461,4361.538574,4377.563965,4540.512695,4481.153809,4466.538574,4374.102539,4536.282227,4349.358887,4521.794922,4486.153809,4372.94873,4486.025879,4475.256348,2778,1,24,2048,36667,,,,0,4,4,4,4,4,4,4,4,4,4,4,4,4,4,4,4,4,4,4,4,4,4,4,4,4,4,4,4,4,4,4,4,100,,,,,,,,,,,,,,,,,,,,,,,,,,,,,,,,,,,,,,,,,,,,,,,,,,,,,,,,,,,,,,,,,,,,,,,,,,,,,,,,,,,,,,,,,,,,,,,,,,,,,,,,,,,,,,,,,,,,,,,,,,,,,,,,,,,,,,,,,,,,,,,,,,,,,,,,,,,,,,,,,,,,,,,,,,,,,,,,,,,,,,,,,,,,,,,,,,,,,,,,,,,,,,
1764665422.254741,27417,0,4360.641113,4365.256348,4478.205078,4510.256348,4384.230957,4490.512695,4507.94873,4377.94873,4555.512695,4365.769043,4495.384766,4493.461426,4557.436035,4385.512695,4370.256348,4493.846191,4522.179688,4506.410156,4487.692383,4362.179688,4377.94873,4539.230957,4483.333496,4469.230957,4371.666504,4538.974121,4349.487305,4522.820313,4485.128418,4376.922852,4488.333496,4477.436035,2839,1,24,2048,36667,,,,0,4,4,4,4,4,4,4,4,4,4,4,4,4,4,4,4,4,4,4,4,4,4,4,4,4,4,4,4,4,4,4,4,100,,,,,,,,,,,,,,,,,,,,,,,,,,,,,,,,,,,39622,0,0.019043,-0.693298,-0.720337,-0.00946,0.994262,0.043462,0.049322,20,1.5,52.833332,,,,,,,,,,,,,,,,,,,,,,,,,,,,,,,,,,,,,,,,,,,,,,,,,,,,,,,,,,,,,,,,,,,,,,,,,,,,,,,,,,,,,,,,,,,,,,,,,,,,,,,,,,,,,,,,,,,,,,,,,,,,,,,,,,,,,,,,,,,,,,,,,,,,,,,,,,,,,,,,
1764665422.258647,27418,0,4359.743652,4366.153809,4476.922852,4509.230957,4383.333496,4491.282227,4507.820313,4376.538574,4553.717773,4363.205078,4497.179688,4491.538574,4555.128418,4386.666504,4368.077148,4490.384766,4519.871582,4503.974121,4486.410156,4363.461426,4377.307617,4538.461426,4483.717773,4470.384766,4364.230957,4539.487305,4348.461426,4521.922852,4483.589844,4377.94873,4488.461426,4474.487305,1954,1,24,2304,36675,,,,0,4,4,4,4,4,4,4,4,4,4,4,4,4,4,4,4,4,4,4,4,4,4,4,4,4,4,4,4,4,4,4,4,100,,,,,,,,,,,,,,,,,,,,,,,,,,,,,,,,,,,,,,,,,,,,,,,1.329174,20.837305,1.252094,1.39696,1.06483,2.884739,21.423761,1.414944,1.81083,1.275427,2.64791,15.846646,1.175423,1.825444,1.419897,1.271041,11.471548,1.057896,1.518163,1.382901,2.052179,16.74008,1.224401,1.299484,1.219467,1.556489,20.340988,1.117816,1.166736,0.993542,1.41229,16.055868,1.171679,1.273731,1.099381,1.399402,13.115562,0.932253,1.089602,1.305985,1.305866,5.997658,0.734848,1.501626,1.522371,0.845288,7.774783,1.466597,2.112779,1.788532,1.204324,4.971303,0.344457,0.540707,0.876944,1.043506,19.02265,1.205093,1.027948,1.122859,0.667158,9.478717,1.307247,0.895023,0.883995,0.331604,1.385099,0.406269,0.505802,0.707257,0.54557,2.582753,0.512764,1.230945,1.078309,0.258887,4.262202,1.16214,0.805507,0.656698,2.066376,23.328926,2.554504,1.9929,1.376536,0.846483,5.670619,1.564622,1.757876,1.483614,0.733289,3.769947,0.980309,1.110194,0.938425,0.982056,5.625577,0.619197,1.297468,1.070252,1.725546,6.616084,0.912391,1.456371,1.280981,1.990135,11.688296,1.981998,2.031846,1.167841,1.540283,15.152524,1.031993,1.196845,1.152303,1.996948,4.976614,1.121772,1.835214,1.2665,2.052045,5.096928,1.265534,2.607892,1.771649,2.136345,4.24057,1.158409,1.262398,0.842396,2.907291,13.222948,1.18339,1.858324,1.309714,2.220055,15.661714,1.113772,1.880241,1.163754,1.165775,11.359397,0.494057,0.974805,0.60924,3.418263,16.423851,1.162096,1.571321,1.143474,2.396604,10.903536,1.395235,1.974501,1.110322,2.485401,13.889838,1.238487,1.555721,1.277526
1764665422.262553,27419,0,4360,4368.077148,4477.820313,4508.333496,4380.897461,4493.333496,4508.589844,4372.692383,4552.307617,4363.461426,4499.230957,4490,4552.820313,4388.205078,4366.282227,4490.128418,4518.589844,4507.563965,4490.128418,4367.563965,4378.333496,4542.05127,4485.512695,4473.205078,4362.307617,4541.025879,4351.538574,4523.205078,4485.128418,4379.615234,4490.897461,4472.307617,2645,1,24,2304,36675,,,,0,4,4,4,4,4,4,4,4,4,4,4,4,4,4,4,4,4,4,4,4,4,4,4,4,4,4,4,4,4,4,4,4,100,,,,,,,,,,,,,,,,,,,,,,,,,,,,,,,,,,,,,,,,,,,,,,,,,,,,,,,,,,,,,,,,,,,,,,,,,,,,,,,,,,,,,,,,,,,,,,,,,,,,,,,,,,,,,,,,,,,,,,,,,,,,,,,,,,,,,,,,,,,,,,,,,,,,,,,,,,,,,,,,,,,,,,,,,,,,,,,,,,,,,,,,,,,,,,,,,,,,,,,,,,,,,,
1764665422.266458,27420,0,4364.230957,4373.717773,4485.384766,4512.436035,4381.538574,4497.94873,4512.692383,4371.794922,4556.666504,4369.230957,4503.333496,4492.94873,4552.94873,4392.820313,4370,4495.512695,4522.692383,4518.589844,4497.94873,4374.743652,4383.333496,4550.641113,4491.794922,4479.743652,4371.410156,4546.538574,4361.282227,4529.615234,4491.153809,4384.743652,4498.333496,4475.897461,2708,1,24,1024,36683,,,,0,4,4,4,4,4,4,4,4,4,4,4,4,4,4,4,4,4,4,4,4,4,4,4,4,4,4,4,4,4,4,4,4,100,,,,,,,,,,,,,,,,,,,,,,,,,,,,,,,,,,,,,,,,,,,,,,,,,,,,,,,,,,,,,,,,,,,,,,,,,,,,,,,,,,,,,,,,,,,,,,,,,,,,,,,,,,,,,,,,,,,,,,,,,,,,,,,,,,,,,,,,,,,,,,,,,,,,,,,,,,,,,,,,,,,,,,,,,,,,,,,,,,,,,,,,,,,,,,,,,,,,,,,,,,,,,,
1764665422.270364,27421,0,4371.282227,4381.922852,4497.179688,4521.666504,4386.153809,4503.846191,4519.230957,4375.897461,4566.666504,4376.922852,4508.461426,4499.102539,4555.769043,4398.589844,4379.358887,4503.333496,4531.794922,4532.179688,4505.512695,4382.692383,4390.769043,4560.897461,4501.025879,4488.077148,4387.436035,4554.358887,4373.461426,4539.358887,4498.846191,4391.794922,4508.589844,4484.615234,2546,1,24,1024,36683,,,,0,4,4,4,4,4,4,4,4,4,4,4,4,4,4,4,4,4,4,4,4,4,4,4,4,4,4,4,4,4,4,4,4,100,,,,,,,,,,,,,,,,,,,,,,,,,,,,,,,,,,,39623,0,0.019013,-0.693298,-0.720337,-0.009521,1.000122,0.036626,0.035649,18.333334,0,55.333332,,,,,,,,,,,,,,,,,,,,,,,,,,,,,,,,,,,,,,,,,,,,,,,,,,,,,,,,,,,,,,,,,,,,,,,,,,,,,,,,,,,,,,,,,,,,,,,,,,,,,,,,,,,,,,,,,,,,,,,,,,,,,,,,,,,,,,,,,,,,,,,,,,,,,,,,,,,,,,,,
1764665422.274270,27422,0,4376.410156,4387.307617,4505.641113,4530,4390.769043,4507.179688,4523.974121,4381.922852,4575.512695,4379.743652,4510.769043,4503.077148,4558.077148,4400.769043,4388.077148,4507.692383,4539.487305,4539.358887,4507.05127,4386.538574,4395.512695,4566.282227,4507.436035,4492.436035,4399.871582,4559.743652,4380,4546.025879,4503.333496,4394.743652,4515.128418,4492.179688,2673,1,24,1024,36691,,,,0,4,4,4,4,4,4,4,4,4,4,4,4,4,4,4,4,4,4,4,4,4,4,4,4,4,4,4,4,4,4,4,4,100,,,,,,,,,,,,,,,,,,,,,,,,,,,,,,,,,,,,,,,,,,,,,,,,,,,,,,,,,,,,,,,,,,,,,,,,,,,,,,,,,,,,,,,,,,,,,,,,,,,,,,,,,,,,,,,,,,,,,,,,,,,,,,,,,,,,,,,,,,,,,,,,,,,,,,,,,,,,,,,,,,,,,,,,,,,,,,,,,,,,,,,,,,,,,,,,,,,,,,,,,,,,,,
1764665422.278176,27423,0,4375,4385.384766,4503.589844,4530,4390,4504.487305,4522.307617,4384.102539,4575.897461,4373.717773,4506.666504,4499.743652,4556.025879,4395.769043,4388.589844,4504.615234,4538.077148,4533.461426,4500,4382.436035,4392.692383,4561.922852,4505.256348,4488.205078,4399.743652,4557.692383,4375.128418,4544.102539,4500.897461,4388.974121,4512.179688,4492.563965,2840,1,24,1024,36691,,,,0,4,4,4,4,4,4,4,4,4,4,4,4,4,4,4,4,4,4,4,4,4,4,4,4,4,4,4,4,4,4,4,4,100,,,,,,,,,,,,,,,,,,,,,,,,,,,,,,,,,,,,,,,,,,,,,,,,,,,,,,,,,,,,,,,,,,,,,,,,,,,,,,,,,,,,,,,,,,,,,,,,,,,,,,,,,,,,,,,,,,,,,,,,,,,,,,,,,,,,,,,,,,,,,,,,,,,,,,,,,,,,,,,,,,,,,,,,,,,,,,,,,,,,,,,,,,,,,,,,,,,,,,,,,,,,,,
1764665422.282081,27424,0,4366.538574,4376.410156,4491.666504,4520,4382.692383,4496.153809,4513.846191,4380.128418,4566.538574,4362.563965,4496.794922,4489.871582,4548.589844,4385.384766,4379.487305,4495.512695,4525.897461,4516.666504,4487.563965,4371.025879,4382.563965,4548.974121,4494.615234,4476.025879,4386.538574,4548.077148,4361.025879,4534.102539,4492.436035,4376.153809,4500.512695,4484.743652,2780,1,24,768,36698,,,,0,4,4,4,4,4,4,4,4,4,4,4,4,4,4,4,4,4,4,4,4,4,4,4,4,4,4,4,4,4,4,4,4,100,,,,,,,,,,,,,,,,,,,,,,,,,,,,,,,,,,,,,,,,,,,,,,,,,,,,,,,,,,,,,,,,,,,,,,,,,,,,,,,,,,,,,,,,,,,,,,,,,,,,,,,,,,,,,,,,,,,,,,,,,,,,,,,,,,,,,,,,,,,,,,,,,,,,,,,,,,,,,,,,,,,,,,,,,,,,,,,,,,,,,,,,,,,,,,,,,,,,,,,,,,,,,,
1764665422.285987,27425,0,4356.410156,4366.922852,4478.589844,4506.410156,4373.333496,4487.05127,4504.487305,4373.077148,4554.230957,4354.871582,4487.05127,4480,4539.487305,4375.769043,4366.538574,4486.794922,4510,4499.615234,4476.794922,4357.820313,4371.025879,4534.871582,4482.05127,4463.461426,4368.846191,4536.538574,4347.307617,4523.077148,4483.333496,4363.974121,4487.436035,4474.230957,2941,1,24,768,36698,,,,0,4,4,4,4,4,4,4,4,4,4,4,4,4,4,4,4,4,4,4,4,4,4,4,4,4,4,4,4,4,4,4,4,100,,,,,,,,,,,,,,,,,,,,,,,,,,,,,,,,,,,39624,0,0.018982,-0.693298,-0.720337,-0.009583,0.991332,0.039067,0.038091,17.333334,-0.166667,53.5,,,,,,,,,,,,,,,,,,,,,,,,,,,,,,,,,,,,,,,,,,,,,,,,,,,,,,,,,,,,,,,,,,,,,,,,,,,,,,,,,,,,,,,,,,,,,,,,,,,,,,,,,,,,,,,,,,,,,,,,,,,,,,,,,,,,,,,,,,,,,,,,,,,,,,,,,,,,,,,,
1764665422.289893,27426,0,4351.025879,4363.333496,4474.358887,4498.717773,4368.205078,4483.077148,4500.512695,4368.333496,4548.333496,4357.05127,4483.333496,4477.307617,4534.102539,4372.179688,4358.077148,4483.846191,4500.641113,4492.692383,4472.94873,4350.256348,4365.256348,4528.589844,4476.025879,4458.846191,4357.820313,4530.128418,4343.333496,4519.230957,4478.974121,4360.769043,4481.538574,4468.333496,2607,1,24,256,36706,,,,0,4,4,4,4,4,4,4,4,4,4,4,4,4,4,4,4,4,4,4,4,4,4,4,4,4,4,4,4,4,4,4,4,100,,,,,,,,,,,,,,,,,,,,,,,,,,,,,,,,,,,,,,,,,,,,,,,,,,,,,,,,,,,,,,,,,,,,,,,,,,,,,,,,,,,,,,,,,,,,,,,,,,,,,,,,,,,,,,,,,,,,,,,,,,,,,,,,,,,,,,,,,,,,,,,,,,,,,,,,,,,,,,,,,,,,,,,,,,,,,,,,,,,,,,,,,,,,,,,,,,,,,,,,,,,,,,
1764665422.293799,27427,0,4352.563965,4367.179688,4481.410156,4501.794922,4369.358887,4485.897461,4502.820313,4368.589844,4552.94873,4367.692383,4487.307617,4482.94873,4535,4375,4357.563965,4486.922852,4502.436035,4497.05127,4475.769043,4350.897461,4367.820313,4533.333496,4479.615234,4464.102539,4358.717773,4531.922852,4350.384766,4524.871582,4481.025879,4367.94873,4485.128418,4470.384766,2873,1,24,256,36706,,,,0,4,4,4,4,4,4,4,4,4,4,4,4,4,4,4,4,4,4,4,4,4,4,4,4,4,4,4,4,4,4,4,4,100,,,,,,,,,,,,,,,,,,,,,,,,,,,,,,,,,,,,,,,,,,,,,,,,,,,,,,,,,,,,,,,,,,,,,,,,,,,,,,,,,,,,,,,,,,,,,,,,,,,,,,,,,,,,,,,,,,,,,,,,,,,,,,,,,,,,,,,,,,,,,,,,,,,,,,,,,,,,,,,,,,,,,,,,,,,,,,,,,,,,,,,,,,,,,,,,,,,,,,,,,,,,,,
1764665422.297705,27428,0,4358.205078,4373.846191,4492.94873,4512.179688,4373.333496,4492.436035,4506.922852,4371.538574,4562.94873,4379.102539,4494.871582,4491.666504,4540.128418,4380.256348,4361.410156,4491.538574,4512.179688,4506.025879,4480.256348,4356.794922,4376.153809,4544.743652,4489.487305,4474.358887,4367.820313,4538.205078,4361.538574,4534.871582,4486.794922,4379.230957,4493.461426,4476.922852,2768,1,24,512,36714,,,,0,4,4,4,4,4,4,4,4,4,4,4,4,4,4,4,4,4,4,4,4,4,4,4,4,4,4,4,4,4,4,4,4,100,,,,,,,,,,,,,,,,,,,,,,,,,,,,,,,,,,,,,,,,,,,,,,,,,,,,,,,,,,,,,,,,,,,,,,,,,,,,,,,,,,,,,,,,,,,,,,,,,,,,,,,,,,,,,,,,,,,,,,,,,,,,,,,,,,,,,,,,,,,,,,,,,,,,,,,,,,,,,,,,,,,,,,,,,,,,,,,,,,,,,,,,,,,,,,,,,,,,,,,,,,,,,,
1764665422.301610,27429,0,4363.077148,4377.436035,4498.589844,4521.410156,4375.256348,4496.922852,4508.974121,4372.820313,4568.974121,4383.461426,4500.641113,4497.179688,4545.897461,4383.333496,4364.230957,4493.461426,4522.436035,4511.666504,4482.692383,4362.307617,4384.871582,4554.743652,4499.230957,4482.05127,4376.538574,4542.436035,4367.692383,4542.179688,4491.794922,4386.153809,4498.333496,4481.153809,2804,1,24,512,36714,,,,0,4,4,4,4,4,4,4,4,4,4,4,4,4,4,4,4,4,4,4,4,4,4,4,4,4,4,4,4,4,4,4,4,100,,,,,,,,,,,,,,,,,,,,,,,,,,,,,,,,,,,39625,0,0.019013,-0.693298,-0.720337,-0.009521,0.991332,0.039067,0.038091,18.666666,1.5,55,,,,,,,,,,,,,,,,,,,,,,,,,,,,,,,,,,,,,,,,,,,,,,,,,,,,,,,,,,,,,,,,,,,,,,,,,,,,,,,,,,,,,,,,,,,,,,,,,,,,,,,,,,,,,,,,,,,,,,,,,,,,,,,,,,,,,,,,,,,,,,,,,,,,,,,,,,,,,,,,
1764665422.305516,27430,0,4364.871582,4375.641113,4493.077148,4523.461426,4373.461426,4496.410156,4509.102539,4371.025879,4566.025879,4379.615234,4502.307617,4497.307617,4549.615234,4383.205078,4362.820313,4492.05127,4527.820313,4511.794922,4482.820313,4363.974121,4390.128418,4558.717773,4504.230957,4482.94873,4377.436035,4540.769043,4365,4542.820313,4493.077148,4383.846191,4495.128418,4478.846191,2809,1,24,512,36722,,,,0,4,4,4,4,4,4,4,4,4,4,4,4,4,4,4,4,4,4,4,4,4,4,4,4,4,4,4,4,4,4,4,4,100,,,,,,,,,,,,,,,,,,,,,,,,,,,,,,,,,,,,,,,,,,,,,,,,,,,,,,,,,,,,,,,,,,,,,,,,,,,,,,,,,,,,,,,,,,,,,,,,,,,,,,,,,,,,,,,,,,,,,,,,,,,,,,,,,,,,,,,,,,,,,,,,,,,,,,,,,,,,,,,,,,,,,,,,,,,,,,,,,,,,,,,,,,,,,,,,,,,,,,,,,,,,,,
1764665422.309422,27431,0,4364.615234,4370.897461,4480.256348,4518.205078,4370.897461,4492.692383,4509.743652,4368.333496,4557.563965,4372.436035,4501.282227,4494.358887,4551.538574,4381.922852,4358.717773,4491.025879,4528.077148,4509.358887,4482.692383,4362.563965,4391.282227,4557.05127,4503.974121,4478.333496,4369.743652,4534.230957,4356.666504,4538.589844,4491.153809,4374.615234,4486.025879,4471.538574,3003,1,24,512,36722,,,,0,4,4,4,4,4,4,4,4,4,4,4,4,4,4,4,4,4,4,4,4,4,4,4,4,4,4,4,4,4,4,4,4,100,,,,,,,,,,,,,,,,,,,,,,,,,,,,,,,,,,,,,,,,,,,,,,,,,,,,,,,,,,,,,,,,,,,,,,,,,,,,,,,,,,,,,,,,,,,,,,,,,,,,,,,,,,,,,,,,,,,,,,,,,,,,,,,,,,,,,,,,,,,,,,,,,,,,,,,,,,,,,,,,,,,,,,,,,,,,,,,,,,,,,,,,,,,,,,,,,,,,,,,,,,,,,,
1764665422.313328,27432,0,4364.743652,4367.436035,4470.384766,4510.769043,4371.410156,4490.128418,4512.563965,4368.589844,4551.282227,4368.205078,4500.641113,4492.94873,4553.205078,4382.307617,4356.410156,4493.846191,4526.794922,4508.717773,4484.358887,4361.410156,4390.128418,4553.717773,4500.897461,4473.077148,4358.333496,4527.692383,4349.487305,4534.230957,4488.461426,4365,4477.820313,4465.256348,2881,1,24,768,36730,,,,0,4,4,4,4,4,4,4,4,4,4,4,4,4,4,4,4,4,4,4,4,4,4,4,4,4,4,4,4,4,4,4,4,100,,,,,,,,,,,,,,,,,,,,,,,,,,,,,,,,,,,,,,,,,,,,,,,,,,,,,,,,,,,,,,,,,,,,,,,,,,,,,,,,,,,,,,,,,,,,,,,,,,,,,,,,,,,,,,,,,,,,,,,,,,,,,,,,,,,,,,,,,,,,,,,,,,,,,,,,,,,,,,,,,,,,,,,,,,,,,,,,,,,,,,,,,,,,,,,,,,,,,,,,,,,,,,
1764665422.317233,27433,0,4366.410156,4368.333496,4471.025879,4506.282227,4376.025879,4492.179688,4516.666504,4373.205078,4552.692383,4369.102539,4502.436035,4496.153809,4556.025879,4384.871582,4359.230957,4500.769043,4528.077148,4512.563965,4488.846191,4363.205078,4388.974121,4552.436035,4498.205078,4471.538574,4350.769043,4525.897461,4348.717773,4533.333496,4487.692383,4361.153809,4476.410156,4465.641113,2734,1,24,768,36730,,,,0,4,4,4,4,4,4,4,4,4,4,4,4,4,4,4,4,4,4,4,4,4,4,4,4,4,4,4,4,4,4,4,4,100,,,,,,,,,,,,,,,,,,,,,,,,,,,,,,,,,,,39626,0,0.019103,-0.693298,-0.720337,-0.009338,0.993285,0.038579,0.041997,20.333334,1.833333,53.666668,,,,,,,,,,,,,,,,,,,,,,,,,,,,,,,,,,,,,,,,,,,,,,,,,,,,,,,,,,,,,,,,,,,,,,,,,,,,,,,,,,,,,,,,,,,,,,,,,,,,,,,,,,,,,,,,,,,,,,,,,,,,,,,,,,,,,,,,,,,,,,,,,,,,,,,,,,,,,,,,
1764665422.321139,27434,0,4369.230957,4372.436035,4480.897461,4506.282227,4382.436035,4498.077148,4519.102539,4379.358887,4559.871582,4372.94873,4506.153809,4502.436035,4560.384766,4387.692383,4366.025879,4507.563965,4533.205078,4520.128418,4494.743652,4367.692383,4388.717773,4553.974121,4497.94873,4474.615234,4351.410156,4529.487305,4353.461426,4536.025879,4489.358887,4364.358887,4481.922852,4472.307617,1889,1,24,1024,36737,,,,0,4,4,4,4,4,4,4,4,4,4,4,4,4,4,4,4,4,4,4,4,4,4,4,4,4,4,4,4,4,4,4,4,100,,,,,,,,,,,,,,,,,,,,,,,,,,,,,,,,,,,,,,,,,,,,,,,,,,,,,,,,,,,,,,,,,,,,,,,,,,,,,,,,,,,,,,,,,,,,,,,,,,,,,,,,,,,,,,,,,,,,,,,,,,,,,,,,,,,,,,,,,,,,,,,,,,,,,,,,,,,,,,,,,,,,,,,,,,,,,,,,,,,,,,,,,,,,,,,,,,,,,,,,,,,,,,
1764665422.325045,27435,0,4371.794922,4376.538574,4491.410156,4508.974121,4386.538574,4504.102539,4517.94873,4382.820313,4566.282227,4375.769043,4509.358887,4508.077148,4564.743652,4389.102539,4373.077148,4510,4539.358887,4528.077148,4499.358887,4371.922852,4388.333496,4556.410156,4499.358887,4479.743652,4359.615234,4535.384766,4358.846191,4539.615234,4492.436035,4370.384766,4489.487305,4480.384766,2715,1,24,1024,36737,,,,0,4,4,4,4,4,4,4,4,4,4,4,4,4,4,4,4,4,4,4,4,4,4,4,4,4,4,4,4,4,4,4,4,100,,,,,,,,,,,,,,,,,,,,,,,,,,,,,,,,,,,,,,,,,,,,,,,,,,,,,,,,,,,,,,,,,,,,,,,,,,,,,,,,,,,,,,,,,,,,,,,,,,,,,,,,,,,,,,,,,,,,,,,,,,,,,,,,,,,,,,,,,,,,,,,,,,,,,,,,,,,,,,,,,,,,,,,,,,,,,,,,,,,,,,,,,,,,,,,,,,,,,,,,,,,,,,
1764665422.328951,27436,0,4373.461426,4378.461426,4495.128418,4511.666504,4387.307617,4507.820313,4515,4382.307617,4567.563965,4376.794922,4511.410156,4509.871582,4567.179688,4389.743652,4376.666504,4508.077148,4543.589844,4533.589844,4500.512695,4373.846191,4386.794922,4557.692383,4501.153809,4483.846191,4371.025879,4540.256348,4361.153809,4541.666504,4495.128418,4375,4494.230957,4484.743652,2501,1,24,1280,36745,,,,0,4,4,4,4,4,4,4,4,4,4,4,4,4,4,4,4,4,4,4,4,4,4,4,4,4,4,4,4,4,4,4,4,100,,,,,,,,,,,,,,,,,,,,,,,,,,,,,,,,,,,,,,,,,,,,,,,,,,,,,,,,,,,,,,,,,,,,,,,,,,,,,,,,,,,,,,,,,,,,,,,,,,,,,,,,,,,,,,,,,,,,,,,,,,,,,,,,,,,,,,,,,,,,,,,,,,,,,,,,,,,,,,,,,,,,,,,,,,,,,,,,,,,,,,,,,,,,,,,,,,,,,,,,,,,,,,
1764665422.332856,27437,0,4375.128418,4379.102539,4492.436035,4513.589844,4387.436035,4509.358887,4514.102539,4380.769043,4564.358887,4378.205078,4512.94873,4508.589844,4567.436035,4391.666504,4376.922852,4505.897461,4544.487305,4536.025879,4498.589844,4373.589844,4384.743652,4557.436035,4502.94873,4486.025879,4381.538574,4543.077148,4361.025879,4542.179688,4497.05127,4377.307617,4495.256348,4484.358887,2219,1,24,1280,36745,,,,0,4,4,4,4,4,4,4,4,4,4,4,4,4,4,4,4,4,4,4,4,4,4,4,4,4,4,4,4,4,4,4,4,100,,,,,,,,,,,,,,,,,,,,,,,,,,,,,,,,,,,39627,0,0.019043,-0.693298,-0.720337,-0.00946,0.993285,0.038579,0.041997,18.333334,-0.333333,53.666668,,,,,,,,,,,,,,,,,,,,,,,,,,,,,,,,,,,,,,,,,,,,,,,,,,,,,,,,,,,,,,,,,,,,,,,,,,,,,,,,,,,,,,,,,,,,,,,,,,,,,,,,,,,,,,,,,,,,,,,,,,,,,,,,,,,,,,,,,,,,,,,,,,,,,,,,,,,,,,,,
1764665422.336762,27438,0,4376.922852,4380.128418,4490,4515.384766,4390,4509.743652,4517.563965,4382.307617,4561.538574,4381.153809,4514.615234,4506.282227,4565.641113,4395.384766,4375.641113,4506.153809,4542.563965,4535.769043,4494.871582,4372.05127,4382.820313,4556.666504,4504.358887,4486.282227,4388.461426,4544.743652,4361.025879,4542.307617,4498.205078,4378.846191,4495,4482.436035,2727,1,24,1536,36753,,,,0,4,4,4,4,4,4,4,4,4,4,4,4,4,4,4,4,4,4,4,4,4,4,4,4,4,4,4,4,4,4,4,4,100,,,,,,,,,,,,,,,,,,,,,,,,,,,,,,,,,,,,,,,,,,,,,,,,,,,,,,,,,,,,,,,,,,,,,,,,,,,,,,,,,,,,,,,,,,,,,,,,,,,,,,,,,,,,,,,,,,,,,,,,,,,,,,,,,,,,,,,,,,,,,,,,,,,,,,,,,,,,,,,,,,,,,,,,,,,,,,,,,,,,,,,,,,,,,,,,,,,,,,,,,,,,,,
1764665422.340668,27439,0,4377.563965,4381.666504,4492.307617,4517.94873,4394.230957,4508.205078,4522.820313,4386.666504,4561.410156,4383.461426,4514.743652,4503.846191,4562.307617,4398.333496,4373.846191,4507.436035,4538.205078,4532.179688,4490.512695,4369.615234,4380.512695,4555.641113,4503.974121,4484.358887,4390.641113,4546.025879,4362.179688,4542.436035,4498.589844,4381.282227,4495.641113,4481.410156,2507,1,24,1536,36753,,,,0,4,4,4,4,4,4,4,4,4,4,4,4,4,4,4,4,4,4,4,4,4,4,4,4,4,4,4,4,4,4,4,4,100,,,,,,,,,,,,,,,,,,,,,,,,,,,,,,,,,,,,,,,,,,,,,,,,,,,,,,,,,,,,,,,,,,,,,,,,,,,,,,,,,,,,,,,,,,,,,,,,,,,,,,,,,,,,,,,,,,,,,,,,,,,,,,,,,,,,,,,,,,,,,,,,,,,,,,,,,,,,,,,,,,,,,,,,,,,,,,,,,,,,,,,,,,,,,,,,,,,,,,,,,,,,,,
1764665422.344574,27440,0,4375.641113,4381.794922,4498.461426,4521.025879,4397.179688,4504.487305,4525.641113,4390.256348,4562.563965,4381.538574,4510.384766,4500.512695,4557.820313,4396.794922,4371.538574,4506.410156,4531.410156,4525.384766,4485.897461,4365.512695,4376.666504,4553.461426,4501.282227,4479.358887,4389.487305,4547.179688,4363.205078,4541.153809,4497.436035,4383.846191,4497.94873,4482.307617,2881,1,24,1792,36761,,,,0,4,4,4,4,4,4,4,4,4,4,4,4,4,4,4,4,4,4,4,4,4,4,4,4,4,4,4,4,4,4,4,4,100,,,,,,,,,,,,,,,,,,,,,,,,,,,,,,,,,,,,,,,,,,,,,,,,,,,,,,,,,,,,,,,,,,,,,,,,,,,,,,,,,,,,,,,,,,,,,,,,,,,,,,,,,,,,,,,,,,,,,,,,,,,,,,,,,,,,,,,,,,,,,,,,,,,,,,,,,,,,,,,,,,,,,,,,,,,,,,,,,,,,,,,,,,,,,,,,,,,,,,,,,,,,,,
1764665422.348480,27441,0,4371.538574,4380.512695,4503.846191,4523.589844,4397.05127,4499.743652,4524.102539,4389.487305,4562.179688,4375.897461,4502.307617,4496.410156,4553.589844,4390.256348,4368.846191,4502.179688,4523.974121,4518.205078,4482.563965,4361.282227,4372.05127,4550.641113,4497.436035,4472.94873,4388.205078,4548.846191,4364.230957,4538.461426,4495.384766,4385.512695,4501.666504,4484.871582,2935,1,24,1792,36761,,,,0,4,4,4,4,4,4,4,4,4,4,4,4,4,4,4,4,4,4,4,4,4,4,4,4,4,4,4,4,4,4,4,4,100,,,,,,,,,,,,,,,,,,,,,,,,,,,,,,,,,,,39628,0,0.019013,-0.693298,-0.720337,-0.009521,0.996215,0.034184,0.040532,20,0.333333,54.5,,,,,,,,,,,,,,,,,,,,,,,,,,,,,,,,,,,,,,,,,,,,,,,,,,,,,,,,,,,,,,,,,,,,,,,,,,,,,,,,,,,,,,,,,,,,,,,,,,,,,,,,,,,,,,,,,,,,,,,,,,,,,,,,,,,,,,,,,,,,,,,,,,,,,,,,,,,,,,,,
1764665422.352385,27442,0,4368.333496,4379.487305,4505.256348,4524.487305,4394.871582,4496.922852,4520.384766,4385,4559.487305,4370.897461,4494.358887,4493.333496,4551.538574,4382.05127,4367.307617,4497.436035,4519.615234,4515.256348,4482.820313,4359.743652,4369.743652,4548.717773,4495.512695,4469.102539,4389.871582,4552.179688,4366.538574,4536.666504,4493.846191,4386.282227,4506.538574,4489.487305,1777,1,24,2048,36769,,,,0,4,4,4,4,4,4,4,4,4,4,4,4,4,4,4,4,4,4,4,4,4,4,4,4,4,4,4,4,4,4,4,4,100,,,,,,,,,,,,,,,,,,,,,,,,,,,,,,,,,,,,,,,,,,,,,,,,,,,,,,,,,,,,,,,,,,,,,,,,,,,,,,,,,,,,,,,,,,,,,,,,,,,,,,,,,,,,,,,,,,,,,,,,,,,,,,,,,,,,,,,,,,,,,,,,,,,,,,,,,,,,,,,,,,,,,,,,,,,,,,,,,,,,,,,,,,,,,,,,,,,,,,,,,,,,,,
1764665422.356291,27443,0,4367.94873,4380.384766,4502.436035,4523.205078,4392.692383,4497.05127,4518.077148,4379.871582,4556.025879,4370.641113,4490.769043,4493.077148,4552.179688,4376.794922,4368.333496,4495.512695,4521.025879,4518.333496,4487.436035,4362.692383,4372.05127,4549.487305,4496.410156,4470.641113,4393.974121,4556.794922,4371.282227,4538.589844,4493.846191,4387.05127,4511.538574,4495.128418,2954,1,24,2048,36769,,,,0,4,4,4,4,4,4,4,4,4,4,4,4,4,4,4,4,4,4,4,4,4,4,4,4,4,4,4,4,4,4,4,4,100,,,,,,,,,,,,,,,,,,,,,,,,,,,,,,,,,,,,,,,,,,,,,,,,,,,,,,,,,,,,,,,,,,,,,,,,,,,,,,,,,,,,,,,,,,,,,,,,,,,,,,,,,,,,,,,,,,,,,,,,,,,,,,,,,,,,,,,,,,,,,,,,,,,,,,,,,,,,,,,,,,,,,,,,,,,,,,,,,,,,,,,,,,,,,,,,,,,,,,,,,,,,,,
1764665422.360197,27444,0,4369.615234,4382.307617,4497.05127,4520,4391.025879,4498.333496,4518.077148,4376.410156,4553.974121,4374.358887,4492.179688,4494.615234,4553.205078,4376.538574,4371.666504,4497.05127,4526.922852,4524.230957,4493.717773,4368.589844,4377.436035,4552.820313,4498.717773,4476.153809,4396.794922,4560.256348,4376.410156,4543.717773,4494.358887,4387.436035,4514.487305,4498.974121,2550,1,24,2304,36776,,,,0,4,4,4,4,4,4,4,4,4,4,4,4,4,4,4,4,4,4,4,4,4,4,4,4,4,4,4,4,4,4,4,4,100,,,,,,,,,,,,,,,,,,,,,,,,,,,,,,,,,,,,,,,,,,,,,,,,,,,,,,,,,,,,,,,,,,,,,,,,,,,,,,,,,,,,,,,,,,,,,,,,,,,,,,,,,,,,,,,,,,,,,,,,,,,,,,,,,,,,,,,,,,,,,,,,,,,,,,,,,,,,,,,,,,,,,,,,,,,,,,,,,,,,,,,,,,,,,,,,,,,,,,,,,,,,,,
1764665422.364103,27445,0,4370.128418,4382.179688,4490.769043,4515.897461,4388.589844,4497.307617,4517.94873,4374.487305,4553.333496,4377.179688,4495.641113,4494.358887,4551.410156,4378.846191,4375.256348,4499.358887,4532.05127,4527.179688,4497.05127,4372.820313,4381.410156,4555.897461,4499.358887,4480.641113,4394.230957,4559.487305,4378.077148,4547.820313,4493.589844,4385.897461,4512.820313,4497.563965,2837,1,24,2304,36776,,,,0,4,4,4,4,4,4,4,4,4,4,4,4,4,4,4,4,4,4,4,4,4,4,4,4,4,4,4,4,4,4,4,4,100,,,,,,,,,,,,,,,,,,,,,,,,,,,,,,,,,,,39629,0,0.018982,-0.693298,-0.720337,-0.009583,0.996704,0.038091,0.042974,20,0.333333,54.5,,,,,,,,,,,,,,,,,,,,,,,,,,,,,,,,,,,,,,,,,,,,,,,,,,,,,,,,,,,,,,,,,,,,,,,,,,,,,,,,,,,,,,,,,,,,,,,,,,,,,,,,,,,,,,,,,,,,,,,,,,,,,,,,,,,,,,,,,,,,,,,,,,,,,,,,,,,,,,,,
1764665422.368008,27446,0,4366.410156,4377.307617,4484.358887,4511.153809,4383.461426,4491.410156,4513.589844,4372.179688,4552.563965,4374.358887,4497.179688,4489.487305,4545.256348,4379.871582,4376.410156,4498.846191,4530.256348,4522.820313,4494.102539,4371.153809,4380,4554.743652,4496.282227,4479.743652,4385.256348,4552.820313,4373.589844,4545.897461,4489.743652,4381.025879,4505.769043,4489.743652,2938,1,24,2560,36784,,,,0,4,4,4,4,4,4,4,4,4,4,4,4,4,4,4,4,4,4,4,4,4,4,4,4,4,4,4,4,4,4,4,4,100,,,,,,,,,,,,,,,,,,,,,,,,,,,,,,,,,,,,,,,,,,,,,,,,,,,,,,,,,,,,,,,,,,,,,,,,,,,,,,,,,,,,,,,,,,,,,,,,,,,,,,,,,,,,,,,,,,,,,,,,,,,,,,,,,,,,,,,,,,,,,,,,,,,,,,,,,,,,,,,,,,,,,,,,,,,,,,,,,,,,,,,,,,,,,,,,,,,,,,,,,,,,,,
1764665422.371914,27447,0,4358.461426,4368.205078,4478.333496,4506.025879,4375.769043,4481.538574,4504.615234,4367.692383,4550,4366.410156,4494.358887,4480.897461,4536.410156,4377.436035,4374.358887,4493.846191,4520.384766,4512.436035,4485.512695,4363.589844,4373.205078,4547.692383,4490.256348,4472.94873,4372.692383,4542.307617,4363.589844,4537.05127,4483.717773,4373.461426,4495.512695,4477.94873,2855,1,24,2560,36784,,,,0,4,4,4,4,4,4,4,4,4,4,4,4,4,4,4,4,4,4,4,4,4,4,4,4,4,4,4,4,4,4,4,4,100,,,,,,,,,,,,,,,,,,,,,,,,,,,,,,,,,,,,,,,,,,,,,,,,,,,,,,,,,,,,,,,,,,,,,,,,,,,,,,,,,,,,,,,,,,,,,,,,,,,,,,,,,,,,,,,,,,,,,,,,,,,,,,,,,,,,,,,,,,,,,,,,,,,,,,,,,,,,,,,,,,,,,,,,,,,,,,,,,,,,,,,,,,,,,,,,,,,,,,,,,,,,,,
1764665422.375820,27448,0,4349.487305,4358.974121,4473.461426,4501.794922,4368.333496,4471.538574,4495.384766,4362.179688,4546.666504,4358.974121,4488.461426,4472.563965,4528.846191,4373.077148,4371.410156,4486.794922,4508.333496,4502.179688,4476.538574,4355,4365.897461,4537.820313,4484.743652,4465.384766,4362.563965,4532.94873,4353.077148,4525.256348,4478.205078,4366.282227,4486.410156,4467.307617,2770,1,24,1280,36792,,,,0,4,4,4,4,4,4,4,4,4,4,4,4,4,4,4,4,4,4,4,4,4,4,4,4,4,4,4,4,4,4,4,4,100,,,,,,,,,,,,,,,,,,,,,,,,,,,,,,,,,,,,,,,,,,,,,,,,,,,,,,,,,,,,,,,,,,,,,,,,,,,,,,,,,,,,,,,,,,,,,,,,,,,,,,,,,,,,,,,,,,,,,,,,,,,,,,,,,,,,,,,,,,,,,,,,,,,,,,,,,,,,,,,,,,,,,,,,,,,,,,,,,,,,,,,,,,,,,,,,,,,,,,,,,,,,,,
1764665422.379726,27449,0,4345.128418,4355.128418,4471.922852,4501.153809,4366.282227,4467.436035,4492.692383,4360,4545.384766,4359.230957,4484.743652,4470,4527.436035,4370.897461,4371.153809,4482.692383,4503.333496,4499.487305,4473.205078,4352.563965,4364.615234,4532.563965,4484.230957,4463.205078,4361.282227,4530.641113,4349.230957,4518.717773,4476.538574,4364.487305,4484.230957,4463.846191,2837,1,24,1280,36792,,,,0,4,4,4,4,4,4,4,4,4,4,4,4,4,4,4,4,4,4,4,4,4,4,4,4,4,4,4,4,4,4,4,4,100,,,,,,,,,,,,,,,,,,,,,,,,,,,,,,,,,,,39630,0,0.018951,-0.693298,-0.720337,-0.009644,1.001099,0.038579,0.035649,19.166666,0.666667,54.166668,,,,,,,,,,,,,,,,,,,,,,,,,,,,,,,,,,,,,,,,,,,,,,,,,,,,,,,,,,,,,,,,,,,,,,,,,,,,,,,,,,,,,,,,,,,,,,,,,,,,,,,,,,,,,,,,,,,,,,,,,,,,,,,,,,,,,,,,,,,,,,,,,,,,,,,,,,,,,,,,
1764665422.383632,27450,0,4350.256348,4361.025879,4476.410156,4506.666504,4373.333496,4472.94873,4500.256348,4366.153809,4549.743652,4370.384766,4488.205078,4476.538574,4534.743652,4374.487305,4376.153809,4485.256348,4511.025879,4507.820313,4478.589844,4360.256348,4372.94873,4538.461426,4491.666504,4470.512695,4371.794922,4538.461426,4356.153809,4523.589844,4480.897461,4370.512695,4491.410156,4470.128418,1946,1,24,1280,36800,,,,0,4,4,4,4,4,4,4,4,4,4,4,4,4,4,4,4,4,4,4,4,4,4,4,4,4,4,4,4,4,4,4,4,100,,,,,,,,,,,,,,,,,,,,,,,,,,,,,,,,,,,,,,,,,,,,,,,1.272293,18.17704,1.365756,1.414471,1.117804,2.582445,18.005825,1.507192,1.90886,1.381169,2.718483,13.105049,1.361101,1.974363,1.475952,1.354789,9.139993,1.133793,1.540195,1.446016,2.282961,13.693231,1.336177,1.395606,1.349361,1.458255,16.979481,1.279239,1.234076,1.082472,1.530541,13.86328,1.258347,1.450586,1.190172,1.573383,10.67444,1.029601,1.102296,1.405795,1.172297,4.637895,0.732328,1.59589,1.587288,0.96734,6.468428,1.42948,2.106211,1.858536,1.163864,4.470685,0.319614,0.658486,0.908324,1.321118,16.985991,1.363559,1.13268,1.184548,0.854541,8.946456,1.213732,0.959737,0.943455,0.325785,1.097403,0.344935,0.600337,0.780975,0.583128,2.210934,0.505619,1.36797,1.151656,0.274677,3.153555,1.056324,0.881392,0.705304,2.230538,21.99873,2.638495,2.049169,1.426512,0.956837,4.642519,1.691215,1.865603,1.581577,0.800221,3.40235,1.112,1.138543,1.001742,0.989372,5.850592,0.629205,1.421269,1.072232,1.790985,6.456641,1.042517,1.628251,1.312628,2.215282,10.517637,2.243632,2.036519,1.223125,1.637361,13.921585,1.347832,1.32631,1.230186,1.985645,4.603056,1.417434,1.910127,1.345971,1.778548,3.866134,1.619801,2.66744,2.007991,2.035735,3.717807,1.30503,1.349469,0.909743,2.643247,11.4257,1.450316,2.018707,1.408018,2.143902,13.740079,1.286054,2.04123,1.244009,1.035975,9.713833,0.539218,1.053261,0.675586,2.989951,13.879056,1.267981,1.7201,1.229468,2.008318,9.158838,1.657,2.126011,1.237532,2.415713,11.583508,1.40042,1.687056,1.368621
1764665422.387537,27451,0,4364.487305,4375.769043,4488.077148,4518.461426,4388.717773,4487.05127,4515.897461,4381.410156,4560.769043,4387.94873,4499.487305,4490.769043,4549.358887,4383.846191,4385.641113,4493.974121,4529.102539,4523.846191,4491.282227,4376.153809,4388.846191,4555.256348,4505.897461,4485.384766,4389.871582,4554.358887,4372.436035,4540,4490.512695,4383.717773,4506.025879,4484.615234,2644,1,24,1280,36800,,,,0,4,4,4,4,4,4,4,4,4,4,4,4,4,4,4,4,4,4,4,4,4,4,4,4,4,4,4,4,4,4,4,4,100,,,,,,,,,,,,,,,,,,,,,,,,,,,,,,,,,,,,,,,,,,,,,,,,,,,,,,,,,,,,,,,,,,,,,,,,,,,,,,,,,,,,,,,,,,,,,,,,,,,,,,,,,,,,,,,,,,,,,,,,,,,,,,,,,,,,,,,,,,,,,,,,,,,,,,,,,,,,,,,,,,,,,,,,,,,,,,,,,,,,,,,,,,,,,,,,,,,,,,,,,,,,,,
1764665422.391443,27452,0,4381.922852,4393.333496,4503.333496,4532.436035,4405.897461,4503.461426,4533.205078,4399.871582,4574.615234,4402.692383,4514.230957,4506.794922,4565.769043,4395,4394.743652,4504.230957,4549.358887,4540.256348,4506.025879,4393.077148,4406.538574,4575.897461,4521.153809,4501.794922,4406.153809,4571.025879,4390.256348,4560.512695,4501.153809,4399.358887,4521.666504,4501.153809,2704,1,24,1280,36808,,,,0,4,4,4,4,4,4,4,4,4,4,4,4,4,4,4,4,4,4,4,4,4,4,4,4,4,4,4,4,4,4,4,4,100,,,,,,,,,,,,,,,,,,,,,,,,,,,,,,,,,,,,,,,,,,,,,,,,,,,,,,,,,,,,,,,,,,,,,,,,,,,,,,,,,,,,,,,,,,,,,,,,,,,,,,,,,,,,,,,,,,,,,,,,,,,,,,,,,,,,,,,,,,,,,,,,,,,,,,,,,,,,,,,,,,,,,,,,,,,,,,,,,,,,,,,,,,,,,,,,,,,,,,,,,,,,,,
1764665422.395349,27453,0,4394.871582,4405.641113,4515.512695,4543.077148,4416.922852,4515.128418,4545.384766,4412.820313,4585.384766,4407.563965,4525.512695,4518.077148,4577.820313,4402.307617,4398.461426,4510.769043,4563.077148,4550.128418,4517.179688,4403.846191,4419.102539,4590.512695,4531.153809,4512.94873,4412.179688,4580.384766,4401.025879,4575.512695,4508.461426,4411.025879,4531.538574,4512.692383,2540,1,24,1280,36808,,,,0,4,4,4,4,4,4,4,4,4,4,4,4,4,4,4,4,4,4,4,4,4,4,4,4,4,4,4,4,4,4,4,4,100,,,,,,,,,,,,,,,,,,,,,,,,,,,,,,,,,,,39631,0,0.019069,-0.693359,-0.720276,-0.009583,0.992797,0.034184,0.045416,18.333334,0.666667,54.5,,,,,,,,,,,,,,,,,,,,,,,,,,,,,,,,,,,,,,,,,,,,,,,,,,,,,,,,,,,,,,,,,,,,,,,,,,,,,,,,,,,,,,,,,,,,,,,,,,,,,,,,,,,,,,,,,,,,,,,,,,,,,,,,,,,,,,,,,,,,,,,,,,,,,,,,,,,,,,,,
1764665422.399255,27454,0,4398.205078,4408.717773,4519.743652,4546.282227,4417.692383,4518.589844,4548.717773,4415.128418,4588.205078,4402.436035,4528.077148,4521.410156,4582.563965,4403.077148,4394.871582,4510.897461,4565.897461,4551.410156,4521.410156,4405.128418,4422.307617,4593.974121,4532.307617,4515.897461,4406.922852,4579.102539,4401.282227,4578.717773,4509.871582,4414.358887,4532.436035,4515.641113,2670,1,24,1024,36816,,,,0,4,4,4,4,4,4,4,4,4,4,4,4,4,4,4,4,4,4,4,4,4,4,4,4,4,4,4,4,4,4,4,4,100,,,,,,,,,,,,,,,,,,,,,,,,,,,,,,,,,,,,,,,,,,,,,,,,,,,,,,,,,,,,,,,,,,,,,,,,,,,,,,,,,,,,,,,,,,,,,,,,,,,,,,,,,,,,,,,,,,,,,,,,,,,,,,,,,,,,,,,,,,,,,,,,,,,,,,,,,,,,,,,,,,,,,,,,,,,,,,,,,,,,,,,,,,,,,,,,,,,,,,,,,,,,,,
1764665422.403160,27455,0,4392.05127,4403.461426,4515.512695,4542.692383,4410,4515.384766,4544.102539,4408.077148,4582.94873,4393.846191,4522.436035,4517.94873,4581.410156,4398.589844,4386.666504,4507.05127,4559.743652,4546.410156,4519.230957,4399.230957,4417.436035,4587.94873,4525.512695,4512.179688,4396.282227,4570.641113,4393.333496,4571.666504,4506.282227,4409.487305,4527.307617,4511.153809,2835,1,24,1024,36816,,,,0,4,4,4,4,4,4,4,4,4,4,4,4,4,4,4,4,4,4,4,4,4,4,4,4,4,4,4,4,4,4,4,4,100,,,,,,,,,,,,,,,,,,,,,,,,,,,,,,,,,,,,,,,,,,,,,,,,,,,,,,,,,,,,,,,,,,,,,,,,,,,,,,,,,,,,,,,,,,,,,,,,,,,,,,,,,,,,,,,,,,,,,,,,,,,,,,,,,,,,,,,,,,,,,,,,,,,,,,,,,,,,,,,,,,,,,,,,,,,,,,,,,,,,,,,,,,,,,,,,,,,,,,,,,,,,,,
1764665422.407066,27456,0,4381.025879,4395,4507.05127,4536.025879,4399.615234,4509.871582,4535.897461,4397.820313,4573.333496,4388.846191,4513.974121,4512.179688,4577.692383,4393.077148,4379.487305,4503.974121,4550.897461,4540.256348,4513.846191,4391.025879,4408.846191,4578.333496,4515.384766,4505.769043,4389.102539,4561.794922,4383.589844,4560.897461,4500.897461,4400.641113,4521.282227,4503.717773,2772,1,24,256,36823,,,,0,4,4,4,4,4,4,4,4,4,4,4,4,4,4,4,4,4,4,4,4,4,4,4,4,4,4,4,4,4,4,4,4,100,,,,,,,,,,,,,,,,,,,,,,,,,,,,,,,,,,,,,,,,,,,,,,,,,,,,,,,,,,,,,,,,,,,,,,,,,,,,,,,,,,,,,,,,,,,,,,,,,,,,,,,,,,,,,,,,,,,,,,,,,,,,,,,,,,,,,,,,,,,,,,,,,,,,,,,,,,,,,,,,,,,,,,,,,,,,,,,,,,,,,,,,,,,,,,,,,,,,,,,,,,,,,,
1764665422.410972,27457,0,4370.769043,4388.461426,4499.230957,4530.512695,4391.666504,4505.641113,4529.743652,4390.128418,4563.974121,4390.128418,4507.94873,4507.820313,4574.615234,4390.128418,4377.307617,4504.743652,4545.128418,4536.666504,4508.974121,4384.102539,4401.410156,4570.384766,4506.922852,4499.871582,4389.871582,4557.563965,4376.410156,4552.94873,4496.666504,4392.692383,4517.94873,4496.794922,2932,1,24,256,36823,,,,0,4,4,4,4,4,4,4,4,4,4,4,4,4,4,4,4,4,4,4,4,4,4,4,4,4,4,4,4,4,4,4,4,100,,,,,,,,,,,,,,,,,,,,,,,,,,,,,,,,,,,39632,0,0.019038,-0.693359,-0.720276,-0.009644,0.999634,0.036626,0.025394,18.5,-0.166667,54.333332,,,,,,,,,,,,,,,,,,,,,,,,,,,,,,,,,,,,,,,,,,,,,,,,,,,,,,,,,,,,,,,,,,,,,,,,,,,,,,,,,,,,,,,,,,,,,,,,,,,,,,,,,,,,,,,,,,,,,,,,,,,,,,,,,,,,,,,,,,,,,,,,,,,,,,,,,,,,,,,,
1764665422.414878,27458,0,4364.615234,4385.128418,4493.333496,4527.05127,4387.692383,4503.077148,4527.563965,4386.666504,4557.563965,4394.102539,4505.897461,4505.897461,4572.563965,4390.256348,4379.358887,4507.820313,4543.717773,4535.769043,4505.769043,4378.974121,4396.538574,4565.512695,4502.563965,4494.487305,4396.025879,4557.563965,4372.563965,4549.615234,4494.102539,4387.563965,4516.282227,4491.025879,2598,1,24,256,36831,,,,0,4,4,4,4,4,4,4,4,4,4,4,4,4,4,4,4,4,4,4,4,4,4,4,4,4,4,4,4,4,4,4,4,100,,,,,,,,,,,,,,,,,,,,,,,,,,,,,,,,,,,,,,,,,,,,,,,,,,,,,,,,,,,,,,,,,,,,,,,,,,,,,,,,,,,,,,,,,,,,,,,,,,,,,,,,,,,,,,,,,,,,,,,,,,,,,,,,,,,,,,,,,,,,,,,,,,,,,,,,,,,,,,,,,,,,,,,,,,,,,,,,,,,,,,,,,,,,,,,,,,,,,,,,,,,,,,
1764665422.418783,27459,0,4362.179688,4383.077148,4488.077148,4523.717773,4385.384766,4500.512695,4527.05127,4384.871582,4554.102539,4395.384766,4505.641113,4503.974121,4570,4391.282227,4381.153809,4508.846191,4543.205078,4535.256348,4503.333496,4374.871582,4392.307617,4561.538574,4501.153809,4488.461426,4400.256348,4558.846191,4369.743652,4548.461426,4491.794922,4383.589844,4513.589844,4485.512695,2866,1,24,256,36831,,,,0,4,4,4,4,4,4,4,4,4,4,4,4,4,4,4,4,4,4,4,4,4,4,4,4,4,4,4,4,4,4,4,4,100,,,,,,,,,,,,,,,,,,,,,,,,,,,,,,,,,,,,,,,,,,,,,,,,,,,,,,,,,,,,,,,,,,,,,,,,,,,,,,,,,,,,,,,,,,,,,,,,,,,,,,,,,,,,,,,,,,,,,,,,,,,,,,,,,,,,,,,,,,,,,,,,,,,,,,,,,,,,,,,,,,,,,,,,,,,,,,,,,,,,,,,,,,,,,,,,,,,,,,,,,,,,,,
1764665422.422590,27460,0,4360.512695,4380.384766,4482.436035,4518.205078,4381.666504,4496.666504,4523.717773,4381.282227,4552.307617,4391.025879,4504.102539,4499.743652,4565.128418,4390.384766,4378.846191,4505.384766,4540.128418,4532.692383,4500.384766,4371.282227,4386.922852,4556.410156,4500.384766,4481.666504,4397.05127,4558.974121,4366.538574,4546.153809,4488.717773,4379.102539,4509.102539,4480.512695,2760,1,24,512,36839,,,,0,4,4,4,4,4,4,4,4,4,4,4,4,4,4,4,4,4,4,4,4,4,4,4,4,4,4,4,4,4,4,4,4,100,,,,,,,,,,,,,,,,,,,,,,,,,,,,,,,,,,,,,,,,,,,,,,,,,,,,,,,,,,,,,,,,,,,,,,,,,,,,,,,,,,,,,,,,,,,,,,,,,,,,,,,,,,,,,,,,,,,,,,,,,,,,,,,,,,,,,,,,,,,,,,,,,,,,,,,,,,,,,,,,,,,,,,,,,,,,,,,,,,,,,,,,,,,,,,,,,,,,,,,,,,,,,,
1764665422.426497,27461,0,4357.692383,4377.05127,4477.94873,4511.025879,4376.538574,4491.794922,4516.666504,4375.128418,4552.05127,4382.94873,4500.384766,4493.333496,4558.589844,4387.05127,4372.692383,4498.974121,4534.102539,4528.077148,4496.282227,4369.358887,4380.641113,4549.871582,4498.205078,4476.153809,4387.05127,4558.205078,4364.102539,4541.538574,4485.384766,4375,4505.256348,4477.820313,2793,1,24,512,36839,,,,0,4,4,4,4,4,4,4,4,4,4,4,4,4,4,4,4,4,4,4,4,4,4,4,4,4,4,4,4,4,4,4,4,100,,,,,,,,,,,,,,,,,,,,,,,,,,,,,,,,,,,39633,0,0.019007,-0.693359,-0.720276,-0.009705,0.99182,0.039556,0.038091,19.166666,0.333333,55.833332,,,,,,,,,,,,,,,,,,,,,,,,,,,,,,,,,,,,,,,,,,,,,,,,,,,,,,,,,,,,,,,,,,,,,,,,,,,,,,,,,,,,,,,,,,,,,,,,,,,,,,,,,,,,,,,,,,,,,,,,,,,,,,,,,,,,,,,,,,,,,,,,,,,,,,,,,,,,,,,,
1764665422.430403,27462,0,4354.487305,4375.256348,4477.307617,4505.641113,4372.820313,4487.94873,4508.846191,4369.743652,4554.358887,4375.897461,4496.025879,4487.820313,4552.563965,4382.820313,4366.025879,4493.717773,4527.436035,4523.333496,4491.282227,4369.615234,4375.256348,4544.230957,4495.512695,4474.743652,4376.666504,4558.589844,4364.871582,4537.179688,4483.717773,4373.717773,4505.641113,4479.102539,2803,1,24,768,36847,,,,0,4,4,4,4,4,4,4,4,4,4,4,4,4,4,4,4,4,4,4,4,4,4,4,4,4,4,4,4,4,4,4,4,100,,,,,,,,,,,,,,,,,,,,,,,,,,,,,,,,,,,,,,,,,,,,,,,,,,,,,,,,,,,,,,,,,,,,,,,,,,,,,,,,,,,,,,,,,,,,,,,,,,,,,,,,,,,,,,,,,,,,,,,,,,,,,,,,,,,,,,,,,,,,,,,,,,,,,,,,,,,,,,,,,,,,,,,,,,,,,,,,,,,,,,,,,,,,,,,,,,,,,,,,,,,,,,
1764665422.434310,27463,0,4353.846191,4377.563965,4482.179688,4506.410156,4374.102539,4487.820313,4505.384766,4369.871582,4559.743652,4374.230957,4493.077148,4487.05127,4550.256348,4380.256348,4362.820313,4492.436035,4523.205078,4520.256348,4487.179688,4371.538574,4372.820313,4541.794922,4493.974121,4478.589844,4372.692383,4561.538574,4370.256348,4536.922852,4485.512695,4377.05127,4511.282227,4484.102539,2990,1,24,768,36847,,,,0,4,4,4,4,4,4,4,4,4,4,4,4,4,4,4,4,4,4,4,4,4,4,4,4,4,4,4,4,4,4,4,4,100,,,,,,,,,,,,,,,,,,,,,,,,,,,,,,,,,,,,,,,,,,,,,,,,,,,,,,,,,,,,,,,,,,,,,,,,,,,,,,,,,,,,,,,,,,,,,,,,,,,,,,,,,,,,,,,,,,,,,,,,,,,,,,,,,,,,,,,,,,,,,,,,,,,,,,,,,,,,,,,,,,,,,,,,,,,,,,,,,,,,,,,,,,,,,,,,,,,,,,,,,,,,,,
1764665422.438216,27464,0,4358.077148,4384.487305,4491.538574,4514.358887,4381.794922,4493.077148,4509.487305,4377.692383,4567.05127,4379.358887,4493.589844,4492.436035,4553.205078,4381.025879,4365,4495.769043,4523.333496,4519.487305,4485.256348,4374.487305,4374.743652,4542.94873,4495.641113,4486.410156,4378.333496,4566.922852,4379.102539,4541.922852,4490.897461,4384.615234,4520.384766,4491.794922,2867,1,24,1024,36855,,,,0,4,4,4,4,4,4,4,4,4,4,4,4,4,4,4,4,4,4,4,4,4,4,4,4,4,4,4,4,4,4,4,4,100,,,,,,,,,,,,,,,,,,,,,,,,,,,,,,,,,,,,,,,,,,,,,,,,,,,,,,,,,,,,,,,,,,,,,,,,,,,,,,,,,,,,,,,,,,,,,,,,,,,,,,,,,,,,,,,,,,,,,,,,,,,,,,,,,,,,,,,,,,,,,,,,,,,,,,,,,,,,,,,,,,,,,,,,,,,,,,,,,,,,,,,,,,,,,,,,,,,,,,,,,,,,,,
1764665422.442123,27465,0,4366.666504,4394.615234,4503.589844,4526.410156,4393.846191,4503.205078,4520.128418,4390.641113,4574.230957,4390,4498.077148,4502.563965,4560,4385,4371.666504,4501.922852,4528.077148,4521.410156,4486.282227,4378.333496,4380.641113,4547.179688,4500.897461,4495.128418,4390.769043,4573.589844,4389.102539,4550.897461,4498.717773,4394.102539,4529.871582,4501.666504,2723,1,24,1024,36855,,,,0,4,4,4,4,4,4,4,4,4,4,4,4,4,4,4,4,4,4,4,4,4,4,4,4,4,4,4,4,4,4,4,4,100,,,,,,,,,,,,,,,,,,,,,,,,,,,,,,,,,,,39634,0,0.019124,-0.69342,-0.720215,-0.009644,1.001587,0.036137,0.032719,19.166666,0.333333,55,,,,,,,,,,,,,,,,,,,,,,,,,,,,,,,,,,,,,,,,,,,,,,,,,,,,,,,,,,,,,,,,,,,,,,,,,,,,,,,,,,,,,,,,,,,,,,,,,,,,,,,,,,,,,,,,,,,,,,,,,,,,,,,,,,,,,,,,,,,,,,,,,,,,,,,,,,,,,,,,
1764665422.446029,27466,0,4377.179688,4405.384766,4516.025879,4537.563965,4406.410156,4514.743652,4532.820313,4403.205078,4580.256348,4403.205078,4505,4514.230957,4567.692383,4390.256348,4380,4507.94873,4536.282227,4526.794922,4490.128418,4383.717773,4388.846191,4553.717773,4508.846191,4502.307617,4404.358887,4580.256348,4398.333496,4560.769043,4506.666504,4403.205078,4537.94873,4512.94873,1874,1,24,1280,36862,,,,0,4,4,4,4,4,4,4,4,4,4,4,4,4,4,4,4,4,4,4,4,4,4,4,4,4,4,4,4,4,4,4,4,100,,,,,,,,,,,,,,,,,,,,,,,,,,,,,,,,,,,,,,,,,,,,,,,,,,,,,,,,,,,,,,,,,,,,,,,,,,,,,,,,,,,,,,,,,,,,,,,,,,,,,,,,,,,,,,,,,,,,,,,,,,,,,,,,,,,,,,,,,,,,,,,,,,,,,,,,,,,,,,,,,,,,,,,,,,,,,,,,,,,,,,,,,,,,,,,,,,,,,,,,,,,,,,
1764665422.449936,27467,0,4385.897461,4414.230957,4526.410156,4544.743652,4415.384766,4523.333496,4543.077148,4410,4585,4414.871582,4510.897461,4523.205078,4573.077148,4393.974121,4387.436035,4511.666504,4545.512695,4535,4495.769043,4390.384766,4396.153809,4561.666504,4517.692383,4507.05127,4413.589844,4586.410156,4405.128418,4568.717773,4512.692383,4410.512695,4544.358887,4523.333496,2694,1,24,1280,36862,,,,0,4,4,4,4,4,4,4,4,4,4,4,4,4,4,4,4,4,4,4,4,4,4,4,4,4,4,4,4,4,4,4,4,100,,,,,,,,,,,,,,,,,,,,,,,,,,,,,,,,,,,,,,,,,,,,,,,,,,,,,,,,,,,,,,,,,,,,,,,,,,,,,,,,,,,,,,,,,,,,,,,,,,,,,,,,,,,,,,,,,,,,,,,,,,,,,,,,,,,,,,,,,,,,,,,,,,,,,,,,,,,,,,,,,,,,,,,,,,,,,,,,,,,,,,,,,,,,,,,,,,,,,,,,,,,,,,
1764665422.453842,27468,0,4390,4418.974121,4531.794922,4547.436035,4418.974121,4525.897461,4547.820313,4409.487305,4588.589844,4420.256348,4512.179688,4526.282227,4574.230957,4393.974121,4391.282227,4511.922852,4552.692383,4542.436035,4501.538574,4396.282227,4399.743652,4569.102539,4524.871582,4509.230957,4415.769043,4591.538574,4408.717773,4572.563965,4515.128418,4415,4548.846191,4528.974121,2482,1,24,1536,36870,,,,0,4,4,4,4,4,4,4,4,4,4,4,4,4,4,4,4,4,4,4,4,4,4,4,4,4,4,4,4,4,4,4,4,100,,,,,,,,,,,,,,,,,,,,,,,,,,,,,,,,,,,,,,,,,,,,,,,,,,,,,,,,,,,,,,,,,,,,,,,,,,,,,,,,,,,,,,,,,,,,,,,,,,,,,,,,,,,,,,,,,,,,,,,,,,,,,,,,,,,,,,,,,,,,,,,,,,,,,,,,,,,,,,,,,,,,,,,,,,,,,,,,,,,,,,,,,,,,,,,,,,,,,,,,,,,,,,
1764665422.457748,27469,0,4388.333496,4417.436035,4529.871582,4546.025879,4416.025879,4521.410156,4546.282227,4403.205078,4589.358887,4415.256348,4506.922852,4522.05127,4570.256348,4389.871582,4389.871582,4508.589844,4554.358887,4543.974121,4504.102539,4397.94873,4397.820313,4571.794922,4526.666504,4508.461426,4410.641113,4593.589844,4408.205078,4570.641113,4512.820313,4415.256348,4549.743652,4526.538574,2204,1,24,1536,36870,,,,0,4,4,4,4,4,4,4,4,4,4,4,4,4,4,4,4,4,4,4,4,4,4,4,4,4,4,4,4,4,4,4,4,100,,,,,,,,,,,,,,,,,,,,,,,,,,,,,,,,,,,39635,0,0.019124,-0.69342,-0.720215,-0.009644,1.001587,0.036137,0.032719,19,0.166667,52.166668,,,,,,,,,,,,,,,,,,,,,,,,,,,,,,,,,,,,,,,,,,,,,,,,,,,,,,,,,,,,,,,,,,,,,,,,,,,,,,,,,,,,,,,,,,,,,,,,,,,,,,,,,,,,,,,,,,,,,,,,,,,,,,,,,,,,,,,,,,,,,,,,,,,,,,,,,,,,,,,,
1764665422.461655,27470,0,4380.897461,4408.333496,4520,4540.641113,4406.794922,4511.025879,4539.358887,4393.846191,4584.743652,4399.230957,4495.897461,4512.05127,4561.410156,4382.692383,4382.563965,4501.666504,4547.692383,4536.025879,4500.641113,4392.307617,4390.128418,4566.666504,4520,4503.461426,4400.384766,4589.615234,4402.179688,4562.692383,4506.025879,4409.615234,4544.230957,4515.769043,2706,1,24,1792,36878,,,,0,4,4,4,4,4,4,4,4,4,4,4,4,4,4,4,4,4,4,4,4,4,4,4,4,4,4,4,4,4,4,4,4,100,,,,,,,,,,,,,,,,,,,,,,,,,,,,,,,,,,,,,,,,,,,,,,,,,,,,,,,,,,,,,,,,,,,,,,,,,,,,,,,,,,,,,,,,,,,,,,,,,,,,,,,,,,,,,,,,,,,,,,,,,,,,,,,,,,,,,,,,,,,,,,,,,,,,,,,,,,,,,,,,,,,,,,,,,,,,,,,,,,,,,,,,,,,,,,,,,,,,,,,,,,,,,,
1764665422.465561,27471,0,4369.102539,4393.077148,4504.743652,4531.794922,4392.692383,4497.820313,4528.589844,4383.333496,4573.333496,4377.179688,4482.436035,4500,4549.487305,4375,4371.282227,4491.922852,4534.102539,4520.641113,4491.666504,4380.512695,4379.358887,4553.974121,4505.384766,4493.717773,4388.205078,4578.077148,4390.256348,4550.256348,4496.410156,4398.461426,4531.666504,4500,2485,1,24,1792,36878,,,,0,4,4,4,4,4,4,4,4,4,4,4,4,4,4,4,4,4,4,4,4,4,4,4,4,4,4,4,4,4,4,4,4,100,,,,,,,,,,,,,,,,,,,,,,,,,,,,,,,,,,,,,,,,,,,,,,,,,,,,,,,,,,,,,,,,,,,,,,,,,,,,,,,,,,,,,,,,,,,,,,,,,,,,,,,,,,,,,,,,,,,,,,,,,,,,,,,,,,,,,,,,,,,,,,,,,,,,,,,,,,,,,,,,,,,,,,,,,,,,,,,,,,,,,,,,,,,,,,,,,,,,,,,,,,,,,,
1764665422.469468,27472,0,4357.179688,4377.179688,4489.615234,4522.179688,4378.461426,4486.794922,4517.436035,4374.871582,4559.487305,4359.487305,4472.436035,4490.256348,4539.102539,4370.256348,4361.410156,4482.94873,4519.743652,4505.641113,4482.436035,4368.205078,4370.512695,4539.871582,4489.102539,4482.179688,4379.230957,4562.563965,4375.897461,4538.205078,4488.205078,4385.641113,4516.538574,4485.641113,2857,1,24,2048,36886,,,,0,4,4,4,4,4,4,4,4,4,4,4,4,4,4,4,4,4,4,4,4,4,4,4,4,4,4,4,4,4,4,4,4,100,,,,,,,,,,,,,,,,,,,,,,,,,,,,,,,,,,,,,,,,,,,,,,,,,,,,,,,,,,,,,,,,,,,,,,,,,,,,,,,,,,,,,,,,,,,,,,,,,,,,,,,,,,,,,,,,,,,,,,,,,,,,,,,,,,,,,,,,,,,,,,,,,,,,,,,,,,,,,,,,,,,,,,,,,,,,,,,,,,,,,,,,,,,,,,,,,,,,,,,,,,,,,,
1764665422.473374,27473,0,4351.410156,4368.589844,4481.794922,4517.05127,4371.282227,4483.205078,4511.410156,4372.563965,4551.282227,4356.666504,4472.179688,4487.692383,4536.025879,4371.794922,4359.743652,4480,4512.94873,4500.512695,4479.743652,4363.461426,4369.743652,4533.846191,4480.769043,4475.384766,4378.461426,4550.897461,4366.282227,4532.563965,4485.641113,4377.820313,4507.05127,4479.615234,2909,1,24,2048,36886,,,,0,4,4,4,4,4,4,4,4,4,4,4,4,4,4,4,4,4,4,4,4,4,4,4,4,4,4,4,4,4,4,4,4,100,,,,,,,,,,,,,,,,,,,,,,,,,,,,,,,,,,,39636,0,0.019093,-0.69342,-0.720215,-0.009705,1.008424,0.029789,0.042974,19.666666,0.5,54.666668,,,,,,,,,,,,,,,,,,,,,,,,,,,,,,,,,,,,,,,,,,,,,,,,,,,,,,,,,,,,,,,,,,,,,,,,,,,,,,,,,,,,,,,,,,,,,,,,,,,,,,,,,,,,,,,,,,,,,,,,,,,,,,,,,,,,,,,,,,,,,,,,,,,,,,,,,,,,,,,,
1764665422.477281,27474,0,4356.282227,4372.820313,4485.128418,4520.641113,4375.641113,4489.743652,4514.102539,4379.487305,4556.153809,4371.922852,4483.077148,4493.333496,4543.077148,4379.871582,4369.743652,4485.384766,4518.461426,4509.487305,4486.282227,4370.769043,4379.230957,4541.025879,4485.769043,4478.717773,4387.307617,4549.743652,4367.179688,4536.666504,4490,4380,4508.974121,4484.615234,1760,1,24,2304,36894,,,,0,4,4,4,4,4,4,4,4,4,4,4,4,4,4,4,4,4,4,4,4,4,4,4,4,4,4,4,4,4,4,4,4,100,,,,,,,,,,,,,,,,,,,,,,,,,,,,,,,,,,,,,,,,,,,,,,,,,,,,,,,,,,,,,,,,,,,,,,,,,,,,,,,,,,,,,,,,,,,,,,,,,,,,,,,,,,,,,,,,,,,,,,,,,,,,,,,,,,,,,,,,,,,,,,,,,,,,,,,,,,,,,,,,,,,,,,,,,,,,,,,,,,,,,,,,,,,,,,,,,,,,,,,,,,,,,,
1764665422.481187,27475,0,4368.974121,4386.666504,4497.05127,4532.307617,4388.974121,4502.94873,4524.487305,4393.077148,4572.436035,4396.538574,4499.102539,4503.461426,4556.153809,4390.897461,4386.666504,4495.769043,4533.717773,4527.307617,4498.461426,4386.025879,4394.102539,4557.820313,4500.384766,4490.769043,4400.256348,4558.461426,4377.05127,4547.563965,4498.333496,4391.025879,4520.897461,4496.666504,2929,1,24,2304,36894,,,,0,4,4,4,4,4,4,4,4,4,4,4,4,4,4,4,4,4,4,4,4,4,4,4,4,4,4,4,4,4,4,4,4,100,,,,,,,,,,,,,,,,,,,,,,,,,,,,,,,,,,,,,,,,,,,,,,,,,,,,,,,,,,,,,,,,,,,,,,,,,,,,,,,,,,,,,,,,,,,,,,,,,,,,,,,,,,,,,,,,,,,,,,,,,,,,,,,,,,,,,,,,,,,,,,,,,,,,,,,,,,,,,,,,,,,,,,,,,,,,,,,,,,,,,,,,,,,,,,,,,,,,,,,,,,,,,,
1764665422.485094,27476,0,4380.769043,4400.897461,4509.358887,4544.871582,4402.307617,4515.128418,4536.025879,4404.743652,4590.641113,4415.384766,4510.256348,4511.153809,4567.05127,4399.230957,4400.641113,4503.974121,4548.974121,4542.94873,4508.717773,4399.743652,4405.769043,4573.333496,4514.102539,4503.077148,4408.846191,4569.358887,4388.077148,4557.692383,4505,4402.820313,4533.974121,4507.307617,2525,1,24,1280,36901,,,,0,4,4,4,4,4,4,4,4,4,4,4,4,4,4,4,4,4,4,4,4,4,4,4,4,4,4,4,4,4,4,4,4,100,,,,,,,,,,,,,,,,,,,,,,,,,,,,,,,,,,,,,,,,,,,,,,,,,,,,,,,,,,,,,,,,,,,,,,,,,,,,,,,,,,,,,,,,,,,,,,,,,,,,,,,,,,,,,,,,,,,,,,,,,,,,,,,,,,,,,,,,,,,,,,,,,,,,,,,,,,,,,,,,,,,,,,,,,,,,,,,,,,,,,,,,,,,,,,,,,,,,,,,,,,,,,,
1764665422.489000,27477,0,4384.230957,4406.794922,4514.615234,4549.871582,4407.05127,4519.487305,4541.922852,4407.563965,4600,4417.820313,4510.641113,4512.436035,4569.743652,4401.410156,4403.333496,4504.871582,4555.256348,4548.205078,4511.666504,4403.333496,4408.717773,4578.717773,4518.717773,4508.077148,4407.94873,4574.102539,4392.307617,4560.512695,4506.538574,4407.563965,4539.487305,4510.641113,2812,1,24,1280,36901,,,,0,4,4,4,4,4,4,4,4,4,4,4,4,4,4,4,4,4,4,4,4,4,4,4,4,4,4,4,4,4,4,4,4,100,,,,,,,,,,,,,,,,,,,,,,,,,,,,,,,,,,,39637,0,0.019209,-0.693481,-0.720154,-0.009644,0.99768,0.035649,0.035649,19.666666,0.5,54.666668,,,,,,,,,,,,,,,,,,,,,,,,,,,,,,,,,,,,,,,,,,,,,,,,,,,,,,,,,,,,,,,,,,,,,,,,,,,,,,,,,,,,,,,,,,,,,,,,,,,,,,,,,,,,,,,,,,,,,,,,,,,,,,,,,,,,,,,,,,,,,,,,,,,,,,,,,,,,,,,,
1764665422.492907,27478,0,4379.230957,4403.333496,4511.410156,4544.487305,4402.179688,4515.897461,4539.871582,4400.897461,4596.538574,4406.282227,4502.563965,4509.743652,4565.512695,4399.102539,4395.384766,4499.487305,4550.641113,4543.974121,4508.461426,4397.179688,4405.128418,4574.743652,4514.487305,4505,4399.871582,4570.897461,4388.589844,4556.282227,4503.461426,4403.461426,4535.128418,4507.05127,2907,1,24,256,36909,,,,0,4,4,4,4,4,4,4,4,4,4,4,4,4,4,4,4,4,4,4,4,4,4,4,4,4,4,4,4,4,4,4,4,100,,,,,,,,,,,,,,,,,,,,,,,,,,,,,,,,,,,,,,,,,,,,,,,,,,,,,,,,,,,,,,,,,,,,,,,,,,,,,,,,,,,,,,,,,,,,,,,,,,,,,,,,,,,,,,,,,,,,,,,,,,,,,,,,,,,,,,,,,,,,,,,,,,,,,,,,,,,,,,,,,,,,,,,,,,,,,,,,,,,,,,,,,,,,,,,,,,,,,,,,,,,,,,
1764665422.496813,27479,0,4371.922852,4396.025879,4504.487305,4533.205078,4394.487305,4509.230957,4533.846191,4390.641113,4585.384766,4392.94873,4493.974121,4507.94873,4560.256348,4396.538574,4384.743652,4494.230957,4541.410156,4537.692383,4504.615234,4388.974121,4401.538574,4568.974121,4507.94873,4499.871582,4391.410156,4564.615234,4382.179688,4551.025879,4499.615234,4395.384766,4526.025879,4501.410156,2827,1,24,256,36909,,,,0,4,4,4,4,4,4,4,4,4,4,4,4,4,4,4,4,4,4,4,4,4,4,4,4,4,4,4,4,4,4,4,4,100,,,,,,,,,,,,,,,,,,,,,,,,,,,,,,,,,,,,,,,,,,,,,,,,,,,,,,,,,,,,,,,,,,,,,,,,,,,,,,,,,,,,,,,,,,,,,,,,,,,,,,,,,,,,,,,,,,,,,,,,,,,,,,,,,,,,,,,,,,,,,,,,,,,,,,,,,,,,,,,,,,,,,,,,,,,,,,,,,,,,,,,,,,,,,,,,,,,,,,,,,,,,,,
1764665422.500720,27480,0,4369.102539,4391.538574,4499.871582,4523.077148,4390.512695,4504.615234,4530.128418,4383.589844,4575.128418,4388.077148,4490.512695,4509.871582,4559.487305,4397.05127,4380,4494.615234,4535.769043,4535.769043,4504.487305,4385.641113,4402.05127,4567.436035,4505,4498.333496,4388.589844,4561.922852,4378.717773,4550.256348,4498.205078,4390,4519.615234,4498.974121,2743,1,24,256,36917,,,,0,4,4,4,4,4,4,4,4,4,4,4,4,4,4,4,4,4,4,4,4,4,4,4,4,4,4,4,4,4,4,4,4,100,,,,,,,,,,,,,,,,,,,,,,,,,,,,,,,,,,,,,,,,,,,,,,,,,,,,,,,,,,,,,,,,,,,,,,,,,,,,,,,,,,,,,,,,,,,,,,,,,,,,,,,,,,,,,,,,,,,,,,,,,,,,,,,,,,,,,,,,,,,,,,,,,,,,,,,,,,,,,,,,,,,,,,,,,,,,,,,,,,,,,,,,,,,,,,,,,,,,,,,,,,,,,,
1764665422.504626,27481,0,4371.666504,4392.05127,4499.487305,4518.589844,4392.05127,4503.846191,4531.538574,4382.436035,4571.025879,4392.563965,4492.05127,4513.077148,4563.205078,4400.384766,4383.461426,4500.256348,4536.666504,4538.846191,4507.179688,4387.05127,4404.743652,4569.743652,4506.538574,4500.384766,4392.307617,4564.487305,4380.128418,4553.717773,4499.358887,4389.743652,4519.230957,4501.025879,2810,1,24,256,36917,,,,0,4,4,4,4,4,4,4,4,4,4,4,4,4,4,4,4,4,4,4,4,4,4,4,4,4,4,4,4,4,4,4,4,100,,,,,,,,,,,,,,,,,,,,,,,,,,,,,,,,,,,39638,0,0.019178,-0.693481,-0.720154,-0.009705,0.998169,0.031742,0.036626,19.333334,0.5,54.666668,,,,,,,,,,,,,,,,,,,,,,,,,,,,,,,,,,,,,,,,,,,,,,,,,,,,,,,,,,,,,,,,,,,,,,,,,,,,,,,,,,,,,,,,,,,,,,,,,,,,,,,,,,,,,,,,,,,,,,,,,,,,,,,,,,,,,,,,,,,,,,,,,,,,,,,,,,,,,,,,
1764665422.508432,27482,0,4375.256348,4395.128418,4501.410156,4518.717773,4395.256348,4505.256348,4535,4384.871582,4572.307617,4398.974121,4493.717773,4513.589844,4567.307617,4403.205078,4390,4506.025879,4540.256348,4541.794922,4507.94873,4388.205078,4404.102539,4570.512695,4508.846191,4501.794922,4398.589844,4568.974121,4383.846191,4556.666504,4501.282227,4391.922852,4522.307617,4504.487305,1926,1,24,512,36925,,,,0,4,4,4,4,4,4,4,4,4,4,4,4,4,4,4,4,4,4,4,4,4,4,4,4,4,4,4,4,4,4,4,4,100,,,,,,,,,,,,,,,,,,,,,,,,,,,,,,,,,,,,,,,,,,,,,,,1.196392,14.69497,1.448484,1.464818,1.186164,2.28572,13.97625,1.531231,2.002448,1.497831,2.729927,9.829997,1.493778,2.110333,1.558781,1.502926,6.704935,1.14819,1.570167,1.525985,2.503117,10.292423,1.384605,1.508889,1.479726,1.355718,13.026547,1.359591,1.361085,1.175302,1.578801,11.086817,1.281994,1.660725,1.300356,1.688532,7.995185,1.083549,1.121166,1.530138,1.084559,3.293116,0.70694,1.748924,1.653713,1.134785,5.053108,1.372681,2.048006,1.934879,1.104255,3.864471,0.308557,0.801057,0.960661,1.61525,14.135281,1.499789,1.281388,1.268356,0.984218,7.890058,1.09129,1.090254,1.037154,0.319589,0.808135,0.326399,0.721528,0.864185,0.568104,1.796076,0.528426,1.505649,1.217287,0.297888,2.173571,0.913141,0.958239,0.747416,2.257503,19.332293,2.558406,2.139499,1.50046,0.993148,3.78917,1.715195,1.957636,1.666357,0.814481,3.143836,1.17406,1.152364,1.061734,0.972221,5.981425,0.681314,1.538685,1.105096,1.722527,6.305133,1.161502,1.84589,1.349906,2.275335,8.925838,2.361791,2.059498,1.294568,1.634818,12.110333,1.640892,1.504376,1.307308,1.919987,4.255497,1.721577,1.984863,1.432295,1.58909,2.915146,2.171442,2.664455,2.260021,2.02604,3.051514,1.503097,1.417289,1.000411,2.362626,9.157804,1.693524,2.173968,1.518846,2.018109,11.227431,1.437181,2.222357,1.331728,0.906419,7.679891,0.560466,1.12989,0.730183,2.5785,10.773207,1.325627,1.862221,1.326076,1.769741,7.130083,1.884646,2.250595,1.402254,2.351901,8.797202,1.487164,1.802786,1.474975
1764665422.512338,27483,0,4374.743652,4395.512695,4501.025879,4518.974121,4394.871582,4505.769043,4535.256348,4386.282227,4573.717773,4399.743652,4491.794922,4508.589844,4567.307617,4401.922852,4391.794922,4506.538574,4540.897461,4540,4504.230957,4383.846191,4396.922852,4565.128418,4507.563965,4498.077148,4400.897461,4570,4385.128418,4554.615234,4501.922852,4391.538574,4522.820313,4505.128418,2618,1,24,512,36925,,,,0,4,4,4,4,4,4,4,4,4,4,4,4,4,4,4,4,4,4,4,4,4,4,4,4,4,4,4,4,4,4,4,4,100,,,,,,,,,,,,,,,,,,,,,,,,,,,,,,,,,,,,,,,,,,,,,,,,,,,,,,,,,,,,,,,,,,,,,,,,,,,,,,,,,,,,,,,,,,,,,,,,,,,,,,,,,,,,,,,,,,,,,,,,,,,,,,,,,,,,,,,,,,,,,,,,,,,,,,,,,,,,,,,,,,,,,,,,,,,,,,,,,,,,,,,,,,,,,,,,,,,,,,,,,,,,,,
1764665422.516244,27484,0,4368.589844,4390.641113,4496.153809,4516.538574,4388.717773,4502.692383,4529.615234,4383.589844,4571.025879,4393.333496,4486.538574,4499.743652,4561.410156,4395.897461,4385.256348,4500.512695,4536.025879,4532.179688,4496.922852,4374.358887,4384.615234,4554.487305,4501.666504,4489.358887,4394.487305,4564.487305,4381.538574,4546.922852,4499.871582,4386.666504,4517.307617,4500,2679,1,24,256,36933,,,,0,4,4,4,4,4,4,4,4,4,4,4,4,4,4,4,4,4,4,4,4,4,4,4,4,4,4,4,4,4,4,4,4,100,,,,,,,,,,,,,,,,,,,,,,,,,,,,,,,,,,,,,,,,,,,,,,,,,,,,,,,,,,,,,,,,,,,,,,,,,,,,,,,,,,,,,,,,,,,,,,,,,,,,,,,,,,,,,,,,,,,,,,,,,,,,,,,,,,,,,,,,,,,,,,,,,,,,,,,,,,,,,,,,,,,,,,,,,,,,,,,,,,,,,,,,,,,,,,,,,,,,,,,,,,,,,,
1764665422.520150,27485,0,4360.512695,4382.820313,4488.717773,4512.179688,4379.871582,4497.05127,4521.025879,4377.563965,4564.487305,4384.743652,4481.538574,4491.538574,4552.179688,4387.563965,4373.333496,4491.538574,4527.820313,4522.436035,4490.384766,4364.230957,4372.692383,4543.589844,4494.358887,4479.615234,4381.153809,4555.384766,4374.871582,4537.563965,4496.282227,4380.128418,4508.333496,4491.282227,2516,1,24,256,36933,,,,0,4,4,4,4,4,4,4,4,4,4,4,4,4,4,4,4,4,4,4,4,4,4,4,4,4,4,4,4,4,4,4,4,100,,,,,,,,,,,,,,,,,,,,,,,,,,,,,,,,,,,39639,0,0.019178,-0.693481,-0.720154,-0.009705,0.998657,0.03223,0.039067,19.666666,0.5,54.666668,,,,,,,,,,,,,,,,,,,,,,,,,,,,,,,,,,,,,,,,,,,,,,,,,,,,,,,,,,,,,,,,,,,,,,,,,,,,,,,,,,,,,,,,,,,,,,,,,,,,,,,,,,,,,,,,,,,,,,,,,,,,,,,,,,,,,,,,,,,,,,,,,,,,,,,,,,,,,,,,
1764665422.524055,27486,0,4356.538574,4378.461426,4483.846191,4510.384766,4375.128418,4492.820313,4515.512695,4373.077148,4559.230957,4380.641113,4480.384766,4489.230957,4545.512695,4380.897461,4363.461426,4485,4521.666504,4516.025879,4488.205078,4359.487305,4367.05127,4538.717773,4491.025879,4474.743652,4368.717773,4549.615234,4370.769043,4533.205078,4493.589844,4377.820313,4502.94873,4485.128418,2645,1,24,256,36941,,,,0,4,4,4,4,4,4,4,4,4,4,4,4,4,4,4,4,4,4,4,4,4,4,4,4,4,4,4,4,4,4,4,4,100,,,,,,,,,,,,,,,,,,,,,,,,,,,,,,,,,,,,,,,,,,,,,,,,,,,,,,,,,,,,,,,,,,,,,,,,,,,,,,,,,,,,,,,,,,,,,,,,,,,,,,,,,,,,,,,,,,,,,,,,,,,,,,,,,,,,,,,,,,,,,,,,,,,,,,,,,,,,,,,,,,,,,,,,,,,,,,,,,,,,,,,,,,,,,,,,,,,,,,,,,,,,,,
1764665422.527961,27487,0,4360.512695,4382.820313,4486.153809,4514.871582,4379.487305,4494.358887,4517.692383,4374.743652,4560.512695,4383.589844,4484.487305,4494.871582,4546.025879,4379.358887,4361.666504,4485,4522.179688,4515.769043,4490.769043,4362.820313,4369.102539,4542.307617,4494.743652,4478.077148,4366.153809,4553.077148,4374.230957,4538.205078,4494.743652,4384.230957,4507.820313,4487.692383,2808,1,24,256,36941,,,,0,4,4,4,4,4,4,4,4,4,4,4,4,4,4,4,4,4,4,4,4,4,4,4,4,4,4,4,4,4,4,4,4,100,,,,,,,,,,,,,,,,,,,,,,,,,,,,,,,,,,,,,,,,,,,,,,,,,,,,,,,,,,,,,,,,,,,,,,,,,,,,,,,,,,,,,,,,,,,,,,,,,,,,,,,,,,,,,,,,,,,,,,,,,,,,,,,,,,,,,,,,,,,,,,,,,,,,,,,,,,,,,,,,,,,,,,,,,,,,,,,,,,,,,,,,,,,,,,,,,,,,,,,,,,,,,,
1764665422.531768,27488,0,4371.410156,4395.512695,4496.410156,4525.512695,4392.307617,4503.205078,4527.436035,4383.077148,4568.974121,4391.282227,4492.692383,4506.282227,4554.102539,4383.333496,4369.102539,4491.410156,4530.256348,4520.641113,4495.256348,4371.922852,4376.025879,4551.410156,4504.230957,4487.563965,4376.794922,4565.897461,4385.641113,4551.666504,4500.512695,4398.077148,4522.692383,4499.871582,2744,1,24,512,36948,,,,0,4,4,4,4,4,4,4,4,4,4,4,4,4,4,4,4,4,4,4,4,4,4,4,4,4,4,4,4,4,4,4,4,100,,,,,,,,,,,,,,,,,,,,,,,,,,,,,,,,,,,,,,,,,,,,,,,,,,,,,,,,,,,,,,,,,,,,,,,,,,,,,,,,,,,,,,,,,,,,,,,,,,,,,,,,,,,,,,,,,,,,,,,,,,,,,,,,,,,,,,,,,,,,,,,,,,,,,,,,,,,,,,,,,,,,,,,,,,,,,,,,,,,,,,,,,,,,,,,,,,,,,,,,,,,,,,
1764665422.535674,27489,0,4383.589844,4410.641113,4510.384766,4538.461426,4407.307617,4516.025879,4540.512695,4393.974121,4580.641113,4399.102539,4501.666504,4518.205078,4565.641113,4390.897461,4380.897461,4500.769043,4542.436035,4527.179688,4497.692383,4380.641113,4382.179688,4559.743652,4514.615234,4497.692383,4396.282227,4581.922852,4400.256348,4566.794922,4509.230957,4413.077148,4540.384766,4516.538574,2906,1,24,512,36948,,,,0,4,4,4,4,4,4,4,4,4,4,4,4,4,4,4,4,4,4,4,4,4,4,4,4,4,4,4,4,4,4,4,4,100,,,,,,,,,,,,,,,,,,,,,,,,,,,,,,,,,,,39640,0,0.019239,-0.693481,-0.720154,-0.009583,0.994262,0.0293,0.055671,18.5,0.833333,54.333332,,,,,,,,,,,,,,,,,,,,,,,,,,,,,,,,,,,,,,,,,,,,,,,,,,,,,,,,,,,,,,,,,,,,,,,,,,,,,,,,,,,,,,,,,,,,,,,,,,,,,,,,,,,,,,,,,,,,,,,,,,,,,,,,,,,,,,,,,,,,,,,,,,,,,,,,,,,,,,,,
1764665422.539581,27490,0,4391.153809,4420.384766,4521.282227,4548.205078,4417.563965,4526.282227,4550.769043,4401.922852,4589.230957,4403.589844,4507.94873,4525.769043,4574.615234,4398.077148,4390.384766,4507.436035,4551.922852,4531.153809,4495.641113,4383.205078,4382.307617,4562.05127,4520.641113,4502.692383,4414.230957,4592.94873,4410.512695,4576.282227,4516.666504,4421.410156,4551.410156,4529.230957,2575,1,24,768,36956,,,,0,4,4,4,4,4,4,4,4,4,4,4,4,4,4,4,4,4,4,4,4,4,4,4,4,4,4,4,4,4,4,4,4,100,,,,,,,,,,,,,,,,,,,,,,,,,,,,,,,,,,,,,,,,,,,,,,,,,,,,,,,,,,,,,,,,,,,,,,,,,,,,,,,,,,,,,,,,,,,,,,,,,,,,,,,,,,,,,,,,,,,,,,,,,,,,,,,,,,,,,,,,,,,,,,,,,,,,,,,,,,,,,,,,,,,,,,,,,,,,,,,,,,,,,,,,,,,,,,,,,,,,,,,,,,,,,,
1764665422.543487,27491,0,4389.743652,4419.230957,4522.94873,4549.743652,4418.461426,4527.563965,4552.692383,4402.820313,4589.743652,4402.307617,4508.846191,4526.025879,4575.897461,4400.512695,4392.05127,4507.307617,4552.692383,4529.487305,4489.102539,4377.05127,4375.256348,4556.538574,4519.102539,4499.871582,4420,4593.205078,4409.743652,4575,4518.589844,4417.820313,4549.487305,4530.769043,2841,1,24,768,36956,,,,0,4,4,4,4,4,4,4,4,4,4,4,4,4,4,4,4,4,4,4,4,4,4,4,4,4,4,4,4,4,4,4,4,100,,,,,,,,,,,,,,,,,,,,,,,,,,,,,,,,,,,,,,,,,,,,,,,,,,,,,,,,,,,,,,,,,,,,,,,,,,,,,,,,,,,,,,,,,,,,,,,,,,,,,,,,,,,,,,,,,,,,,,,,,,,,,,,,,,,,,,,,,,,,,,,,,,,,,,,,,,,,,,,,,,,,,,,,,,,,,,,,,,,,,,,,,,,,,,,,,,,,,,,,,,,,,,
1764665422.547394,27492,0,4378.717773,4406.538574,4512.820313,4541.538574,4408.846191,4517.692383,4544.230957,4395.512695,4580.897461,4395.256348,4503.333496,4517.563965,4567.820313,4395.256348,4383.717773,4499.358887,4542.179688,4520.769043,4479.871582,4364.743652,4363.205078,4545.512695,4510.128418,4490.256348,4408.974121,4582.307617,4396.282227,4562.820313,4512.436035,4402.94873,4535.641113,4518.846191,2735,1,24,1024,36964,,,,0,4,4,4,4,4,4,4,4,4,4,4,4,4,4,4,4,4,4,4,4,4,4,4,4,4,4,4,4,4,4,4,4,100,,,,,,,,,,,,,,,,,,,,,,,,,,,,,,,,,,,,,,,,,,,,,,,,,,,,,,,,,,,,,,,,,,,,,,,,,,,,,,,,,,,,,,,,,,,,,,,,,,,,,,,,,,,,,,,,,,,,,,,,,,,,,,,,,,,,,,,,,,,,,,,,,,,,,,,,,,,,,,,,,,,,,,,,,,,,,,,,,,,,,,,,,,,,,,,,,,,,,,,,,,,,,,
1764665422.551300,27493,0,4361.794922,4387.563965,4494.743652,4526.666504,4392.179688,4500.256348,4528.333496,4382.563965,4566.025879,4384.358887,4493.205078,4502.692383,4553.077148,4384.487305,4368.846191,4486.794922,4524.230957,4507.563965,4471.794922,4352.307617,4351.666504,4533.333496,4497.307617,4478.461426,4385.769043,4565.897461,4376.025879,4545.128418,4500,4383.205078,4516.538574,4498.974121,2769,1,24,1024,36964,,,,0,4,4,4,4,4,4,4,4,4,4,4,4,4,4,4,4,4,4,4,4,4,4,4,4,4,4,4,4,4,4,4,4,100,,,,,,,,,,,,,,,,,,,,,,,,,,,,,,,,,,,39641,0,0.016897,-0.693542,-0.720154,-0.009583,1.008424,0.035161,0.046392,19.5,0,55,,,,,,,,,,,,,,,,,,,,,,,,,,,,,,,,,,,,,,,,,,,,,,,,,,,,,,,,,,,,,,,,,,,,,,,,,,,,,,,,,,,,,,,,,,,,,,,,,,,,,,,,,,,,,,,,,,,,,,,,,,,,,,,,,,,,,,,,,,,,,,,,,,,,,,,,,,,,,,,,
1764665422.555207,27494,0,4345.769043,4371.153809,4477.307617,4512.563965,4375.384766,4484.230957,4512.692383,4370.384766,4551.666504,4374.102539,4482.820313,4486.538574,4538.077148,4373.974121,4355.769043,4476.282227,4507.05127,4496.538574,4468.846191,4346.410156,4346.794922,4526.410156,4486.794922,4470.769043,4363.333496,4552.820313,4359.487305,4530.641113,4487.692383,4367.692383,4502.05127,4481.025879,2777,1,24,1280,36972,,,,0,4,4,4,4,4,4,4,4,4,4,4,4,4,4,4,4,4,4,4,4,4,4,4,4,4,4,4,4,4,4,4,4,100,,,,,,,,,,,,,,,,,,,,,,,,,,,,,,,,,,,,,,,,,,,,,,,,,,,,,,,,,,,,,,,,,,,,,,,,,,,,,,,,,,,,,,,,,,,,,,,,,,,,,,,,,,,,,,,,,,,,,,,,,,,,,,,,,,,,,,,,,,,,,,,,,,,,,,,,,,,,,,,,,,,,,,,,,,,,,,,,,,,,,,,,,,,,,,,,,,,,,,,,,,,,,,
1764665422.559113,27495,0,4338.461426,4365.128418,4469.230957,4505.897461,4365.769043,4478.205078,4505.256348,4365.128418,4544.487305,4369.871582,4477.563965,4476.282227,4530.128418,4370.384766,4352.820313,4474.230957,4499.615234,4494.743652,4473.717773,4351.153809,4352.820313,4529.102539,4483.846191,4471.666504,4355.256348,4550.512695,4355.641113,4526.922852,4482.692383,4363.717773,4498.974121,4473.846191,2961,1,24,1280,36972,,,,0,4,4,4,4,4,4,4,4,4,4,4,4,4,4,4,4,4,4,4,4,4,4,4,4,4,4,4,4,4,4,4,4,100,,,,,,,,,,,,,,,,,,,,,,,,,,,,,,,,,,,,,,,,,,,,,,,,,,,,,,,,,,,,,,,,,,,,,,,,,,,,,,,,,,,,,,,,,,,,,,,,,,,,,,,,,,,,,,,,,,,,,,,,,,,,,,,,,,,,,,,,,,,,,,,,,,,,,,,,,,,,,,,,,,,,,,,,,,,,,,,,,,,,,,,,,,,,,,,,,,,,,,,,,,,,,,
1764665422.563020,27496,0,4343.333496,4371.538574,4473.974121,4509.358887,4367.436035,4484.743652,4509.743652,4369.230957,4547.563965,4374.102539,4479.743652,4476.922852,4533.205078,4376.025879,4362.563965,4482.05127,4505.769043,4504.871582,4485.769043,4365.512695,4369.615234,4541.666504,4489.871582,4481.794922,4366.538574,4560,4365.769043,4535.256348,4487.692383,4371.666504,4507.692383,4479.487305,2843,1,24,1536,36980,,,,0,4,4,4,4,4,4,4,4,4,4,4,4,4,4,4,4,4,4,4,4,4,4,4,4,4,4,4,4,4,4,4,4,100,,,,,,,,,,,,,,,,,,,,,,,,,,,,,,,,,,,,,,,,,,,,,,,,,,,,,,,,,,,,,,,,,,,,,,,,,,,,,,,,,,,,,,,,,,,,,,,,,,,,,,,,,,,,,,,,,,,,,,,,,,,,,,,,,,,,,,,,,,,,,,,,,,,,,,,,,,,,,,,,,,,,,,,,,,,,,,,,,,,,,,,,,,,,,,,,,,,,,,,,,,,,,,
1764665422.566926,27497,0,4357.436035,4384.102539,4487.179688,4519.230957,4377.563965,4498.205078,4523.077148,4379.743652,4558.589844,4384.102539,4487.436035,4487.307617,4544.487305,4387.436035,4379.743652,4494.615234,4521.538574,4522.94873,4500.256348,4383.846191,4391.922852,4558.461426,4500.641113,4496.666504,4389.102539,4575.256348,4382.692383,4549.743652,4498.717773,4385.256348,4521.538574,4492.307617,2700,1,24,1536,36980,,,,0,4,4,4,4,4,4,4,4,4,4,4,4,4,4,4,4,4,4,4,4,4,4,4,4,4,4,4,4,4,4,4,4,100,,,,,,,,,,,,,,,,,,,,,,,,,,,,,,,,,,,39642,0,0.019209,-0.693481,-0.720154,-0.009644,1.008424,0.035161,0.046392,19.166666,0.333333,54.166668,,,,,,,,,,,,,,,,,,,,,,,,,,,,,,,,,,,,,,,,,,,,,,,,,,,,,,,,,,,,,,,,,,,,,,,,,,,,,,,,,,,,,,,,,,,,,,,,,,,,,,,,,,,,,,,,,,,,,,,,,,,,,,,,,,,,,,,,,,,,,,,,,,,,,,,,,,,,,,,,
1764665422.570833,27498,0,4372.179688,4393.589844,4499.487305,4528.974121,4389.102539,4509.102539,4536.410156,4389.743652,4570.897461,4393.589844,4494.871582,4500.641113,4555.769043,4398.461426,4394.743652,4504.102539,4537.563965,4540.384766,4511.025879,4398.461426,4411.025879,4571.025879,4509.358887,4508.333496,4407.563965,4586.794922,4395,4561.282227,4508.205078,4395.512695,4531.410156,4502.563965,1853,1,24,1792,36987,,,,0,4,4,4,4,4,4,4,4,4,4,4,4,4,4,4,4,4,4,4,4,4,4,4,4,4,4,4,4,4,4,4,4,100,,,,,,,,,,,,,,,,,,,,,,,,,,,,,,,,,,,,,,,,,,,,,,,,,,,,,,,,,,,,,,,,,,,,,,,,,,,,,,,,,,,,,,,,,,,,,,,,,,,,,,,,,,,,,,,,,,,,,,,,,,,,,,,,,,,,,,,,,,,,,,,,,,,,,,,,,,,,,,,,,,,,,,,,,,,,,,,,,,,,,,,,,,,,,,,,,,,,,,,,,,,,,,
1764665422.574739,27499,0,4379.230957,4393.846191,4503.717773,4533.205078,4394.487305,4510.641113,4541.538574,4393.461426,4577.436035,4397.179688,4497.94873,4509.230957,4560.384766,4403.589844,4400.641113,4505.769043,4545.256348,4549.230957,4514.102539,4403.974121,4419.615234,4574.230957,4511.153809,4510.769043,4410,4588.846191,4395.897461,4563.974121,4510.256348,4396.922852,4532.436035,4503.974121,2675,1,24,1792,36987,,,,0,4,4,4,4,4,4,4,4,4,4,4,4,4,4,4,4,4,4,4,4,4,4,4,4,4,4,4,4,4,4,4,4,100,,,,,,,,,,,,,,,,,,,,,,,,,,,,,,,,,,,,,,,,,,,,,,,,,,,,,,,,,,,,,,,,,,,,,,,,,,,,,,,,,,,,,,,,,,,,,,,,,,,,,,,,,,,,,,,,,,,,,,,,,,,,,,,,,,,,,,,,,,,,,,,,,,,,,,,,,,,,,,,,,,,,,,,,,,,,,,,,,,,,,,,,,,,,,,,,,,,,,,,,,,,,,,
1764665422.578646,27500,0,4376.410156,4386.282227,4498.846191,4531.025879,4391.922852,4503.461426,4536.538574,4390.384766,4576.153809,4393.974121,4496.666504,4509.871582,4558.077148,4402.820313,4398.205078,4501.410156,4542.820313,4547.692383,4510.128418,4401.025879,4416.922852,4569.102539,4506.538574,4504.743652,4397.563965,4582.94873,4387.436035,4558.717773,4505.128418,4390.897461,4526.794922,4497.692383,2468,1,24,2048,36995,,,,0,4,4,4,4,4,4,4,4,4,4,4,4,4,4,4,4,4,4,4,4,4,4,4,4,4,4,4,4,4,4,4,4,100,,,,,,,,,,,,,,,,,,,,,,,,,,,,,,,,,,,,,,,,,,,,,,,,,,,,,,,,,,,,,,,,,,,,,,,,,,,,,,,,,,,,,,,,,,,,,,,,,,,,,,,,,,,,,,,,,,,,,,,,,,,,,,,,,,,,,,,,,,,,,,,,,,,,,,,,,,,,,,,,,,,,,,,,,,,,,,,,,,,,,,,,,,,,,,,,,,,,,,,,,,,,,,
1764665422.582552,27501,0,4368.461426,4377.94873,4490.769043,4526.025879,4385.384766,4494.230957,4526.666504,4384.871582,4570.128418,4387.94873,4495,4505.897461,4554.743652,4400,4393.846191,4497.179688,4535.769043,4541.025879,4504.487305,4394.358887,4408.717773,4562.436035,4501.153809,4497.05127,4382.307617,4575.641113,4378.589844,4551.922852,4497.94873,4383.974121,4521.025879,4490.384766,2193,1,24,2048,36995,,,,0,4,4,4,4,4,4,4,4,4,4,4,4,4,4,4,4,4,4,4,4,4,4,4,4,4,4,4,4,4,4,4,4,100,,,,,,,,,,,,,,,,,,,,,,,,,,,,,,,,,,,39643,0,0.019263,-0.693542,-0.720093,-0.009705,1.008424,0.040044,0.037602,19.333334,1.666667,54.333332,,,,,,,,,,,,,,,,,,,,,,,,,,,,,,,,,,,,,,,,,,,,,,,,,,,,,,,,,,,,,,,,,,,,,,,,,,,,,,,,,,,,,,,,,,,,,,,,,,,,,,,,,,,,,,,,,,,,,,,,,,,,,,,,,,,,,,,,,,,,,,,,,,,,,,,,,,,,,,,,
1764665422.586459,27502,0,4362.94873,4374.871582,4485.256348,4521.922852,4380.769043,4490,4519.871582,4381.794922,4564.358887,4384.487305,4496.153809,4502.820313,4555.897461,4399.358887,4392.820313,4497.05127,4532.05127,4536.538574,4502.179688,4389.487305,4402.179688,4560.897461,4499.743652,4494.743652,4376.025879,4572.05127,4376.410156,4549.487305,4493.461426,4381.538574,4519.615234,4486.666504,2692,1,24,2304,37003,,,,0,4,4,4,4,4,4,4,4,4,4,4,4,4,4,4,4,4,4,4,4,4,4,4,4,4,4,4,4,4,4,4,4,100,,,,,,,,,,,,,,,,,,,,,,,,,,,,,,,,,,,,,,,,,,,,,,,,,,,,,,,,,,,,,,,,,,,,,,,,,,,,,,,,,,,,,,,,,,,,,,,,,,,,,,,,,,,,,,,,,,,,,,,,,,,,,,,,,,,,,,,,,,,,,,,,,,,,,,,,,,,,,,,,,,,,,,,,,,,,,,,,,,,,,,,,,,,,,,,,,,,,,,,,,,,,,,
1764665422.590365,27503,0,4363.077148,4376.666504,4483.589844,4519.358887,4380.256348,4492.05127,4519.230957,4381.410156,4560.769043,4385.256348,4499.102539,4502.692383,4561.153809,4400.897461,4393.974121,4500.384766,4534.358887,4537.563965,4504.358887,4387.563965,4400,4565.128418,4502.179688,4498.205078,4380.641113,4572.179688,4379.743652,4550.512695,4492.307617,4383.077148,4521.025879,4485.641113,2473,1,24,2304,37003,,,,0,4,4,4,4,4,4,4,4,4,4,4,4,4,4,4,4,4,4,4,4,4,4,4,4,4,4,4,4,4,4,4,4,100,,,,,,,,,,,,,,,,,,,,,,,,,,,,,,,,,,,,,,,,,,,,,,,,,,,,,,,,,,,,,,,,,,,,,,,,,,,,,,,,,,,,,,,,,,,,,,,,,,,,,,,,,,,,,,,,,,,,,,,,,,,,,,,,,,,,,,,,,,,,,,,,,,,,,,,,,,,,,,,,,,,,,,,,,,,,,,,,,,,,,,,,,,,,,,,,,,,,,,,,,,,,,,
1764665422.594271,27504,0,4366.153809,4378.717773,4482.179688,4515.769043,4380.769043,4495.512695,4521.922852,4380.256348,4557.820313,4386.410156,4500,4502.692383,4565.256348,4401.410156,4392.436035,4502.692383,4538.846191,4541.025879,4507.05127,4385.256348,4398.974121,4569.615234,4504.487305,4501.538574,4387.692383,4571.282227,4381.666504,4550.128418,4491.538574,4383.589844,4519.487305,4482.820313,2844,1,24,2304,37011,,,,0,4,4,4,4,4,4,4,4,4,4,4,4,4,4,4,4,4,4,4,4,4,4,4,4,4,4,4,4,4,4,4,4,100,,,,,,,,,,,,,,,,,,,,,,,,,,,,,,,,,,,,,,,,,,,,,,,,,,,,,,,,,,,,,,,,,,,,,,,,,,,,,,,,,,,,,,,,,,,,,,,,,,,,,,,,,,,,,,,,,,,,,,,,,,,,,,,,,,,,,,,,,,,,,,,,,,,,,,,,,,,,,,,,,,,,,,,,,,,,,,,,,,,,,,,,,,,,,,,,,,,,,,,,,,,,,,
1764665422.598178,27505,0,4368.077148,4377.820313,4478.589844,4510.128418,4378.974121,4495.641113,4522.820313,4375.897461,4554.230957,4383.205078,4496.922852,4500.128418,4564.871582,4398.846191,4385.384766,4501.410156,4540.384766,4542.179688,4506.282227,4379.615234,4395.384766,4568.589844,4503.717773,4499.358887,4388.846191,4566.922852,4377.05127,4545.384766,4489.615234,4380.641113,4512.563965,4477.179688,2897,1,24,2304,37011,,,,0,4,4,4,4,4,4,4,4,4,4,4,4,4,4,4,4,4,4,4,4,4,4,4,4,4,4,4,4,4,4,4,4,100,,,,,,,,,,,,,,,,,,,,,,,,,,,,,,,,,,,39644,0,0.019384,-0.693542,-0.720093,-0.00946,0.993285,0.039556,0.039556,19.166666,1.166667,54.166668,,,,,,,,,,,,,,,,,,,,,,,,,,,,,,,,,,,,,,,,,,,,,,,,,,,,,,,,,,,,,,,,,,,,,,,,,,,,,,,,,,,,,,,,,,,,,,,,,,,,,,,,,,,,,,,,,,,,,,,,,,,,,,,,,,,,,,,,,,,,,,,,,,,,,,,,,,,,,,,,
1764665422.602084,27506,0,4368.205078,4376.153809,4475.769043,4505.641113,4376.153809,4494.230957,4521.282227,4371.282227,4552.436035,4376.282227,4493.077148,4497.179688,4562.436035,4395.641113,4377.307617,4498.333496,4539.102539,4539.743652,4502.692383,4372.436035,4390,4563.333496,4501.538574,4493.333496,4383.717773,4561.153809,4369.615234,4540,4488.846191,4377.05127,4504.487305,4473.205078,1751,1,24,2304,37019,,,,0,4,4,4,4,4,4,4,4,4,4,4,4,4,4,4,4,4,4,4,4,4,4,4,4,4,4,4,4,4,4,4,4,100,,,,,,,,,,,,,,,,,,,,,,,,,,,,,,,,,,,,,,,,,,,,,,,,,,,,,,,,,,,,,,,,,,,,,,,,,,,,,,,,,,,,,,,,,,,,,,,,,,,,,,,,,,,,,,,,,,,,,,,,,,,,,,,,,,,,,,,,,,,,,,,,,,,,,,,,,,,,,,,,,,,,,,,,,,,,,,,,,,,,,,,,,,,,,,,,,,,,,,,,,,,,,,
1764665422.605991,27507,0,4370.769043,4379.102539,4479.102539,4507.563965,4377.05127,4497.179688,4521.538574,4372.436035,4556.282227,4371.922852,4494.230957,4499.230957,4563.974121,4395.641113,4375.897461,4498.077148,4540.128418,4537.307617,4500.256348,4368.974121,4387.820313,4560,4503.205078,4490.384766,4379.615234,4559.615234,4367.563965,4541.153809,4492.820313,4378.717773,4502.94873,4477.307617,2918,1,24,2304,37019,,,,0,4,4,4,4,4,4,4,4,4,4,4,4,4,4,4,4,4,4,4,4,4,4,4,4,4,4,4,4,4,4,4,4,100,,,,,,,,,,,,,,,,,,,,,,,,,,,,,,,,,,,,,,,,,,,,,,,,,,,,,,,,,,,,,,,,,,,,,,,,,,,,,,,,,,,,,,,,,,,,,,,,,,,,,,,,,,,,,,,,,,,,,,,,,,,,,,,,,,,,,,,,,,,,,,,,,,,,,,,,,,,,,,,,,,,,,,,,,,,,,,,,,,,,,,,,,,,,,,,,,,,,,,,,,,,,,,
1764665422.609897,27508,0,4378.077148,4388.846191,4490.512695,4517.692383,4384.743652,4507.692383,4527.820313,4381.794922,4566.410156,4376.025879,4502.179688,4508.717773,4572.179688,4399.871582,4383.846191,4502.692383,4547.05127,4537.94873,4501.794922,4372.307617,4391.666504,4562.692383,4511.153809,4494.743652,4383.333496,4565.384766,4375.512695,4552.05127,4501.538574,4387.436035,4510.897461,4490.256348,2513,1,24,2560,37026,,,,0,4,4,4,4,4,4,4,4,4,4,4,4,4,4,4,4,4,4,4,4,4,4,4,4,4,4,4,4,4,4,4,4,100,,,,,,,,,,,,,,,,,,,,,,,,,,,,,,,,,,,,,,,,,,,,,,,,,,,,,,,,,,,,,,,,,,,,,,,,,,,,,,,,,,,,,,,,,,,,,,,,,,,,,,,,,,,,,,,,,,,,,,,,,,,,,,,,,,,,,,,,,,,,,,,,,,,,,,,,,,,,,,,,,,,,,,,,,,,,,,,,,,,,,,,,,,,,,,,,,,,,,,,,,,,,,,
1764665422.613804,27509,0,4387.179688,4401.282227,4505,4530.897461,4397.05127,4521.410156,4538.461426,4394.871582,4577.692383,4387.820313,4512.307617,4521.794922,4583.461426,4404.487305,4395.641113,4509.358887,4556.666504,4540.384766,4505.128418,4378.974121,4397.94873,4569.487305,4521.922852,4503.717773,4394.102539,4575.769043,4389.102539,4567.307617,4510.384766,4398.846191,4523.077148,4505.512695,2804,1,24,2560,37026,,,,0,4,4,4,4,4,4,4,4,4,4,4,4,4,4,4,4,4,4,4,4,4,4,4,4,4,4,4,4,4,4,4,4,100,,,,,,,,,,,,,,,,,,,,,,,,,,,,,,,,,,,39645,0,0.019384,-0.693542,-0.720093,-0.00946,0.986449,0.037602,0.042486,19,0.5,53.5,,,,,,,,,,,,,,,,,,,,,,,,,,,,,,,,,,,,,,,,,,,,,,,,,,,,,,,,,,,,,,,,,,,,,,,,,,,,,,,,,,,,,,,,,,,,,,,,,,,,,,,,,,,,,,,,,,,,,,,,,,,,,,,,,,,,,,,,,,,,,,,,,,,,,,,,,,,,,,,,
1764665422.617710,27510,0,4391.666504,4408.589844,4513.846191,4539.230957,4406.922852,4529.615234,4546.025879,4403.205078,4582.94873,4399.615234,4517.05127,4530,4590.256348,4404.102539,4401.538574,4513.077148,4562.179688,4540.384766,4505.128418,4382.307617,4400.128418,4573.846191,4528.589844,4509.743652,4404.358887,4583.333496,4398.077148,4577.307617,4513.589844,4405.128418,4530.512695,4513.846191,2906,1,24,1792,37034,,,,0,4,4,4,4,4,4,4,4,4,4,4,4,4,4,4,4,4,4,4,4,4,4,4,4,4,4,4,4,4,4,4,4,100,,,,,,,,,,,,,,,,,,,,,,,,,,,,,,,,,,,,,,,,,,,,,,,,,,,,,,,,,,,,,,,,,,,,,,,,,,,,,,,,,,,,,,,,,,,,,,,,,,,,,,,,,,,,,,,,,,,,,,,,,,,,,,,,,,,,,,,,,,,,,,,,,,,,,,,,,,,,,,,,,,,,,,,,,,,,,,,,,,,,,,,,,,,,,,,,,,,,,,,,,,,,,,
1764665422.621617,27511,0,4387.179688,4405.769043,4511.922852,4537.692383,4408.205078,4526.666504,4544.358887,4401.153809,4578.461426,4403.461426,4512.307617,4527.307617,4587.563965,4397.307617,4396.538574,4511.410156,4558.333496,4535.769043,4499.743652,4377.820313,4394.230957,4571.153809,4526.794922,4506.666504,4406.153809,4582.307617,4395,4574.743652,4508.717773,4401.794922,4527.436035,4509.871582,2822,1,24,1792,37034,,,,0,4,4,4,4,4,4,4,4,4,4,4,4,4,4,4,4,4,4,4,4,4,4,4,4,4,4,4,4,4,4,4,4,100,,,,,,,,,,,,,,,,,,,,,,,,,,,,,,,,,,,,,,,,,,,,,,,,,,,,,,,,,,,,,,,,,,,,,,,,,,,,,,,,,,,,,,,,,,,,,,,,,,,,,,,,,,,,,,,,,,,,,,,,,,,,,,,,,,,,,,,,,,,,,,,,,,,,,,,,,,,,,,,,,,,,,,,,,,,,,,,,,,,,,,,,,,,,,,,,,,,,,,,,,,,,,,
1764665422.625523,27512,0,4376.282227,4394.615234,4501.410156,4528.589844,4400.384766,4514.743652,4534.230957,4390.897461,4567.692383,4397.563965,4501.410156,4515.384766,4576.794922,4387.94873,4385.128418,4506.282227,4547.307617,4529.230957,4492.563965,4367.820313,4383.205078,4562.436035,4517.94873,4495.512695,4398.461426,4573.077148,4381.666504,4561.282227,4498.846191,4391.410156,4516.538574,4497.179688,2738,1,24,512,37042,,,,0,4,4,4,4,4,4,4,4,4,4,4,4,4,4,4,4,4,4,4,4,4,4,4,4,4,4,4,4,4,4,4,4,100,,,,,,,,,,,,,,,,,,,,,,,,,,,,,,,,,,,,,,,,,,,,,,,,,,,,,,,,,,,,,,,,,,,,,,,,,,,,,,,,,,,,,,,,,,,,,,,,,,,,,,,,,,,,,,,,,,,,,,,,,,,,,,,,,,,,,,,,,,,,,,,,,,,,,,,,,,,,,,,,,,,,,,,,,,,,,,,,,,,,,,,,,,,,,,,,,,,,,,,,,,,,,,
1764665422.629430,27513,0,4366.666504,4383.461426,4491.153809,4520,4390.256348,4503.461426,4523.461426,4380.769043,4559.102539,4387.820313,4491.922852,4502.94873,4565.128418,4383.077148,4377.179688,4502.307617,4537.179688,4526.538574,4489.615234,4359.743652,4374.871582,4554.487305,4509.487305,4483.846191,4387.692383,4562.436035,4367.820313,4546.538574,4491.410156,4382.436035,4506.153809,4486.025879,2801,1,24,512,37042,,,,0,4,4,4,4,4,4,4,4,4,4,4,4,4,4,4,4,4,4,4,4,4,4,4,4,4,4,4,4,4,4,4,4,100,,,,,,,,,,,,,,,,,,,,,,,,,,,,,,,,,,,39646,0,0.0193,-0.693481,-0.720154,-0.00946,0.999145,0.045416,0.042974,18.666666,0.333333,54.5,,,,,,,,,,,,,,,,,,,,,,,,,,,,,,,,,,,,,,,,,,,,,,,,,,,,,,,,,,,,,,,,,,,,,,,,,,,,,,,,,,,,,,,,,,,,,,,,,,,,,,,,,,,,,,,,,,,,,,,,,,,,,,,,,,,,,,,,,,,,,,,,,,,,,,,,,,,,,,,,
1764665422.633336,27514,0,4365.897461,4380.769043,4489.743652,4519.871582,4387.307617,4502.05127,4520.769043,4378.974121,4559.871582,4383.205078,4491.025879,4499.871582,4560.384766,4386.282227,4380,4502.820313,4536.025879,4531.410156,4494.230957,4360.384766,4375.769043,4553.974121,4508.589844,4479.615234,4382.563965,4558.717773,4364.615234,4541.282227,4492.436035,4382.94873,4505.128418,4486.282227,1924,1,24,256,37050,,,,0,4,4,4,4,4,4,4,4,4,4,4,4,4,4,4,4,4,4,4,4,4,4,4,4,4,4,4,4,4,4,4,4,100,1,91.666664,4,4,4,4,4,4,4,4,4,4,4,4,4,4,4,4,4,4,4,4,4,4,4,4,3,4,4,4,4,4,4,4,,,,,,,,,,,,,1.096053,11.412664,1.503177,1.523292,1.276076,2.006891,10.444411,1.506497,2.06843,1.625067,2.597035,6.839479,1.547091,2.194507,1.673408,1.605665,4.695931,1.122386,1.598403,1.62852,2.597392,7.371296,1.39362,1.613656,1.592586,1.276224,9.625976,1.351353,1.505335,1.271919,1.522572,8.502515,1.261734,1.85962,1.428339,1.657808,5.72511,1.095701,1.151576,1.66334,1.033278,2.234511,0.672361,1.910999,1.731741,1.28847,3.876447,1.331669,1.938732,2.008136,1.062282,3.32507,0.345819,0.937628,1.040046,1.846161,11.4041,1.593166,1.430388,1.369286,1.026856,6.744555,0.972477,1.262552,1.157907,0.317469,0.605228,0.369194,0.834792,0.945413,0.488787,1.417667,0.608608,1.615575,1.259358,0.326169,1.49947,0.787469,1.020431,0.78202,2.130651,16.33741,2.359997,2.238333,1.605134,0.961088,3.23871,1.67678,2.002259,1.73015,0.779546,3.024461,1.173197,1.148802,1.114645,0.894072,5.911311,0.782461,1.630211,1.187073,1.536022,6.232844,1.245481,2.056502,1.405533,2.137377,7.4533,2.312505,2.091855,1.38326,1.542251,10.342754,1.827671,1.670516,1.385982,1.73492,4.093408,1.948243,2.033182,1.527222,1.4326,2.349457,2.80324,2.57528,2.516914,1.990475,2.362981,1.667262,1.441868,1.121759,2.019914,6.987902,1.818428,2.280716,1.640889,1.80954,8.874733,1.523206,2.368812,1.431981,0.787689,5.805153,0.557519,1.180479,0.772964,2.213249,7.916657,1.328824,1.9595,1.432887,1.597482,5.313067,1.993549,2.312699,1.583863,2.263615,6.239395,1.478833,1.874663,1.582983
1764665422.637243,27515,0,4374.871582,4389.102539,4499.487305,4529.487305,4395.128418,4512.05127,4528.846191,4386.922852,4570.384766,4387.94873,4498.846191,4509.102539,4565.256348,4395.256348,4391.282227,4507.307617,4544.871582,4541.794922,4504.102539,4370.769043,4386.025879,4562.692383,4516.666504,4485.641113,4386.410156,4565.128418,4374.743652,4549.358887,4501.794922,4393.974121,4514.871582,4498.974121,2616,1,24,256,37050,,,,0,4,4,4,4,4,4,4,4,4,4,4,4,4,4,4,4,4,4,4,4,4,4,4,4,4,4,4,4,4,4,4,4,100,,,,,,,,,,,,,,,,,,,,,,,,,,,,,,,,,,,,,,,,,,,,,,,,,,,,,,,,,,,,,,,,,,,,,,,,,,,,,,,,,,,,,,,,,,,,,,,,,,,,,,,,,,,,,,,,,,,,,,,,,,,,,,,,,,,,,,,,,,,,,,,,,,,,,,,,,,,,,,,,,,,,,,,,,,,,,,,,,,,,,,,,,,,,,,,,,,,,,,,,,,,,,,
1764665422.641149,27516,0,4386.538574,4402.05127,4513.589844,4542.436035,4408.461426,4525.769043,4541.538574,4398.205078,4583.461426,4399.102539,4509.230957,4523.846191,4574.743652,4403.461426,4401.282227,4511.922852,4557.436035,4551.282227,4513.077148,4384.743652,4398.974121,4575.641113,4528.077148,4497.05127,4394.102539,4576.666504,4391.025879,4564.615234,4513.077148,4408.461426,4528.589844,4515.256348,2675,1,24,512,37058,,,,0,4,4,4,4,4,4,4,4,4,4,4,4,4,4,4,4,4,4,4,4,4,4,4,4,4,4,4,4,4,4,4,4,100,,,,,,,,,,,,,,,,,,,,,,,,,,,,,,,,,,,,,,,,,,,,,,,,,,,,,,,,,,,,,,,,,,,,,,,,,,,,,,,,,,,,,,,,,,,,,,,,,,,,,,,,,,,,,,,,,,,,,,,,,,,,,,,,,,,,,,,,,,,,,,,,,,,,,,,,,,,,,,,,,,,,,,,,,,,,,,,,,,,,,,,,,,,,,,,,,,,,,,,,,,,,,,
1764665422.645056,27517,0,4391.666504,4408.974121,4521.794922,4549.358887,4417.05127,4532.563965,4550,4403.974121,4590,4408.461426,4513.974121,4532.563965,4580.512695,4405.256348,4400.769043,4513.077148,4564.487305,4553.846191,4515.512695,4393.461426,4405.897461,4584.871582,4534.230957,4505.384766,4397.436035,4584.487305,4401.282227,4575.641113,4518.333496,4416.025879,4536.025879,4522.307617,2515,1,24,512,37058,,,,0,4,4,4,4,4,4,4,4,4,4,4,4,4,4,4,4,4,4,4,4,4,4,4,4,4,4,4,4,4,4,4,4,100,,,,,,,,,,,,,,,,,,,,,,,,,,,,,,,,,,,39647,0,0.019239,-0.693481,-0.720154,-0.009583,1.002075,0.041021,0.046392,19,-0.833333,53.5,,,,,,,,,,,,,,,,,,,,,,,,,,,,,,,,,,,,,,,,,,,,,,,,,,,,,,,,,,,,,,,,,,,,,,,,,,,,,,,,,,,,,,,,,,,,,,,,,,,,,,,,,,,,,,,,,,,,,,,,,,,,,,,,,,,,,,,,,,,,,,,,,,,,,,,,,,,,,,,,
1764665422.648962,27518,0,4385.769043,4403.717773,4517.94873,4545.128418,4413.846191,4526.538574,4548.333496,4399.615234,4586.025879,4409.102539,4510,4528.077148,4577.820313,4399.743652,4389.743652,4510.512695,4560.128418,4548.205078,4510.512695,4391.922852,4403.461426,4586.025879,4529.743652,4505,4393.077148,4582.94873,4398.205078,4574.102539,4513.846191,4410.769043,4531.282227,4513.974121,2643,1,24,768,37066,,,,0,4,4,4,4,4,4,4,4,4,4,4,4,4,4,4,4,4,4,4,4,4,4,4,4,4,4,4,4,4,4,4,4,100,,,,,,,,,,,,,,,,,,,,,,,,,,,,,,,,,,,,,,,,,,,,,,,,,,,,,,,,,,,,,,,,,,,,,,,,,,,,,,,,,,,,,,,,,,,,,,,,,,,,,,,,,,,,,,,,,,,,,,,,,,,,,,,,,,,,,,,,,,,,,,,,,,,,,,,,,,,,,,,,,,,,,,,,,,,,,,,,,,,,,,,,,,,,,,,,,,,,,,,,,,,,,,
1764665422.652869,27519,0,4372.179688,4387.94873,4503.717773,4532.820313,4400.641113,4510.641113,4538.077148,4388.077148,4575.769043,4400.384766,4500.641113,4513.461426,4568.333496,4391.153809,4376.153809,4506.666504,4546.666504,4538.717773,4502.307617,4383.205078,4395.384766,4580,4516.153809,4497.563965,4385.256348,4573.717773,4383.717773,4560.897461,4502.692383,4395.897461,4517.692383,4495.384766,2806,1,24,768,37066,,,,0,4,4,4,4,4,4,4,4,4,4,4,4,4,4,4,4,4,4,4,4,4,4,4,4,4,4,4,4,4,4,4,4,100,,,,,,,,,,,,,,,,,,,,,,,,,,,,,,,,,,,,,,,,,,,,,,,,,,,,,,,,,,,,,,,,,,,,,,,,,,,,,,,,,,,,,,,,,,,,,,,,,,,,,,,,,,,,,,,,,,,,,,,,,,,,,,,,,,,,,,,,,,,,,,,,,,,,,,,,,,,,,,,,,,,,,,,,,,,,,,,,,,,,,,,,,,,,,,,,,,,,,,,,,,,,,,
1764665422.656775,27520,0,4358.717773,4370.384766,4487.05127,4519.487305,4385,4493.205078,4525.128418,4375.897461,4566.025879,4387.692383,4491.922852,4497.94873,4558.077148,4385.128418,4369.230957,4503.974121,4532.179688,4532.179688,4496.922852,4375,4389.102539,4572.307617,4501.410156,4489.487305,4380.512695,4563.846191,4367.179688,4544.743652,4491.410156,4380.384766,4503.589844,4478.205078,2738,1,24,1024,37073,,,,0,4,4,4,4,4,4,4,4,4,4,4,4,4,4,4,4,4,4,4,4,4,4,4,4,4,4,4,4,4,4,4,4,100,,,,,,,,,,,,,,,,,,,,,,,,,,,,,,,,,,,,,,,,,,,,,,,,,,,,,,,,,,,,,,,,,,,,,,,,,,,,,,,,,,,,,,,,,,,,,,,,,,,,,,,,,,,,,,,,,,,,,,,,,,,,,,,,,,,,,,,,,,,,,,,,,,,,,,,,,,,,,,,,,,,,,,,,,,,,,,,,,,,,,,,,,,,,,,,,,,,,,,,,,,,,,,
1764665422.660682,27521,0,4352.179688,4359.615234,4475.769043,4511.282227,4374.487305,4482.94873,4516.538574,4369.102539,4561.794922,4378.717773,4488.717773,4489.871582,4552.179688,4385.256348,4372.563965,4502.820313,4524.615234,4532.05127,4497.692383,4373.589844,4389.743652,4567.820313,4493.333496,4486.794922,4381.025879,4560.384766,4357.94873,4535.256348,4485.512695,4372.307617,4496.666504,4471.666504,2899,1,24,1024,37073,,,,0,4,4,4,4,4,4,4,4,4,4,4,4,4,4,4,4,4,4,4,4,4,4,4,4,4,4,4,4,4,4,4,4,100,,,,,,,,,,,,,,,,,,,,,,,,,,,,,,,,,,,39648,0,0.016756,-0.693542,-0.720154,-0.009827,0.986937,0.033207,0.030765,19.166666,2.666667,55,,,,,,,,,,,,,,,,,,,,,,,,,,,,,,,,,,,,,,,,,,,,,,,,,,,,,,,,,,,,,,,,,,,,,,,,,,,,,,,,,,,,,,,,,,,,,,,,,,,,,,,,,,,,,,,,,,,,,,,,,,,,,,,,,,,,,,,,,,,,,,,,,,,,,,,,,,,,,,,,
1764665422.664588,27522,0,4353.846191,4359.487305,4472.820313,4509.743652,4372.436035,4482.94873,4515.769043,4369.358887,4562.820313,4377.436035,4491.538574,4491.666504,4552.692383,4390.897461,4382.307617,4502.307617,4526.666504,4536.538574,4502.563965,4379.743652,4396.025879,4568.461426,4494.743652,4491.153809,4384.358887,4564.871582,4359.615234,4536.666504,4486.922852,4373.846191,4498.589844,4476.025879,2572,1,24,1280,37081,,,,0,4,4,4,4,4,4,4,4,4,4,4,4,4,4,4,4,4,4,4,4,4,4,4,4,4,4,4,4,4,4,4,4,100,,,,,,,,,,,,,,,,,,,,,,,,,,,,,,,,,,,,,,,,,,,,,,,,,,,,,,,,,,,,,,,,,,,,,,,,,,,,,,,,,,,,,,,,,,,,,,,,,,,,,,,,,,,,,,,,,,,,,,,,,,,,,,,,,,,,,,,,,,,,,,,,,,,,,,,,,,,,,,,,,,,,,,,,,,,,,,,,,,,,,,,,,,,,,,,,,,,,,,,,,,,,,,
1764665422.668495,27523,0,4360.384766,4367.94873,4475,4512.563965,4377.05127,4490,4521.025879,4373.589844,4565.769043,4382.436035,4497.436035,4498.717773,4557.563965,4398.589844,4390.641113,4501.282227,4534.743652,4540.641113,4507.563965,4389.102539,4402.692383,4572.436035,4502.563965,4499.230957,4385.897461,4572.563965,4368.461426,4545.769043,4493.205078,4381.153809,4505.384766,4483.974121,2832,1,24,1280,37081,,,,0,4,4,4,4,4,4,4,4,4,4,4,4,4,4,4,4,4,4,4,4,4,4,4,4,4,4,4,4,4,4,4,4,100,,,,,,,,,,,,,,,,,,,,,,,,,,,,,,,,,,,,,,,,,,,,,,,,,,,,,,,,,,,,,,,,,,,,,,,,,,,,,,,,,,,,,,,,,,,,,,,,,,,,,,,,,,,,,,,,,,,,,,,,,,,,,,,,,,,,,,,,,,,,,,,,,,,,,,,,,,,,,,,,,,,,,,,,,,,,,,,,,,,,,,,,,,,,,,,,,,,,,,,,,,,,,,
1764665422.672401,27524,0,4365.897461,4377.820313,4477.307617,4515.128418,4383.589844,4497.692383,4527.436035,4377.692383,4566.922852,4387.179688,4501.666504,4504.230957,4562.563965,4404.230957,4392.05127,4499.230957,4542.179688,4540.256348,4509.358887,4395.641113,4404.871582,4576.282227,4509.871582,4505.384766,4384.230957,4576.282227,4377.05127,4555.256348,4499.743652,4387.820313,4511.025879,4486.794922,2733,1,24,1536,37089,,,,0,4,4,4,4,4,4,4,4,4,4,4,4,4,4,4,4,4,4,4,4,4,4,4,4,4,4,4,4,4,4,4,4,100,,,,,,,,,,,,,,,,,,,,,,,,,,,,,,,,,,,,,,,,,,,,,,,,,,,,,,,,,,,,,,,,,,,,,,,,,,,,,,,,,,,,,,,,,,,,,,,,,,,,,,,,,,,,,,,,,,,,,,,,,,,,,,,,,,,,,,,,,,,,,,,,,,,,,,,,,,,,,,,,,,,,,,,,,,,,,,,,,,,,,,,,,,,,,,,,,,,,,,,,,,,,,,
1764665422.676308,27525,0,4366.025879,4382.563965,4477.179688,4514.615234,4387.436035,4500.128418,4529.615234,4378.589844,4565,4385.769043,4500.128418,4503.589844,4563.333496,4404.743652,4385.512695,4496.282227,4543.205078,4535.384766,4507.692383,4395.641113,4401.538574,4576.538574,4511.410156,4505.769043,4380.897461,4572.563965,4379.487305,4558.333496,4501.666504,4388.589844,4511.922852,4482.05127,2763,1,24,1536,37089,,,,0,4,4,4,4,4,4,4,4,4,4,4,4,4,4,4,4,4,4,4,4,4,4,4,4,4,4,4,4,4,4,4,4,100,,,,,,,,,,,,,,,,,,,,,,,,,,,,,,,,,,,39649,0,0.019354,-0.693542,-0.720093,-0.009521,0.993774,0.01758,0.050299,18.666666,1.5,53.666668,,,,,,,,,,,,,,,,,,,,,,,,,,,,,,,,,,,,,,,,,,,,,,,,,,,,,,,,,,,,,,,,,,,,,,,,,,,,,,,,,,,,,,,,,,,,,,,,,,,,,,,,,,,,,,,,,,,,,,,,,,,,,,,,,,,,,,,,,,,,,,,,,,,,,,,,,,,,,,,,
1764665422.680214,27526,0,4360.128418,4379.358887,4475.769043,4510.897461,4386.282227,4495.897461,4525,4375.769043,4561.025879,4377.179688,4491.922852,4496.282227,4557.820313,4399.230957,4375,4492.692383,4536.538574,4528.974121,4504.230957,4389.358887,4395.128418,4571.666504,4505.769043,4499.743652,4378.333496,4563.974121,4374.743652,4552.692383,4497.307617,4382.94873,4508.461426,4474.358887,2769,1,24,1792,37097,,,,0,4,4,4,4,4,4,4,4,4,4,4,4,4,4,4,4,4,4,4,4,4,4,4,4,4,4,4,4,4,4,4,4,100,,,,,,,,,,,,,,,,,,,,,,,,,,,,,,,,,,,,,,,,,,,,,,,,,,,,,,,,,,,,,,,,,,,,,,,,,,,,,,,,,,,,,,,,,,,,,,,,,,,,,,,,,,,,,,,,,,,,,,,,,,,,,,,,,,,,,,,,,,,,,,,,,,,,,,,,,,,,,,,,,,,,,,,,,,,,,,,,,,,,,,,,,,,,,,,,,,,,,,,,,,,,,,
1764665422.684121,27527,0,4351.538574,4370.897461,4475.769043,4506.282227,4381.794922,4487.820313,4515.512695,4371.025879,4557.307617,4366.153809,4480.512695,4486.282227,4547.94873,4389.871582,4366.153809,4489.230957,4525.512695,4523.717773,4500.512695,4380.256348,4388.974121,4562.563965,4496.025879,4490.256348,4377.94873,4557.05127,4366.666504,4541.922852,4489.102539,4374.358887,4503.974121,4471.282227,2954,1,24,1792,37097,,,,0,4,4,4,4,4,4,4,4,4,4,4,4,4,4,4,4,4,4,4,4,4,4,4,4,4,4,4,4,4,4,4,4,100,,,,,,,,,,,,,,,,,,,,,,,,,,,,,,,,,,,,,,,,,,,,,,,,,,,,,,,,,,,,,,,,,,,,,,,,,,,,,,,,,,,,,,,,,,,,,,,,,,,,,,,,,,,,,,,,,,,,,,,,,,,,,,,,,,,,,,,,,,,,,,,,,,,,,,,,,,,,,,,,,,,,,,,,,,,,,,,,,,,,,,,,,,,,,,,,,,,,,,,,,,,,,,
1764665422.688027,27528,0,4345.769043,4363.846191,4479.102539,4503.974121,4377.436035,4481.666504,4506.794922,4367.820313,4555.897461,4360,4471.666504,4479.871582,4538.974121,4381.666504,4362.94873,4487.05127,4516.153809,4520.384766,4496.153809,4372.563965,4385,4552.563965,4487.307617,4481.922852,4378.846191,4556.666504,4361.282227,4533.205078,4481.922852,4368.461426,4502.179688,4476.025879,2838,1,24,2048,37105,,,,0,4,4,4,4,4,4,4,4,4,4,4,4,4,4,4,4,4,4,4,4,4,4,4,4,4,4,4,4,4,4,4,4,100,,,,,,,,,,,,,,,,,,,,,,,,,,,,,,,,,,,,,,,,,,,,,,,,,,,,,,,,,,,,,,,,,,,,,,,,,,,,,,,,,,,,,,,,,,,,,,,,,,,,,,,,,,,,,,,,,,,,,,,,,,,,,,,,,,,,,,,,,,,,,,,,,,,,,,,,,,,,,,,,,,,,,,,,,,,,,,,,,,,,,,,,,,,,,,,,,,,,,,,,,,,,,,
1764665422.691934,27529,0,4347.307617,4363.461426,4484.615234,4505.641113,4377.179688,4482.563965,4504.615234,4368.846191,4558.205078,4363.333496,4470.128418,4481.666504,4536.666504,4379.871582,4366.282227,4487.436035,4513.846191,4518.461426,4491.153809,4368.461426,4383.205078,4545,4484.871582,4478.589844,4379.743652,4562.436035,4362.307617,4532.307617,4481.025879,4369.358887,4504.358887,4485.256348,2693,1,24,2048,37105,,,,0,4,4,4,4,4,4,4,4,4,4,4,4,4,4,4,4,4,4,4,4,4,4,4,4,4,4,4,4,4,4,4,4,100,,,,,,,,,,,,,,,,,,,,,,,,,,,,,,,,,,,39650,0,0.019324,-0.693542,-0.720093,-0.009583,1.007936,0.050299,0.032719,18.5,-0.833333,53,,,,,,,,,,,,,,,,,,,,,,,,,,,,,,,,,,,,,,,,,,,,,,,,,,,,,,,,,,,,,,,,,,,,,,,,,,,,,,,,,,,,,,,,,,,,,,,,,,,,,,,,,,,,,,,,,,,,,,,,,,,,,,,,,,,,,,,,,,,,,,,,,,,,,,,,,,,,,,,,
1764665422.695840,27530,0,4356.666504,4370.641113,4490.128418,4511.538574,4382.179688,4491.410156,4511.153809,4374.358887,4563.205078,4375.641113,4476.282227,4491.794922,4543.333496,4386.538574,4372.94873,4490.641113,4519.615234,4517.436035,4486.153809,4367.563965,4383.205078,4542.05127,4489.487305,4480.128418,4379.487305,4569.102539,4368.717773,4539.230957,4487.307617,4376.666504,4509.102539,4491.794922,1854,1,24,2304,37112,,,,0,4,4,4,4,4,4,4,4,4,4,4,4,4,4,4,4,4,4,4,4,4,4,4,4,4,4,4,4,4,4,4,4,100,,,,,,,,,,,,,,,,,,,,,,,,,,,,,,,,,,,,,,,,,,,,,,,,,,,,,,,,,,,,,,,,,,,,,,,,,,,,,,,,,,,,,,,,,,,,,,,,,,,,,,,,,,,,,,,,,,,,,,,,,,,,,,,,,,,,,,,,,,,,,,,,,,,,,,,,,,,,,,,,,,,,,,,,,,,,,,,,,,,,,,,,,,,,,,,,,,,,,,,,,,,,,,
1764665422.699747,27531,0,4369.743652,4381.153809,4493.333496,4519.487305,4390.512695,4503.077148,4523.077148,4381.282227,4568.717773,4391.410156,4486.153809,4505.384766,4556.153809,4397.179688,4378.205078,4495.256348,4530,4516.282227,4482.436035,4366.922852,4383.461426,4542.563965,4497.94873,4483.077148,4378.077148,4571.282227,4375.897461,4548.974121,4496.922852,4385.769043,4513.461426,4491.025879,2679,1,24,2304,37112,,,,0,4,4,4,4,4,4,4,4,4,4,4,4,4,4,4,4,4,4,4,4,4,4,4,4,4,4,4,4,4,4,4,4,100,,,,,,,,,,,,,,,,,,,,,,,,,,,,,,,,,,,,,,,,,,,,,,,,,,,,,,,,,,,,,,,,,,,,,,,,,,,,,,,,,,,,,,,,,,,,,,,,,,,,,,,,,,,,,,,,,,,,,,,,,,,,,,,,,,,,,,,,,,,,,,,,,,,,,,,,,,,,,,,,,,,,,,,,,,,,,,,,,,,,,,,,,,,,,,,,,,,,,,,,,,,,,,
1764665422.703653,27532,0,4379.871582,4388.589844,4493.461426,4526.282227,4398.205078,4510.769043,4533.717773,4385.641113,4572.05127,4403.333496,4493.205078,4515.512695,4568.589844,4404.615234,4378.846191,4498.333496,4538.461426,4513.717773,4480.256348,4363.717773,4381.794922,4543.333496,4504.615234,4482.820313,4375.512695,4567.692383,4378.717773,4555.384766,4503.717773,4391.153809,4514.102539,4484.743652,2467,1,24,2560,37120,,,,0,4,4,4,4,4,4,4,4,4,4,4,4,4,4,4,4,4,4,4,4,4,4,4,4,4,4,4,4,4,4,4,4,100,,,,,,,,,,,,,,,,,,,,,,,,,,,,,,,,,,,,,,,,,,,,,,,,,,,,,,,,,,,,,,,,,,,,,,,,,,,,,,,,,,,,,,,,,,,,,,,,,,,,,,,,,,,,,,,,,,,,,,,,,,,,,,,,,,,,,,,,,,,,,,,,,,,,,,,,,,,,,,,,,,,,,,,,,,,,,,,,,,,,,,,,,,,,,,,,,,,,,,,,,,,,,,
1764665422.707560,27533,0,4382.436035,4389.102539,4491.410156,4528.589844,4401.922852,4509.871582,4536.922852,4385,4570.769043,4405.769043,4493.205078,4518.077148,4574.615234,4403.974121,4374.487305,4497.820313,4540.512695,4508.589844,4478.717773,4357.05127,4376.282227,4542.307617,4505.897461,4477.94873,4371.538574,4561.538574,4375.897461,4555.384766,4504.487305,4390.384766,4510.641113,4478.589844,2192,1,24,2560,37120,,,,0,4,4,4,4,4,4,4,4,4,4,4,4,4,4,4,4,4,4,4,4,4,4,4,4,4,4,4,4,4,4,4,4,100,,,,,,,,,,,,,,,,,,,,,,,,,,,,,,,,,,,39651,0,0.019293,-0.693542,-0.720093,-0.009644,1.007936,0.029789,0.040532,18.5,0.833333,54.666668,,,,,,,,,,,,,,,,,,,,,,,,,,,,,,,,,,,,,,,,,,,,,,,,,,,,,,,,,,,,,,,,,,,,,,,,,,,,,,,,,,,,,,,,,,,,,,,,,,,,,,,,,,,,,,,,,,,,,,,,,,,,,,,,,,,,,,,,,,,,,,,,,,,,,,,,,,,,,,,,
1764665422.711466,27534,0,4377.563965,4383.846191,4488.205078,4525.512695,4400.256348,4502.307617,4531.794922,4380.641113,4565,4398.205078,4487.05127,4513.717773,4572.94873,4396.666504,4367.94873,4494.230957,4536.282227,4502.307617,4477.307617,4348.846191,4367.563965,4540.256348,4501.922852,4471.410156,4366.282227,4557.563965,4370.512695,4550.769043,4500.128418,4385,4505.512695,4477.563965,2685,1,24,2304,37128,,,,0,4,4,4,4,4,4,4,4,4,4,4,4,4,4,4,4,4,4,4,4,4,4,4,4,4,4,4,4,4,4,4,4,100,,,,,,,,,,,,,,,,,,,,,,,,,,,,,,,,,,,,,,,,,,,,,,,,,,,,,,,,,,,,,,,,,,,,,,,,,,,,,,,,,,,,,,,,,,,,,,,,,,,,,,,,,,,,,,,,,,,,,,,,,,,,,,,,,,,,,,,,,,,,,,,,,,,,,,,,,,,,,,,,,,,,,,,,,,,,,,,,,,,,,,,,,,,,,,,,,,,,,,,,,,,,,,
1764665422.715373,27535,0,4370.897461,4378.205078,4485.512695,4519.230957,4395.769043,4495,4523.461426,4376.153809,4557.820313,4386.025879,4480.256348,4507.692383,4567.05127,4389.358887,4363.589844,4491.282227,4531.282227,4500,4477.692383,4344.358887,4360.384766,4541.153809,4498.077148,4468.974121,4362.563965,4558.589844,4367.563965,4546.538574,4495.256348,4379.615234,4502.94873,4481.922852,2472,1,24,2304,37128,,,,0,4,4,4,4,4,4,4,4,4,4,4,4,4,4,4,4,4,4,4,4,4,4,4,4,4,4,4,4,4,4,4,4,100,,,,,,,,,,,,,,,,,,,,,,,,,,,,,,,,,,,,,,,,,,,,,,,,,,,,,,,,,,,,,,,,,,,,,,,,,,,,,,,,,,,,,,,,,,,,,,,,,,,,,,,,,,,,,,,,,,,,,,,,,,,,,,,,,,,,,,,,,,,,,,,,,,,,,,,,,,,,,,,,,,,,,,,,,,,,,,,,,,,,,,,,,,,,,,,,,,,,,,,,,,,,,,
1764665422.719279,27536,0,4369.487305,4378.205078,4484.743652,4515.128418,4393.333496,4495.128418,4520.128418,4376.153809,4555,4377.94873,4479.230957,4506.282227,4563.461426,4388.846191,4365.128418,4493.846191,4532.692383,4507.179688,4483.077148,4348.077148,4360.769043,4549.487305,4500.897461,4475.512695,4364.743652,4565.128418,4370.897461,4548.717773,4494.871582,4379.871582,4506.666504,4488.846191,2840,1,24,1280,37136,,,,0,4,4,4,4,4,4,4,4,4,4,4,4,4,4,4,4,4,4,4,4,4,4,4,4,4,4,4,4,4,4,4,4,100,,,,,,,,,,,,,,,,,,,,,,,,,,,,,,,,,,,,,,,,,,,,,,,,,,,,,,,,,,,,,,,,,,,,,,,,,,,,,,,,,,,,,,,,,,,,,,,,,,,,,,,,,,,,,,,,,,,,,,,,,,,,,,,,,,,,,,,,,,,,,,,,,,,,,,,,,,,,,,,,,,,,,,,,,,,,,,,,,,,,,,,,,,,,,,,,,,,,,,,,,,,,,,
1764665422.723186,27537,0,4376.666504,4386.538574,4487.692383,4517.563965,4397.436035,4505.512695,4527.563965,4383.077148,4560.512695,4380.256348,4486.922852,4512.563965,4567.307617,4396.922852,4373.077148,4503.717773,4543.974121,4525,4495.641113,4361.410156,4371.922852,4566.025879,4513.333496,4491.410156,4376.025879,4575.256348,4380.897461,4560,4501.153809,4388.717773,4517.179688,4495.256348,2894,1,24,1280,37136,,,,0,4,4,4,4,4,4,4,4,4,4,4,4,4,4,4,4,4,4,4,4,4,4,4,4,4,4,4,4,4,4,4,4,100,,,,,,,,,,,,,,,,,,,,,,,,,,,,,,,,,,,39652,0,0.019293,-0.693542,-0.720093,-0.009644,1.007936,0.029789,0.040532,19.166666,0.333333,54.5,,,,,,,,,,,,,,,,,,,,,,,,,,,,,,,,,,,,,,,,,,,,,,,,,,,,,,,,,,,,,,,,,,,,,,,,,,,,,,,,,,,,,,,,,,,,,,,,,,,,,,,,,,,,,,,,,,,,,,,,,,,,,,,,,,,,,,,,,,,,,,,,,,,,,,,,,,,,,,,,
1764665422.727092,27538,0,4389.487305,4400.641113,4494.871582,4527.179688,4407.820313,4521.794922,4544.102539,4394.743652,4573.333496,4392.436035,4500,4524.358887,4578.461426,4408.717773,4383.461426,4517.563965,4561.794922,4547.563965,4513.077148,4380.128418,4390.769043,4586.538574,4531.153809,4511.410156,4393.974121,4585.512695,4393.461426,4577.307617,4511.922852,4403.717773,4530.769043,4501.025879,1750,1,24,256,37144,,,,0,4,4,4,4,4,4,4,4,4,4,4,4,4,4,4,4,4,4,4,4,4,4,4,4,4,4,4,4,4,4,4,4,100,,,,,,,,,,,,,,,,,,,,,,,,,,,,,,,,,,,,,,,,,,,,,,,,,,,,,,,,,,,,,,,,,,,,,,,,,,,,,,,,,,,,,,,,,,,,,,,,,,,,,,,,,,,,,,,,,,,,,,,,,,,,,,,,,,,,,,,,,,,,,,,,,,,,,,,,,,,,,,,,,,,,,,,,,,,,,,,,,,,,,,,,,,,,,,,,,,,,,,,,,,,,,,
1764665422.730999,27539,0,4400.256348,4413.333496,4504.358887,4539.230957,4418.846191,4535,4560,4404.615234,4587.307617,4406.153809,4510,4534.487305,4590.128418,4415.256348,4390.384766,4528.461426,4577.307617,4565,4528.846191,4395.897461,4408.461426,4603.077148,4545.384766,4526.538574,4410.897461,4592.179688,4402.820313,4591.922852,4521.282227,4417.692383,4541.410156,4505.897461,2915,1,24,256,37144,,,,0,4,4,4,4,4,4,4,4,4,4,4,4,4,4,4,4,4,4,4,4,4,4,4,4,4,4,4,4,4,4,4,4,100,,,,,,,,,,,,,,,,,,,,,,,,,,,,,,,,,,,,,,,,,,,,,,,,,,,,,,,,,,,,,,,,,,,,,,,,,,,,,,,,,,,,,,,,,,,,,,,,,,,,,,,,,,,,,,,,,,,,,,,,,,,,,,,,,,,,,,,,,,,,,,,,,,,,,,,,,,,,,,,,,,,,,,,,,,,,,,,,,,,,,,,,,,,,,,,,,,,,,,,,,,,,,,
1764665422.734905,27540,0,4401.153809,4417.94873,4511.282227,4545.897461,4422.820313,4537.05127,4565.384766,4406.282227,4594.615234,4411.282227,4509.358887,4535.897461,4594.102539,4411.153809,4389.102539,4530.128418,4582.307617,4569.615234,4536.153809,4401.538574,4416.153809,4608.846191,4547.692383,4530.256348,4418.205078,4592.692383,4404.871582,4595.641113,4524.358887,4423.333496,4544.871582,4508.717773,2512,1,24,256,37151,,,,0,4,4,4,4,4,4,4,4,4,4,4,4,4,4,4,4,4,4,4,4,4,4,4,4,4,4,4,4,4,4,4,4,100,,,,,,,,,,,,,,,,,,,,,,,,,,,,,,,,,,,,,,,,,,,,,,,,,,,,,,,,,,,,,,,,,,,,,,,,,,,,,,,,,,,,,,,,,,,,,,,,,,,,,,,,,,,,,,,,,,,,,,,,,,,,,,,,,,,,,,,,,,,,,,,,,,,,,,,,,,,,,,,,,,,,,,,,,,,,,,,,,,,,,,,,,,,,,,,,,,,,,,,,,,,,,,
1764665422.738812,27541,0,4391.025879,4412.179688,4511.153809,4542.436035,4416.538574,4526.794922,4556.794922,4397.820313,4590.769043,4402.179688,4497.692383,4527.179688,4586.666504,4398.077148,4380.384766,4522.05127,4574.615234,4561.410156,4532.563965,4396.025879,4410.769043,4602.94873,4537.05127,4522.436035,4412.94873,4587.307617,4399.102539,4586.666504,4520.128418,4418.333496,4540.897461,4507.179688,2799,1,24,256,37151,,,,0,4,4,4,4,4,4,4,4,4,4,4,4,4,4,4,4,4,4,4,4,4,4,4,4,4,4,4,4,4,4,4,4,100,,,,,,,,,,,,,,,,,,,,,,,,,,,,,,,,,,,39653,0,0.019201,-0.693542,-0.720093,-0.009827,0.993285,0.039067,0.050299,18.5,-1.333333,55.166668,,,,,,,,,,,,,,,,,,,,,,,,,,,,,,,,,,,,,,,,,,,,,,,,,,,,,,,,,,,,,,,,,,,,,,,,,,,,,,,,,,,,,,,,,,,,,,,,,,,,,,,,,,,,,,,,,,,,,,,,,,,,,,,,,,,,,,,,,,,,,,,,,,,,,,,,,,,,,,,,
1764665422.742617,27542,0,4375.641113,4400.641113,4502.820313,4531.538574,4403.974121,4511.282227,4540.128418,4384.615234,4578.333496,4383.461426,4482.563965,4514.230957,4572.179688,4383.846191,4369.871582,4509.871582,4559.358887,4548.461426,4522.307617,4385.641113,4397.307617,4591.153809,4520.128418,4509.102539,4400.512695,4579.102539,4390,4570.769043,4512.436035,4407.05127,4532.94873,4501.410156,2903,1,24,256,37159,,,,0,4,4,4,4,4,4,4,4,4,4,4,4,4,4,4,4,4,4,4,4,4,4,4,4,4,4,4,4,4,4,4,4,100,,,,,,,,,,,,,,,,,,,,,,,,,,,,,,,,,,,,,,,,,,,,,,,,,,,,,,,,,,,,,,,,,,,,,,,,,,,,,,,,,,,,,,,,,,,,,,,,,,,,,,,,,,,,,,,,,,,,,,,,,,,,,,,,,,,,,,,,,,,,,,,,,,,,,,,,,,,,,,,,,,,,,,,,,,,,,,,,,,,,,,,,,,,,,,,,,,,,,,,,,,,,,,
1764665422.746523,27543,0,4364.102539,4390.897461,4491.153809,4520.384766,4393.077148,4500.512695,4525.512695,4375.256348,4565.384766,4366.410156,4473.461426,4506.025879,4559.871582,4376.794922,4364.743652,4501.666504,4545.641113,4540.512695,4513.333496,4378.717773,4385.512695,4581.153809,4507.307617,4498.717773,4389.487305,4572.563965,4383.205078,4557.94873,4506.025879,4397.179688,4525.897461,4494.615234,2819,1,24,256,37159,,,,0,4,4,4,4,4,4,4,4,4,4,4,4,4,4,4,4,4,4,4,4,4,4,4,4,4,4,4,4,4,4,4,4,100,,,,,,,,,,,,,,,,,,,,,,,,,,,,,,,,,,,,,,,,,,,,,,,,,,,,,,,,,,,,,,,,,,,,,,,,,,,,,,,,,,,,,,,,,,,,,,,,,,,,,,,,,,,,,,,,,,,,,,,,,,,,,,,,,,,,,,,,,,,,,,,,,,,,,,,,,,,,,,,,,,,,,,,,,,,,,,,,,,,,,,,,,,,,,,,,,,,,,,,,,,,,,,
