Timestamp,EEG.Counter,EEG.Interpolated,EEG.Cz,EEG.Fz,EEG.Fp1,EEG.F7,EEG.F3,EEG.FC1,EEG.C3,EEG.FC5,EEG.FT9,EEG.T7,EEG.CP5,EEG.CP1,EEG.P3,EEG.P7,EEG.PO9,EEG.O1,EEG.Pz,EEG.Oz,EEG.O2,EEG.PO10,EEG.P8,EEG.P4,EEG.CP2,EEG.CP6,EEG.T8,EEG.FT10,EEG.FC6,EEG.C4,EEG.FC2,EEG.F4,EEG.F8,EEG.Fp2,EEG.RawCq,EEG.Battery,EEG.BatteryPercent,EEG.FwBufferSize,EEG.FwClockTime,MarkerIndex,MarkerType,MarkerValueInt,EEG.MarkerHardware,CQ.Cz,CQ.Fz,CQ.Fp1,CQ.F7,CQ.F3,CQ.FC1,CQ.C3,CQ.FC5,CQ.FT9,CQ.T7,CQ.CP5,CQ.CP1,CQ.P3,CQ.P7,CQ.PO9,CQ.O1,CQ.Pz,CQ.Oz,CQ.O2,CQ.PO10,CQ.P8,CQ.P4,CQ.CP2,CQ.CP6,CQ.T8,CQ.FT10,CQ.FC6,CQ.C4,CQ.FC2,CQ.F4,CQ.F8,CQ.Fp2,CQ.Overall,EQ.SampleRateQuality,EQ.OVERALL,EQ.Cz,EQ.Fz,EQ.Fp1,EQ.F7,EQ.F3,EQ.FC1,EQ.C3,EQ.FC5,EQ.FT9,EQ.T7,EQ.CP5,EQ.CP1,EQ.P3,EQ.P7,EQ.PO9,EQ.O1,EQ.Pz,EQ.Oz,EQ.O2,EQ.PO10,EQ.P8,EQ.P4,EQ.CP2,EQ.CP6,EQ.T8,EQ.FT10,EQ.FC6,EQ.C4,EQ.FC2,EQ.F4,EQ.F8,EQ.Fp2,MOT.CounterMems,MOT.InterpolatedMems,MOT.Q0,MOT.Q1,MOT.Q2,MOT.Q3,MOT.AccX,MOT.AccY,MOT.AccZ,MOT.MagX,MOT.MagY,MOT.MagZ,POW.Cz.Theta,POW.Cz.Alpha,POW.Cz.BetaL,POW.Cz.BetaH,POW.Cz.Gamma,POW.Fz.Theta,POW.Fz.Alpha,POW.Fz.BetaL,POW.Fz.BetaH,POW.Fz.Gamma,POW.Fp1.Theta,POW.Fp1.Alpha,POW.Fp1.BetaL,POW.Fp1.BetaH,POW.Fp1.Gamma,POW.F7.Theta,POW.F7.Alpha,POW.F7.BetaL,POW.F7.BetaH,POW.F7.Gamma,POW.F3.Theta,POW.F3.Alpha,POW.F3.BetaL,POW.F3.BetaH,POW.F3.Gamma,POW.FC1.Theta,POW.FC1.Alpha,POW.FC1.BetaL,POW.FC1.BetaH,POW.FC1.Gamma,POW.C3.Theta,POW.C3.Alpha,POW.C3.BetaL,POW.C3.BetaH,POW.C3.Gamma,POW.FC5.Theta,POW.FC5.Alpha,POW.FC5.BetaL,POW.FC5.BetaH,POW.FC5.Gamma,POW.FT9.Theta,POW.FT9.Alpha,POW.FT9.BetaL,POW.FT9.BetaH,POW.FT9.Gamma,POW.T7.Theta,POW.T7.Alpha,POW.T7.BetaL,POW.T7.BetaH,POW.T7.Gamma,POW.CP5.Theta,POW.CP5.Alpha,POW.CP5.BetaL,POW.CP5.BetaH,POW.CP5.Gamma,POW.CP1.Theta,POW.CP1.Alpha,POW.CP1.BetaL,POW.CP1.BetaH,POW.CP1.Gamma,POW.P3.Theta,POW.P3.Alpha,POW.P3.BetaL,POW.P3.BetaH,POW.P3.Gamma,POW.P7.Theta,POW.P7.Alpha,POW.P7.BetaL,POW.P7.BetaH,POW.P7.Gamma,POW.PO9.Theta,POW.PO9.Alpha,POW.PO9.BetaL,POW.PO9.BetaH,POW.PO9.Gamma,POW.O1.Theta,POW.O1.Alpha,POW.O1.BetaL,POW.O1.BetaH,POW.O1.Gamma,POW.Pz.Theta,POW.Pz.Alpha,POW.Pz.BetaL,POW.Pz.BetaH,POW.Pz.Gamma,POW.Oz.Theta,POW.Oz.Alpha,POW.Oz.BetaL,POW.Oz.BetaH,POW.Oz.Gamma,POW.O2.Theta,POW.O2.Alpha,POW.O2.BetaL,POW.O2.BetaH,POW.O2.Gamma,POW.PO10.Theta,POW.PO10.Alpha,POW.PO10.BetaL,POW.PO10.BetaH,POW.PO10.Gamma,POW.P8.Theta,POW.P8.Alpha,POW.P8.BetaL,POW.P8.BetaH,POW.P8.Gamma,POW.P4.Theta,POW.P4.Alpha,POW.P4.BetaL,POW.P4.BetaH,POW.P4.Gamma,POW.CP2.Theta,POW.CP2.Alpha,POW.CP2.BetaL,POW.CP2.BetaH,POW.CP2.Gamma,POW.CP6.Theta,POW.CP6.Alpha,POW.CP6.BetaL,POW.CP6.BetaH,POW.CP6.Gamma,POW.T8.Theta,POW.T8.Alpha,POW.T8.BetaL,POW.T8.BetaH,POW.T8.Gamma,POW.FT10.Theta,POW.FT10.Alpha,POW.FT10.BetaL,POW.FT10.BetaH,POW.FT10.Gamma,POW.FC6.Theta,POW.FC6.Alpha,POW.FC6.BetaL,POW.FC6.BetaH,POW.FC6.Gamma,POW.C4.Theta,POW.C4.Alpha,POW.C4.BetaL,POW.C4.BetaH,POW.C4.Gamma,POW.FC2.Theta,POW.FC2.Alpha,POW.FC2.BetaL,POW.FC2.BetaH,POW.FC2.Gamma,POW.F4.Theta,POW.F4.Alpha,POW.F4.BetaL,POW.F4.BetaH,POW.F4.Gamma,POW.F8.Theta,POW.F8.Alpha,POW.F8.BetaL,POW.F8.BetaH,POW.F8.Gamma,POW.Fp2.Theta,POW.Fp2.Alpha,POW.Fp2.BetaL,POW.Fp2.BetaH,POW.Fp2.Gamma
1763973745.823984,31791.0,0.0,4380.769043,4391.794922,4487.563965,4520.384766,4402.307617,4525.897461,4549.487305,4386.410156,4595.384766,4410.769043,4521.153809,4526.025879,4592.436035,4415.512695,4408.077148,4539.102539,4559.358887,4554.230957,4514.230957,4402.692383,4390.512695,4577.307617,4532.94873,4512.563965,4402.820313,4577.436035,4397.563965,4570.0,4516.538574,4404.230957,4525.0,4505.256348,2779.0,1.0,22.0,2048.0,56158.0,1.0,1.0,3.0,0.0,4.0,4.0,4.0,4.0,4.0,4.0,4.0,4.0,4.0,4.0,4.0,4.0,4.0,4.0,4.0,4.0,4.0,4.0,4.0,4.0,4.0,4.0,4.0,4.0,4.0,4.0,4.0,4.0,4.0,4.0,4.0,4.0,100.0,,,,,,,,,,,,,,,,,,,,,,,,,,,,,,,,,,,,,,,,,,,,,,,,,,,,,,,,,,,,,,,,,,,,,,,,,,,,,,,,,,,,,,,,,,,,,,,,,,,,,,,,,,,,,,,,,,,,,,,,,,,,,,,,,,,,,,,,,,,,,,,,,,,,,,,,,,,,,,,,,,,,,,,,,,,,,,,,,,,,,,,,,,,,,,,,,,,,,,,,,,,,,,
1763973745.82789,31792.0,0.0,4382.820313,4392.94873,4492.307617,4525.384766,4404.230957,4527.05127,4553.333496,4388.717773,4599.615234,4419.871582,4524.358887,4529.230957,4594.871582,4419.487305,4411.538574,4538.589844,4561.410156,4553.589844,4513.974121,4403.205078,4388.077148,4578.974121,4534.487305,4510.641113,4402.94873,4578.333496,4401.025879,4570.0,4518.589844,4404.230957,4531.025879,4507.692383,2904.0,1.0,22.0,2304.0,56166.0,,,,0.0,4.0,4.0,4.0,4.0,4.0,4.0,4.0,4.0,4.0,4.0,4.0,4.0,4.0,4.0,4.0,4.0,4.0,4.0,4.0,4.0,4.0,4.0,4.0,4.0,4.0,4.0,4.0,4.0,4.0,4.0,4.0,4.0,100.0,,,,,,,,,,,,,,,,,,,,,,,,,,,,,,,,,,,,,,,,,,,,,,,,,,,,,,,,,,,,,,,,,,,,,,,,,,,,,,,,,,,,,,,,,,,,,,,,,,,,,,,,,,,,,,,,,,,,,,,,,,,,,,,,,,,,,,,,,,,,,,,,,,,,,,,,,,,,,,,,,,,,,,,,,,,,,,,,,,,,,,,,,,,,,,,,,,,,,,,,,,,,,,
1763973745.831796,31793.0,0.0,4375.769043,4385.0,4487.179688,4519.871582,4397.179688,4520.128418,4547.563965,4383.846191,4594.487305,4409.230957,4516.538574,4523.974121,4586.153809,4410.641113,4400.128418,4525.384766,4552.692383,4542.307617,4504.615234,4391.666504,4381.282227,4571.666504,4526.282227,4501.666504,4395.0,4573.077148,4392.179688,4559.615234,4508.461426,4395.769043,4525.384766,4499.358887,3026.0,1.0,22.0,2304.0,56166.0,,,,0.0,4.0,4.0,4.0,4.0,4.0,4.0,4.0,4.0,4.0,4.0,4.0,4.0,4.0,4.0,4.0,4.0,4.0,4.0,4.0,4.0,4.0,4.0,4.0,4.0,4.0,4.0,4.0,4.0,4.0,4.0,4.0,4.0,100.0,,,,,,,,,,,,,,,,,,,,,,,,,,,,,,,,,,,57100.0,0.0,0.662814,0.290466,0.24707,0.644409,0.992309,0.004395,-0.081065,28.5,-26.166666,-25.833334,,,,,,,,,,,,,,,,,,,,,,,,,,,,,,,,,,,,,,,,,,,,,,,,,,,,,,,,,,,,,,,,,,,,,,,,,,,,,,,,,,,,,,,,,,,,,,,,,,,,,,,,,,,,,,,,,,,,,,,,,,,,,,,,,,,,,,,,,,,,,,,,,,,,,,,,,,,,,,,,
1763973745.835702,31794.0,0.0,4362.94873,4372.436035,4475.0,4507.05127,4384.743652,4508.846191,4534.743652,4374.615234,4582.692383,4387.179688,4501.538574,4512.94873,4570.769043,4393.077148,4379.743652,4505.512695,4535.769043,4524.871582,4490.512695,4373.717773,4372.94873,4557.436035,4511.410156,4488.717773,4382.307617,4564.743652,4375.641113,4543.589844,4491.282227,4382.692383,4511.025879,4484.743652,2812.0,1.0,22.0,1536.0,56173.0,,,,0.0,4.0,4.0,4.0,4.0,4.0,4.0,4.0,4.0,4.0,4.0,4.0,4.0,4.0,4.0,4.0,4.0,4.0,4.0,4.0,4.0,4.0,4.0,4.0,4.0,4.0,4.0,4.0,4.0,4.0,4.0,4.0,4.0,100.0,,,,,,,,,,,,,,,,,,,,,,,,,,,,,,,,,,,,,,,,,,,,,,,,,,,,,,,,,,,,,,,,,,,,,,,,,,,,,,,,,,,,,,,,,,,,,,,,,,,,,,,,,,,,,,,,,,,,,,,,,,,,,,,,,,,,,,,,,,,,,,,,,,,,,,,,,,,,,,,,,,,,,,,,,,,,,,,,,,,,,,,,,,,,,,,,,,,,,,,,,,,,,,
1763973745.839608,31795.0,0.0,4352.820313,4363.589844,4463.717773,4496.025879,4374.487305,4500.769043,4522.563965,4367.820313,4572.563965,4368.974121,4489.487305,4503.717773,4557.692383,4378.077148,4362.692383,4490.256348,4520.897461,4510.897461,4481.538574,4360.641113,4368.846191,4544.871582,4498.589844,4479.487305,4372.820313,4559.487305,4362.436035,4532.05127,4478.205078,4373.461426,4497.820313,4473.205078,2991.0,1.0,22.0,1536.0,56173.0,,,,0.0,4.0,4.0,4.0,4.0,4.0,4.0,4.0,4.0,4.0,4.0,4.0,4.0,4.0,4.0,4.0,4.0,4.0,4.0,4.0,4.0,4.0,4.0,4.0,4.0,4.0,4.0,4.0,4.0,4.0,4.0,4.0,4.0,100.0,,,,,,,,,,,,,,,,,,,,,,,,,,,,,,,,,,,,,,,,,,,,,,,,,,,,,,,,,,,,,,,,,,,,,,,,,,,,,,,,,,,,,,,,,,,,,,,,,,,,,,,,,,,,,,,,,,,,,,,,,,,,,,,,,,,,,,,,,,,,,,,,,,,,,,,,,,,,,,,,,,,,,,,,,,,,,,,,,,,,,,,,,,,,,,,,,,,,,,,,,,,,,,
1763973745.843514,31796.0,0.0,4352.820313,4365.769043,4461.666504,4496.025879,4374.230957,4501.794922,4520.128418,4369.487305,4571.922852,4366.666504,4489.102539,4502.94873,4554.615234,4375.769043,4360.256348,4489.102539,4517.692383,4509.230957,4485.897461,4361.410156,4374.487305,4543.717773,4496.538574,4481.025879,4374.230957,4562.692383,4362.436035,4533.077148,4478.846191,4376.025879,4496.538574,4473.205078,2962.0,1.0,22.0,1280.0,56181.0,,,,0.0,4.0,4.0,4.0,4.0,4.0,4.0,4.0,4.0,4.0,4.0,4.0,4.0,4.0,4.0,4.0,4.0,4.0,4.0,4.0,4.0,4.0,4.0,4.0,4.0,4.0,4.0,4.0,4.0,4.0,4.0,4.0,4.0,100.0,,,,,,,,,,,,,,,,,,,,,,,,,,,,,,,,,,,,,,,,,,,,,,,,,,,,,,,,,,,,,,,,,,,,,,,,,,,,,,,,,,,,,,,,,,,,,,,,,,,,,,,,,,,,,,,,,,,,,,,,,,,,,,,,,,,,,,,,,,,,,,,,,,,,,,,,,,,,,,,,,,,,,,,,,,,,,,,,,,,,,,,,,,,,,,,,,,,,,,,,,,,,,,
1763973745.84742,31797.0,0.0,4363.846191,4379.358887,4471.282227,4508.589844,4385.0,4512.307617,4530.256348,4380.128418,4581.538574,4379.487305,4501.282227,4511.794922,4562.179688,4387.563965,4373.589844,4502.563965,4527.692383,4521.538574,4502.820313,4375.641113,4389.487305,4556.282227,4506.922852,4493.846191,4387.436035,4573.974121,4376.410156,4547.307617,4494.358887,4390.512695,4510.0,4485.641113,2827.0,1.0,22.0,1280.0,56181.0,,,,0.0,4.0,4.0,4.0,4.0,4.0,4.0,4.0,4.0,4.0,4.0,4.0,4.0,4.0,4.0,4.0,4.0,4.0,4.0,4.0,4.0,4.0,4.0,4.0,4.0,4.0,4.0,4.0,4.0,4.0,4.0,4.0,4.0,100.0,,,,,,,,,,,,,,,,,,,,,,,,,,,,,,,,,,,57101.0,0.0,0.662927,0.290344,0.24707,0.644348,0.994262,0.013185,-0.067879,28.666666,-24.5,-23.5,,,,,,,,,,,,,,,,,,,,,,,,,,,,,,,,,,,,,,,,,,,,,,,,,,,,,,,,,,,,,,,,,,,,,,,,,,,,,,,,,,,,,,,,,,,,,,,,,,,,,,,,,,,,,,,,,,,,,,,,,,,,,,,,,,,,,,,,,,,,,,,,,,,,,,,,,,,,,,,,
1763973745.851326,31798.0,0.0,4379.230957,4397.05127,4486.666504,4526.282227,4400.897461,4526.282227,4547.436035,4394.102539,4594.871582,4395.769043,4517.307617,4524.358887,4573.205078,4404.615234,4393.333496,4520.769043,4542.436035,4539.230957,4522.179688,4393.589844,4406.666504,4574.230957,4522.692383,4510.128418,4405.384766,4587.563965,4394.871582,4566.153809,4515.897461,4408.205078,4530.128418,4502.820313,2958.0,1.0,22.0,1536.0,56189.0,,,,0.0,4.0,4.0,4.0,4.0,4.0,4.0,4.0,4.0,4.0,4.0,4.0,4.0,4.0,4.0,4.0,4.0,4.0,4.0,4.0,4.0,4.0,4.0,4.0,4.0,4.0,4.0,4.0,4.0,4.0,4.0,4.0,4.0,100.0,,,,,,,,,,,,,,,,,,,,,,,,,,,,,,,,,,,,,,,,,,,,,,,,,,,,,,,,,,,,,,,,,,,,,,,,,,,,,,,,,,,,,,,,,,,,,,,,,,,,,,,,,,,,,,,,,,,,,,,,,,,,,,,,,,,,,,,,,,,,,,,,,,,,,,,,,,,,,,,,,,,,,,,,,,,,,,,,,,,,,,,,,,,,,,,,,,,,,,,,,,,,,,
1763973745.855232,31799.0,0.0,4389.102539,4408.461426,4497.820313,4537.436035,4412.307617,4535.128418,4561.025879,4403.077148,4602.692383,4402.563965,4525.769043,4532.05127,4578.846191,4415.0,4406.410156,4531.410156,4550.256348,4549.615234,4532.179688,4403.717773,4416.538574,4584.487305,4532.692383,4519.102539,4416.922852,4595.512695,4405.512695,4577.692383,4530.256348,4417.94873,4544.102539,4513.974121,2913.0,1.0,22.0,1536.0,56189.0,,,,0.0,4.0,4.0,4.0,4.0,4.0,4.0,4.0,4.0,4.0,4.0,4.0,4.0,4.0,4.0,4.0,4.0,4.0,4.0,4.0,4.0,4.0,4.0,4.0,4.0,4.0,4.0,4.0,4.0,4.0,4.0,4.0,4.0,100.0,,,,,,,,,,,,,,,,,,,,,,,,,,,,,,,,,,,,,,,,,,,,,,,,,,,,,,,,,,,,,,,,,,,,,,,,,,,,,,,,,,,,,,,,,,,,,,,,,,,,,,,,,,,,,,,,,,,,,,,,,,,,,,,,,,,,,,,,,,,,,,,,,,,,,,,,,,,,,,,,,,,,,,,,,,,,,,,,,,,,,,,,,,,,,,,,,,,,,,,,,,,,,,
1763973745.859138,31800.0,0.0,4387.05127,4407.05127,4497.563965,4535.256348,4412.692383,4533.333496,4562.179688,4401.794922,4599.230957,4396.794922,4520.897461,4528.846191,4574.615234,4412.307617,4404.743652,4528.205078,4545.0,4546.153809,4527.05127,4400.256348,4413.333496,4579.358887,4529.230957,4514.230957,4415.0,4592.692383,4401.794922,4574.230957,4528.846191,4413.717773,4542.692383,4512.179688,2883.0,1.0,22.0,1280.0,56197.0,,,,0.0,4.0,4.0,4.0,4.0,4.0,4.0,4.0,4.0,4.0,4.0,4.0,4.0,4.0,4.0,4.0,4.0,4.0,4.0,4.0,4.0,4.0,4.0,4.0,4.0,4.0,4.0,4.0,4.0,4.0,4.0,4.0,4.0,100.0,,,,,,,,,,,,,,,,,,,,,,,,,,,,,,,,,,,,,,,,,,,,,,,,,,,,,,,,,,,,,,,,,,,,,,,,,,,,,,,,,,,,,,,,,,,,,,,,,,,,,,,,,,,,,,,,,,,,,,,,,,,,,,,,,,,,,,,,,,,,,,,,,,,,,,,,,,,,,,,,,,,,,,,,,,,,,,,,,,,,,,,,,,,,,,,,,,,,,,,,,,,,,,
1763973745.863044,31801.0,0.0,4374.102539,4393.717773,4485.769043,4521.282227,4401.538574,4522.307617,4550.384766,4390.897461,4586.153809,4384.615234,4505.897461,4515.897461,4562.820313,4398.974121,4390.128418,4516.282227,4529.102539,4532.692383,4510.641113,4386.282227,4398.589844,4561.282227,4513.077148,4497.307617,4400.512695,4579.615234,4386.538574,4556.922852,4512.820313,4398.077148,4526.922852,4498.077148,2816.0,1.0,22.0,1280.0,56197.0,,,,0.0,4.0,4.0,4.0,4.0,4.0,4.0,4.0,4.0,4.0,4.0,4.0,4.0,4.0,4.0,4.0,4.0,4.0,4.0,4.0,4.0,4.0,4.0,4.0,4.0,4.0,4.0,4.0,4.0,4.0,4.0,4.0,4.0,100.0,,,,,,,,,,,,,,,,,,,,,,,,,,,,,,,,,,,57102.0,0.0,0.663075,0.290161,0.246887,0.644348,0.996704,-0.01465,-0.078623,26.833334,-26.666666,-25.0,,,,,,,,,,,,,,,,,,,,,,,,,,,,,,,,,,,,,,,,,,,,,,,,,,,,,,,,,,,,,,,,,,,,,,,,,,,,,,,,,,,,,,,,,,,,,,,,,,,,,,,,,,,,,,,,,,,,,,,,,,,,,,,,,,,,,,,,,,,,,,,,,,,,,,,,,,,,,,,,
1763973745.86695,31802.0,0.0,4356.922852,4376.538574,4469.615234,4505.256348,4385.897461,4509.102539,4533.205078,4376.538574,4570.641113,4375.512695,4490.641113,4499.871582,4550.256348,4383.974121,4371.666504,4506.282227,4511.538574,4519.615234,4493.717773,4370.256348,4380.897461,4541.410156,4493.333496,4478.205078,4382.179688,4562.94873,4369.102539,4535.641113,4491.794922,4380.384766,4506.153809,4479.743652,2783.0,1.0,22.0,256.0,56205.0,,,,0.0,4.0,4.0,4.0,4.0,4.0,4.0,4.0,4.0,4.0,4.0,4.0,4.0,4.0,4.0,4.0,4.0,4.0,4.0,4.0,4.0,4.0,4.0,4.0,4.0,4.0,4.0,4.0,4.0,4.0,4.0,4.0,4.0,100.0,,,,,,,,,,,,,,,,,,,,,,,,,,,,,,,,,,,,,,,,,,,,,,,,,,,,,,,,,,,,,,,,,,,,,,,,,,,,,,,,,,,,,,,,,,,,,,,,,,,,,,,,,,,,,,,,,,,,,,,,,,,,,,,,,,,,,,,,,,,,,,,,,,,,,,,,,,,,,,,,,,,,,,,,,,,,,,,,,,,,,,,,,,,,,,,,,,,,,,,,,,,,,,
1763973745.870856,31803.0,0.0,4345.641113,4366.282227,4459.871582,4497.820313,4375.384766,4502.05127,4521.922852,4367.563965,4561.666504,4374.615234,4484.358887,4490.384766,4543.974121,4376.666504,4360.128418,4505.128418,4502.179688,4515.512695,4486.282227,4361.282227,4370.897461,4531.922852,4481.410156,4468.461426,4370.897461,4552.563965,4360.384766,4522.820313,4478.205078,4371.282227,4492.820313,4468.333496,2992.0,1.0,22.0,256.0,56205.0,,,,0.0,4.0,4.0,4.0,4.0,4.0,4.0,4.0,4.0,4.0,4.0,4.0,4.0,4.0,4.0,4.0,4.0,4.0,4.0,4.0,4.0,4.0,4.0,4.0,4.0,4.0,4.0,4.0,4.0,4.0,4.0,4.0,4.0,100.0,,,,,,,,,,,,,,,,,,,,,,,,,,,,,,,,,,,,,,,,,,,,,,,,,,,,,,,,,,,,,,,,,,,,,,,,,,,,,,,,,,,,,,,,,,,,,,,,,,,,,,,,,,,,,,,,,,,,,,,,,,,,,,,,,,,,,,,,,,,,,,,,,,,,,,,,,,,,,,,,,,,,,,,,,,,,,,,,,,,,,,,,,,,,,,,,,,,,,,,,,,,,,,
1763973745.874762,31804.0,0.0,4346.922852,4369.615234,4463.589844,4504.102539,4376.922852,4505.897461,4523.461426,4370.256348,4564.358887,4380.769043,4490.512695,4492.692383,4547.307617,4381.153809,4362.05127,4510.641113,4506.666504,4521.666504,4491.922852,4363.846191,4375.128418,4538.461426,4484.102539,4473.974121,4373.846191,4555.256348,4365.897461,4526.538574,4479.615234,4376.922852,4495.256348,4471.410156,2947.0,1.0,22.0,256.0,56212.0,,,,0.0,4.0,4.0,4.0,4.0,4.0,4.0,4.0,4.0,4.0,4.0,4.0,4.0,4.0,4.0,4.0,4.0,4.0,4.0,4.0,4.0,4.0,4.0,4.0,4.0,4.0,4.0,4.0,4.0,4.0,4.0,4.0,4.0,100.0,,,,,,,,,,,,,,,,,,,,,,,,,,,,,,,,,,,,,,,,,,,,,,,,,,,,,,,,,,,,,,,,,,,,,,,,,,,,,,,,,,,,,,,,,,,,,,,,,,,,,,,,,,,,,,,,,,,,,,,,,,,,,,,,,,,,,,,,,,,,,,,,,,,,,,,,,,,,,,,,,,,,,,,,,,,,,,,,,,,,,,,,,,,,,,,,,,,,,,,,,,,,,,
1763973745.878668,31805.0,0.0,4360.0,4384.743652,4478.333496,4520.897461,4389.358887,4517.820313,4536.410156,4383.333496,4577.307617,4389.487305,4504.871582,4505.384766,4557.820313,4393.205078,4375.384766,4514.230957,4522.05127,4532.179688,4505.897461,4376.153809,4391.153809,4556.282227,4499.230957,4491.410156,4389.487305,4570.0,4382.307617,4544.743652,4493.974121,4394.358887,4512.05127,4487.94873,2800.0,1.0,22.0,256.0,56212.0,,,,0.0,4.0,4.0,4.0,4.0,4.0,4.0,4.0,4.0,4.0,4.0,4.0,4.0,4.0,4.0,4.0,4.0,4.0,4.0,4.0,4.0,4.0,4.0,4.0,4.0,4.0,4.0,4.0,4.0,4.0,4.0,4.0,4.0,100.0,,,,,,,,,,,,,,,,,,,,,,,,,,,,,,,,,,,57103.0,0.0,0.66304,0.290222,0.24707,0.644287,1.009889,-0.012209,-0.060554,27.666666,-26.166666,-23.333334,,,,,,,,,,,,,,,,,,,,,,,,,,,,,,,,,,,,,,,,,,,,,,,,,,,,,,,,,,,,,,,,,,,,,,,,,,,,,,,,,,,,,,,,,,,,,,,,,,,,,,,,,,,,,,,,,,,,,,,,,,,,,,,,,,,,,,,,,,,,,,,,,,,,,,,,,,,,,,,,
1763973745.882674,31806.0,0.0,4376.922852,4401.794922,4493.974121,4537.692383,4403.717773,4530.0,4551.794922,4398.461426,4592.94873,4396.153809,4518.846191,4520.641113,4568.717773,4403.974121,4390.769043,4509.102539,4539.358887,4538.846191,4518.589844,4390.769043,4409.230957,4574.102539,4517.307617,4509.871582,4408.589844,4588.077148,4399.615234,4566.666504,4510.897461,4413.333496,4533.205078,4508.077148,2984.0,1.0,22.0,512.0,56220.0,,,,0.0,4.0,4.0,4.0,4.0,4.0,4.0,4.0,4.0,4.0,4.0,4.0,4.0,4.0,4.0,4.0,4.0,4.0,4.0,4.0,4.0,4.0,4.0,4.0,4.0,4.0,4.0,4.0,4.0,4.0,4.0,4.0,4.0,100.0,,,,,,,,,,,,,,,,,,,,,,,,,,,,,,,,,,,,,,,,,,,,,,,,,,,,,,,,,,,,,,,,,,,,,,,,,,,,,,,,,,,,,,,,,,,,,,,,,,,,,,,,,,,,,,,,,,,,,,,,,,,,,,,,,,,,,,,,,,,,,,,,,,,,,,,,,,,,,,,,,,,,,,,,,,,,,,,,,,,,,,,,,,,,,,,,,,,,,,,,,,,,,,
1763973745.88658,31807.0,0.0,4387.94873,4410.256348,4500.0,4544.230957,4409.871582,4534.487305,4559.487305,4405.0,4601.922852,4398.461426,4524.487305,4529.487305,4573.461426,4405.897461,4397.692383,4495.769043,4549.615234,4536.666504,4522.692383,4399.358887,4418.077148,4581.922852,4528.205078,4518.717773,4420.384766,4598.846191,4407.563965,4579.487305,4519.615234,4423.461426,4546.153809,4518.974121,2895.0,1.0,22.0,512.0,56220.0,,,,0.0,4.0,4.0,4.0,4.0,4.0,4.0,4.0,4.0,4.0,4.0,4.0,4.0,4.0,4.0,4.0,4.0,4.0,4.0,4.0,4.0,4.0,4.0,4.0,4.0,4.0,4.0,4.0,4.0,4.0,4.0,4.0,4.0,100.0,,,,,,,,,,,,,,,,,,,,,,,,,,,,,,,,,,,,,,,,,,,,,,,,,,,,,,,,,,,,,,,,,,,,,,,,,,,,,,,,,,,,,,,,,,,,,,,,,,,,,,,,,,,,,,,,,,,,,,,,,,,,,,,,,,,,,,,,,,,,,,,,,,,,,,,,,,,,,,,,,,,,,,,,,,,,,,,,,,,,,,,,,,,,,,,,,,,,,,,,,,,,,,
1763973745.890486,31808.0,0.0,4388.333496,4406.410156,4493.333496,4537.692383,4404.743652,4529.615234,4555.897461,4399.102539,4599.615234,4396.538574,4519.871582,4528.205078,4570.512695,4398.205078,4392.563965,4481.666504,4549.487305,4527.692383,4517.307617,4398.717773,4412.94873,4577.692383,4528.205078,4514.230957,4419.743652,4597.179688,4403.461426,4577.307617,4516.794922,4420.769043,4544.615234,4514.487305,2794.0,1.0,22.0,768.0,56228.0,,,,0.0,4.0,4.0,4.0,4.0,4.0,4.0,4.0,4.0,4.0,4.0,4.0,4.0,4.0,4.0,4.0,4.0,4.0,4.0,4.0,4.0,4.0,4.0,4.0,4.0,4.0,4.0,4.0,4.0,4.0,4.0,4.0,4.0,100.0,,,,,,,,,,,,,,,,,,,,,,,,,,,,,,,,,,,,,,,,,,,,,,,,,,,,,,,,,,,,,,,,,,,,,,,,,,,,,,,,,,,,,,,,,,,,,,,,,,,,,,,,,,,,,,,,,,,,,,,,,,,,,,,,,,,,,,,,,,,,,,,,,,,,,,,,,,,,,,,,,,,,,,,,,,,,,,,,,,,,,,,,,,,,,,,,,,,,,,,,,,,,,,
1763973745.894392,31809.0,0.0,4380.897461,4395.641113,4480.128418,4524.743652,4393.717773,4520.0,4545.641113,4385.897461,4589.615234,4392.563965,4510.256348,4520.641113,4563.846191,4387.563965,4380.897461,4476.538574,4543.461426,4518.974121,4507.94873,4391.922852,4398.846191,4568.077148,4521.410156,4502.436035,4410.256348,4586.666504,4392.820313,4564.743652,4508.077148,4410.128418,4532.563965,4499.871582,2927.0,1.0,22.0,768.0,56228.0,,,,0.0,4.0,4.0,4.0,4.0,4.0,4.0,4.0,4.0,4.0,4.0,4.0,4.0,4.0,4.0,4.0,4.0,4.0,4.0,4.0,4.0,4.0,4.0,4.0,4.0,4.0,4.0,4.0,4.0,4.0,4.0,4.0,4.0,100.0,,,,,,,,,,,,,,,,,,,,,,,,,,,,,,,,,,,57104.0,0.0,0.662977,0.290344,0.247253,0.644226,1.009889,-0.012209,-0.060554,28.0,-25.666666,-23.5,,,,,,,,,,,,,,,,,,,,,,,,,,,,,,,,,,,,,,,,,,,,,,,,,,,,,,,,,,,,,,,,,,,,,,,,,,,,,,,,,,,,,,,,,,,,,,,,,,,,,,,,,,,,,,,,,,,,,,,,,,,,,,,,,,,,,,,,,,,,,,,,,,,,,,,,,,,,,,,,
1763973745.898298,31810.0,0.0,4373.589844,4387.05127,4470.897461,4516.153809,4386.410156,4513.205078,4537.563965,4376.025879,4580.256348,4388.717773,4502.820313,4515.128418,4559.487305,4381.922852,4372.820313,4484.102539,4539.102539,4517.563965,4501.538574,4385.897461,4386.282227,4562.436035,4515.769043,4493.974121,4400.512695,4576.794922,4385.512695,4552.94873,4502.179688,4400.641113,4520.512695,4486.922852,2243.0,1.0,22.0,1024.0,56236.0,,,,0.0,4.0,4.0,4.0,4.0,4.0,4.0,4.0,4.0,4.0,4.0,4.0,4.0,4.0,4.0,4.0,4.0,4.0,4.0,4.0,4.0,4.0,4.0,4.0,4.0,4.0,4.0,4.0,4.0,4.0,4.0,4.0,4.0,100.0,,,,,,,,,,,,,,,,,,,,,,,,,,,,,,,,,,,,,,,,,,,,,,,,,,,,,,,,,,,,,,,,,,,,,,,,,,,,,,,,,,,,,,,,,,,,,,,,,,,,,,,,,,,,,,,,,,,,,,,,,,,,,,,,,,,,,,,,,,,,,,,,,,,,,,,,,,,,,,,,,,,,,,,,,,,,,,,,,,,,,,,,,,,,,,,,,,,,,,,,,,,,,,
1763973745.902204,31811.0,0.0,4372.692383,4386.666504,4472.307617,4518.205078,4388.077148,4513.589844,4537.05127,4376.282227,4577.820313,4386.410156,4501.922852,4517.307617,4560.641113,4384.871582,4375.128418,4499.230957,4540.641113,4524.743652,4501.794922,4386.153809,4383.589844,4565.512695,4516.922852,4496.025879,4398.205078,4574.871582,4387.179688,4551.025879,4503.846191,4399.230957,4517.692383,4485.256348,2913.0,1.0,22.0,1024.0,56236.0,,,,0.0,4.0,4.0,4.0,4.0,4.0,4.0,4.0,4.0,4.0,4.0,4.0,4.0,4.0,4.0,4.0,4.0,4.0,4.0,4.0,4.0,4.0,4.0,4.0,4.0,4.0,4.0,4.0,4.0,4.0,4.0,4.0,4.0,100.0,,,,,,,,,,,,,,,,,,,,,,,,,,,,,,,,,,,,,,,,,,,,,,,,,,,,,,,,,,,,,,,,,,,,,,,,,,,,,,,,,,,,,,,,,,,,,,,,,,,,,,,,,,,,,,,,,,,,,,,,,,,,,,,,,,,,,,,,,,,,,,,,,,,,,,,,,,,,,,,,,,,,,,,,,,,,,,,,,,,,,,,,,,,,,,,,,,,,,,,,,,,,,,
1763973745.90611,31812.0,0.0,4378.974121,4392.94873,4482.692383,4527.94873,4396.153809,4519.102539,4542.307617,4384.871582,4581.666504,4385.0,4506.025879,4525.897461,4566.025879,4393.077148,4386.025879,4511.410156,4546.922852,4535.512695,4507.563965,4392.307617,4391.922852,4575.384766,4524.871582,4507.05127,4404.102539,4581.666504,4395.897461,4559.358887,4511.153809,4405.769043,4525.641113,4494.615234,2818.0,1.0,22.0,1280.0,56244.0,,,,0.0,4.0,4.0,4.0,4.0,4.0,4.0,4.0,4.0,4.0,4.0,4.0,4.0,4.0,4.0,4.0,4.0,4.0,4.0,4.0,4.0,4.0,4.0,4.0,4.0,4.0,4.0,4.0,4.0,4.0,4.0,4.0,4.0,100.0,,,,,,,,,,,,,,,,,,,,,,,,,,,,,,,,,,,,,,,,,,,,,,,,,,,,,,,,,,,,,,,,,,,,,,,,,,,,,,,,,,,,,,,,,,,,,,,,,,,,,,,,,,,,,,,,,,,,,,,,,,,,,,,,,,,,,,,,,,,,,,,,,,,,,,,,,,,,,,,,,,,,,,,,,,,,,,,,,,,,,,,,,,,,,,,,,,,,,,,,,,,,,,
1763973745.910016,31813.0,0.0,4388.077148,4399.615234,4494.358887,4537.436035,4403.333496,4524.615234,4547.692383,4393.333496,4586.794922,4383.589844,4510.897461,4535.0,4571.922852,4400.0,4398.077148,4513.205078,4553.846191,4543.077148,4515.128418,4399.615234,4405.384766,4585.897461,4535.256348,4518.846191,4413.205078,4591.922852,4404.615234,4571.282227,4518.333496,4414.487305,4537.563965,4506.922852,2372.0,1.0,22.0,1280.0,56244.0,,,,0.0,4.0,4.0,4.0,4.0,4.0,4.0,4.0,4.0,4.0,4.0,4.0,4.0,4.0,4.0,4.0,4.0,4.0,4.0,4.0,4.0,4.0,4.0,4.0,4.0,4.0,4.0,4.0,4.0,4.0,4.0,4.0,4.0,100.0,,,,,,,,,,,,,,,,,,,,,,,,,,,,,,,,,,,57105.0,0.0,0.662878,0.290466,0.247375,0.644226,1.004517,0.006348,-0.067879,26.666666,-24.833334,-24.333334,,,,,,,,,,,,,,,,,,,,,,,,,,,,,,,,,,,,,,,,,,,,,,,,,,,,,,,,,,,,,,,,,,,,,,,,,,,,,,,,,,,,,,,,,,,,,,,,,,,,,,,,,,,,,,,,,,,,,,,,,,,,,,,,,,,,,,,,,,,,,,,,,,,,,,,,,,,,,,,,
1763973745.913922,31814.0,0.0,4394.615234,4401.282227,4499.615234,4539.871582,4403.974121,4526.153809,4549.358887,4395.0,4588.846191,4382.307617,4514.102539,4539.358887,4576.153809,4402.179688,4403.974121,4506.794922,4558.205078,4544.230957,4521.282227,4402.94873,4416.666504,4592.94873,4542.820313,4524.487305,4419.615234,4598.717773,4407.436035,4578.974121,4520.769043,4419.358887,4544.615234,4513.077148,2904.0,1.0,22.0,1536.0,56251.0,,,,0.0,4.0,4.0,4.0,4.0,4.0,4.0,4.0,4.0,4.0,4.0,4.0,4.0,4.0,4.0,4.0,4.0,4.0,4.0,4.0,4.0,4.0,4.0,4.0,4.0,4.0,4.0,4.0,4.0,4.0,4.0,4.0,4.0,100.0,,,,,,,,,,,,,,,,,,,,,,,,,,,,,,,,,,,,,,,,,,,,,,,,,,,,,,,,,,,,,,,,,,,,,,,,,,,,,,,,,,,,,,,,,,,,,,,,,,,,,,,,,,,,,,,,,,,,,,,,,,,,,,,,,,,,,,,,,,,,,,,,,,,,,,,,,,,,,,,,,,,,,,,,,,,,,,,,,,,,,,,,,,,,,,,,,,,,,,,,,,,,,,
1763973745.917828,31815.0,0.0,4395.128418,4396.666504,4496.153809,4534.102539,4397.563965,4523.461426,4547.179688,4389.230957,4586.538574,4382.563965,4515.0,4537.94873,4578.589844,4400.256348,4401.666504,4500.897461,4558.974121,4540.641113,4524.871582,4399.871582,4421.025879,4595.384766,4543.846191,4521.922852,4419.743652,4597.563965,4402.692383,4577.820313,4517.436035,4417.436035,4542.05127,4509.358887,2925.0,1.0,22.0,1536.0,56251.0,,,,0.0,4.0,4.0,4.0,4.0,4.0,4.0,4.0,4.0,4.0,4.0,4.0,4.0,4.0,4.0,4.0,4.0,4.0,4.0,4.0,4.0,4.0,4.0,4.0,4.0,4.0,4.0,4.0,4.0,4.0,4.0,4.0,4.0,100.0,,,,,,,,,,,,,,,,,,,,,,,,,,,,,,,,,,,,,,,,,,,,,,,,,,,,,,,,,,,,,,,,,,,,,,,,,,,,,,,,,,,,,,,,,,,,,,,,,,,,,,,,,,,,,,,,,,,,,,,,,,,,,,,,,,,,,,,,,,,,,,,,,,,,,,,,,,,,,,,,,,,,,,,,,,,,,,,,,,,,,,,,,,,,,,,,,,,,,,,,,,,,,,
1763973745.921734,31816.0,0.0,4389.487305,4388.461426,4487.05127,4523.974121,4388.077148,4518.846191,4543.974121,4380.256348,4581.153809,4385.128418,4514.102539,4533.077148,4579.487305,4397.94873,4394.230957,4502.563965,4556.794922,4536.666504,4525.384766,4392.179688,4417.692383,4593.589844,4538.205078,4514.487305,4413.846191,4588.974121,4392.820313,4568.846191,4510.256348,4409.871582,4532.05127,4498.974121,2653.0,1.0,22.0,1792.0,56259.0,,,,0.0,4.0,4.0,4.0,4.0,4.0,4.0,4.0,4.0,4.0,4.0,4.0,4.0,4.0,4.0,4.0,4.0,4.0,4.0,4.0,4.0,4.0,4.0,4.0,4.0,4.0,4.0,4.0,4.0,4.0,4.0,4.0,4.0,100.0,,,,,,,,,,,,,,,,,,,,,,,,,,,,,,,,,,,,,,,,,,,,,,,,,,,,,,,,,,,,,,,,,,,,,,,,,,,,,,,,,,,,,,,,,,,,,,,,,,,,,,,,,,,,,,,,,,,,,,,,,,,,,,,,,,,,,,,,,,,,,,,,,,,,,,,,,,,,,,,,,,,,,,,,,,,,,,,,,,,,,,,,,,,,,,,,,,,,,,,,,,,,,,
1763973745.92564,31817.0,0.0,4381.153809,4381.282227,4478.077148,4515.512695,4380.512695,4515.384766,4541.922852,4373.974121,4576.410156,4389.358887,4512.307617,4528.717773,4579.358887,4398.461426,4387.179688,4512.563965,4553.077148,4536.282227,4522.820313,4385.256348,4409.615234,4588.974121,4529.230957,4507.05127,4404.871582,4577.692383,4382.692383,4557.307617,4502.94873,4400.384766,4520.897461,4488.461426,2818.0,1.0,22.0,1792.0,56259.0,,,,0.0,4.0,4.0,4.0,4.0,4.0,4.0,4.0,4.0,4.0,4.0,4.0,4.0,4.0,4.0,4.0,4.0,4.0,4.0,4.0,4.0,4.0,4.0,4.0,4.0,4.0,4.0,4.0,4.0,4.0,4.0,4.0,4.0,100.0,,,,,,,,,,,,,,,,,,,,,,,,,,,,,,,,,,,57106.0,0.0,0.662954,0.290344,0.247314,0.644226,0.998657,0.001465,-0.068368,26.666666,-24.833334,-24.333334,,,,,,,,,,,,,,,,,,,,,,,,,,,,,,,,,,,,,,,,,,,,,,,,,,,,,,,,,,,,,,,,,,,,,,,,,,,,,,,,,,,,,,,,,,,,,,,,,,,,,,,,,,,,,,,,,,,,,,,,,,,,,,,,,,,,,,,,,,,,,,,,,,,,,,,,,,,,,,,,
1763973745.929546,31818.0,0.0,4374.743652,4379.487305,4474.871582,4513.333496,4378.333496,4514.743652,4542.436035,4374.358887,4575.512695,4394.743652,4511.666504,4527.563965,4579.230957,4402.94873,4385.128418,4525.0,4550.128418,4540.0,4518.846191,4383.846191,4401.922852,4583.974121,4522.307617,4503.205078,4397.436035,4570.128418,4377.307617,4550.256348,4499.230957,4394.102539,4515.512695,4484.358887,2660.0,1.0,22.0,2048.0,56267.0,,,,0.0,4.0,4.0,4.0,4.0,4.0,4.0,4.0,4.0,4.0,4.0,4.0,4.0,4.0,4.0,4.0,4.0,4.0,4.0,4.0,4.0,4.0,4.0,4.0,4.0,4.0,4.0,4.0,4.0,4.0,4.0,4.0,4.0,100.0,,,,,,,,,,,,,,,,,,,,,,,,,,,,,,,,,,,,,,,,,,,,,,,,,,,,,,,,,,,,,,,,,,,,,,,,,,,,,,,,,,,,,,,,,,,,,,,,,,,,,,,,,,,,,,,,,,,,,,,,,,,,,,,,,,,,,,,,,,,,,,,,,,,,,,,,,,,,,,,,,,,,,,,,,,,,,,,,,,,,,,,,,,,,,,,,,,,,,,,,,,,,,,
1763973745.933452,31819.0,0.0,4374.230957,4383.717773,4478.589844,4518.205078,4381.538574,4516.794922,4545.512695,4381.282227,4580.128418,4400.769043,4513.333496,4529.615234,4579.358887,4409.102539,4388.077148,4532.179688,4549.615234,4545.256348,4515.897461,4388.333496,4398.717773,4580.641113,4521.282227,4503.461426,4394.871582,4568.846191,4378.717773,4550.641113,4500.769043,4393.846191,4517.94873,4488.077148,2954.0,1.0,22.0,2048.0,56267.0,,,,0.0,4.0,4.0,4.0,4.0,4.0,4.0,4.0,4.0,4.0,4.0,4.0,4.0,4.0,4.0,4.0,4.0,4.0,4.0,4.0,4.0,4.0,4.0,4.0,4.0,4.0,4.0,4.0,4.0,4.0,4.0,4.0,4.0,100.0,,,,,,,,,,,,,,,,,,,,,,,,,,,,,,,,,,,,,,,,,,,,,,,,,,,,,,,,,,,,,,,,,,,,,,,,,,,,,,,,,,,,,,,,,,,,,,,,,,,,,,,,,,,,,,,,,,,,,,,,,,,,,,,,,,,,,,,,,,,,,,,,,,,,,,,,,,,,,,,,,,,,,,,,,,,,,,,,,,,,,,,,,,,,,,,,,,,,,,,,,,,,,,
1763973745.937358,31820.0,0.0,4378.461426,4390.384766,4485.769043,4525.384766,4387.179688,4519.615234,4549.487305,4389.743652,4586.794922,4405.641113,4515.641113,4531.666504,4578.333496,4411.666504,4391.282227,4528.461426,4549.487305,4546.666504,4513.717773,4392.436035,4399.615234,4578.846191,4524.102539,4504.230957,4396.538574,4571.153809,4383.717773,4555.512695,4505.256348,4397.94873,4523.717773,4494.871582,2921.0,1.0,22.0,2304.0,56275.0,,,,0.0,4.0,4.0,4.0,4.0,4.0,4.0,4.0,4.0,4.0,4.0,4.0,4.0,4.0,4.0,4.0,4.0,4.0,4.0,4.0,4.0,4.0,4.0,4.0,4.0,4.0,4.0,4.0,4.0,4.0,4.0,4.0,4.0,100.0,,,,,,,,,,,,,,,,,,,,,,,,,,,,,,,,,,,,,,,,,,,,,,,,,,,,,,,,,,,,,,,,,,,,,,,,,,,,,,,,,,,,,,,,,,,,,,,,,,,,,,,,,,,,,,,,,,,,,,,,,,,,,,,,,,,,,,,,,,,,,,,,,,,,,,,,,,,,,,,,,,,,,,,,,,,,,,,,,,,,,,,,,,,,,,,,,,,,,,,,,,,,,,
1763973745.941264,31821.0,0.0,4382.692383,4394.102539,4490.384766,4528.333496,4390.897461,4520.256348,4551.153809,4393.077148,4589.358887,4406.153809,4514.615234,4529.615234,4573.717773,4406.922852,4389.230957,4515.256348,4545.897461,4540.384766,4510.0,4388.333496,4400.256348,4575.128418,4524.487305,4500.769043,4398.077148,4571.922852,4386.282227,4557.692383,4507.436035,4400.384766,4525.769043,4497.692383,2778.0,1.0,22.0,2304.0,56275.0,,,,0.0,4.0,4.0,4.0,4.0,4.0,4.0,4.0,4.0,4.0,4.0,4.0,4.0,4.0,4.0,4.0,4.0,4.0,4.0,4.0,4.0,4.0,4.0,4.0,4.0,4.0,4.0,4.0,4.0,4.0,4.0,4.0,4.0,100.0,,,,,,,,,,,,,,,,,,,,,,,,,,,,,,,,,,,57107.0,0.0,0.662937,0.290466,0.247375,0.644165,0.987425,0.003418,-0.063973,28.5,-25.0,-22.833334,,,,,,,,,,,,,,,,,,,,,,,,,,,,,,,,,,,,,,,,,,,,,,,,,,,,,,,,,,,,,,,,,,,,,,,,,,,,,,,,,,,,,,,,,,,,,,,,,,,,,,,,,,,,,,,,,,,,,,,,,,,,,,,,,,,,,,,,,,,,,,,,,,,,,,,,,,,,,,,,
1763973745.94517,31822.0,0.0,4382.563965,4392.820313,4490.0,4524.743652,4391.153809,4518.205078,4549.358887,4389.230957,4585.256348,4401.153809,4509.615234,4523.205078,4566.410156,4397.307617,4381.666504,4500.641113,4536.922852,4528.717773,4503.974121,4375.256348,4397.307617,4568.077148,4519.230957,4492.820313,4396.282227,4569.358887,4383.717773,4553.846191,4504.615234,4397.820313,4521.410156,4494.102539,2729.0,1.0,22.0,1536.0,56283.0,,,,0.0,4.0,4.0,4.0,4.0,4.0,4.0,4.0,4.0,4.0,4.0,4.0,4.0,4.0,4.0,4.0,4.0,4.0,4.0,4.0,4.0,4.0,4.0,4.0,4.0,4.0,4.0,4.0,4.0,4.0,4.0,4.0,4.0,100.0,,,,,,,,,,,,,,,,,,,,,,,,,,,,,,,,,,,,,,,,,,,,,,,1.943042,7.930131,0.595609,0.93914,0.906179,3.838433,7.913513,1.025478,1.034106,1.088801,3.178153,3.385154,1.5234,1.393995,0.882428,1.743416,2.738213,0.88504,1.233328,0.911489,1.913962,3.155131,0.639706,1.070026,0.635658,1.779199,3.325468,0.532892,0.68422,0.607012,1.754447,4.176249,1.029903,0.726601,0.792902,2.397011,4.128258,0.503348,0.961997,1.092466,1.517394,2.133895,0.554258,0.82536,1.080433,0.863401,2.712448,0.749998,3.812363,2.687638,0.825006,1.79219,0.665348,0.683089,0.879624,2.57143,6.356443,1.304357,0.735682,0.972429,1.212032,4.833796,1.562549,0.961262,1.030547,0.724764,1.184387,0.95599,0.644628,0.906984,1.131633,1.344646,0.969462,0.497262,1.064833,0.815027,2.385001,1.292128,1.069253,1.434057,0.935847,5.166373,1.543363,0.877179,0.889434,0.609985,2.835227,1.441906,0.74964,1.254004,0.981199,3.49217,2.326317,1.289054,1.522981,1.076891,3.699329,1.594598,0.716031,1.367308,1.383902,3.83392,1.504873,0.722835,0.830413,0.711005,4.218495,1.74456,1.123095,1.156577,1.428551,5.034916,2.188519,1.440714,1.241361,0.643465,1.187109,0.926316,0.898391,1.022878,1.359262,0.837264,1.559617,0.81185,1.043374,1.416919,1.138673,1.395217,0.766645,1.014184,2.353116,3.747813,0.563865,1.410152,1.181203,1.248578,3.159671,1.00752,0.957207,0.892532,2.566401,4.872819,0.81455,0.989063,0.975464,2.865474,4.839901,0.943898,1.105956,0.894616,2.960316,3.194667,1.033411,0.909864,1.135184,3.504058,4.968956,1.504119,1.159084,0.921561
1763973745.949076,31823.0,0.0,4378.974121,4389.743652,4488.205078,4519.102539,4390.512695,4515.769043,4546.153809,4382.94873,4578.333496,4394.358887,4504.615234,4517.05127,4561.025879,4390.384766,4375.0,4494.615234,4526.794922,4519.871582,4499.102539,4362.307617,4392.179688,4560.512695,4511.025879,4485.256348,4392.563965,4566.794922,4379.230957,4546.666504,4499.102539,4393.333496,4515.128418,4488.717773,2776.0,1.0,22.0,1536.0,56283.0,,,,0.0,4.0,4.0,4.0,4.0,4.0,4.0,4.0,4.0,4.0,4.0,4.0,4.0,4.0,4.0,4.0,4.0,4.0,4.0,4.0,4.0,4.0,4.0,4.0,4.0,4.0,4.0,4.0,4.0,4.0,4.0,4.0,4.0,100.0,,,,,,,,,,,,,,,,,,,,,,,,,,,,,,,,,,,,,,,,,,,,,,,,,,,,,,,,,,,,,,,,,,,,,,,,,,,,,,,,,,,,,,,,,,,,,,,,,,,,,,,,,,,,,,,,,,,,,,,,,,,,,,,,,,,,,,,,,,,,,,,,,,,,,,,,,,,,,,,,,,,,,,,,,,,,,,,,,,,,,,,,,,,,,,,,,,,,,,,,,,,,,,
1763973745.952982,31824.0,0.0,4375.897461,4389.358887,4489.871582,4518.333496,4392.179688,4515.897461,4545.128418,4381.282227,4575.897461,4391.282227,4504.871582,4515.769043,4561.794922,4392.692383,4376.410156,4501.153809,4521.538574,4521.410156,4500.384766,4360.384766,4389.230957,4557.563965,4506.410156,4484.615234,4391.538574,4569.230957,4378.589844,4542.692383,4496.282227,4392.94873,4513.846191,4488.077148,2904.0,1.0,22.0,512.0,56291.0,,,,0.0,4.0,4.0,4.0,4.0,4.0,4.0,4.0,4.0,4.0,4.0,4.0,4.0,4.0,4.0,4.0,4.0,4.0,4.0,4.0,4.0,4.0,4.0,4.0,4.0,4.0,4.0,4.0,4.0,4.0,4.0,4.0,4.0,100.0,,,,,,,,,,,,,,,,,,,,,,,,,,,,,,,,,,,,,,,,,,,,,,,,,,,,,,,,,,,,,,,,,,,,,,,,,,,,,,,,,,,,,,,,,,,,,,,,,,,,,,,,,,,,,,,,,,,,,,,,,,,,,,,,,,,,,,,,,,,,,,,,,,,,,,,,,,,,,,,,,,,,,,,,,,,,,,,,,,,,,,,,,,,,,,,,,,,,,,,,,,,,,,
1763973745.956889,31825.0,0.0,4375.769043,4392.692383,4496.153809,4525.0,4396.282227,4518.846191,4546.922852,4386.538574,4581.025879,4393.461426,4510.769043,4519.487305,4567.563965,4402.563965,4385.128418,4513.717773,4523.717773,4532.820313,4508.846191,4372.436035,4391.666504,4561.153809,4508.205078,4492.05127,4396.282227,4577.563965,4383.846191,4545.0,4498.717773,4398.974121,4519.615234,4493.974121,3021.0,1.0,22.0,512.0,56291.0,,,,0.0,4.0,4.0,4.0,4.0,4.0,4.0,4.0,4.0,4.0,4.0,4.0,4.0,4.0,4.0,4.0,4.0,4.0,4.0,4.0,4.0,4.0,4.0,4.0,4.0,4.0,4.0,4.0,4.0,4.0,4.0,4.0,4.0,100.0,,,,,,,,,,,,,,,,,,,,,,,,,,,,,,,,,,,57108.0,0.0,0.66292,0.290588,0.247437,0.644104,0.999634,0.010255,-0.072274,27.5,-26.333334,-23.0,,,,,,,,,,,,,,,,,,,,,,,,,,,,,,,,,,,,,,,,,,,,,,,,,,,,,,,,,,,,,,,,,,,,,,,,,,,,,,,,,,,,,,,,,,,,,,,,,,,,,,,,,,,,,,,,,,,,,,,,,,,,,,,,,,,,,,,,,,,,,,,,,,,,,,,,,,,,,,,,
1763973745.960795,31826.0,0.0,4376.922852,4396.538574,4502.820313,4534.487305,4399.230957,4521.282227,4548.717773,4393.846191,4589.230957,4396.538574,4516.922852,4523.461426,4572.05127,4411.282227,4393.333496,4520.384766,4530.128418,4544.358887,4519.358887,4389.102539,4397.94873,4567.179688,4512.820313,4501.666504,4404.358887,4586.666504,4391.153809,4550.769043,4503.205078,4406.794922,4527.563965,4501.410156,2811.0,1.0,22.0,512.0,56298.0,,,,0.0,4.0,4.0,4.0,4.0,4.0,4.0,4.0,4.0,4.0,4.0,4.0,4.0,4.0,4.0,4.0,4.0,4.0,4.0,4.0,4.0,4.0,4.0,4.0,4.0,4.0,4.0,4.0,4.0,4.0,4.0,4.0,4.0,100.0,,,,,,,,,,,,,,,,,,,,,,,,,,,,,,,,,,,,,,,,,,,,,,,,,,,,,,,,,,,,,,,,,,,,,,,,,,,,,,,,,,,,,,,,,,,,,,,,,,,,,,,,,,,,,,,,,,,,,,,,,,,,,,,,,,,,,,,,,,,,,,,,,,,,,,,,,,,,,,,,,,,,,,,,,,,,,,,,,,,,,,,,,,,,,,,,,,,,,,,,,,,,,,
1763973745.964701,31827.0,0.0,4376.025879,4396.922852,4505.256348,4539.615234,4398.205078,4519.871582,4547.179688,4396.666504,4593.846191,4395.256348,4516.794922,4522.436035,4570.384766,4410.512695,4393.461426,4514.102539,4534.743652,4545.641113,4523.717773,4397.307617,4404.358887,4570.384766,4514.358887,4506.794922,4410.512695,4590.641113,4395.512695,4554.871582,4505.0,4410.384766,4530.897461,4504.358887,2996.0,1.0,22.0,512.0,56298.0,,,,0.0,4.0,4.0,4.0,4.0,4.0,4.0,4.0,4.0,4.0,4.0,4.0,4.0,4.0,4.0,4.0,4.0,4.0,4.0,4.0,4.0,4.0,4.0,4.0,4.0,4.0,4.0,4.0,4.0,4.0,4.0,4.0,4.0,100.0,,,,,,,,,,,,,,,,,,,,,,,,,,,,,,,,,,,,,,,,,,,,,,,,,,,,,,,,,,,,,,,,,,,,,,,,,,,,,,,,,,,,,,,,,,,,,,,,,,,,,,,,,,,,,,,,,,,,,,,,,,,,,,,,,,,,,,,,,,,,,,,,,,,,,,,,,,,,,,,,,,,,,,,,,,,,,,,,,,,,,,,,,,,,,,,,,,,,,,,,,,,,,,
1763973745.968607,31828.0,0.0,4372.94873,4393.846191,4502.563965,4537.179688,4394.487305,4515.128418,4542.307617,4392.692383,4591.794922,4389.230957,4510.128418,4515.897461,4563.461426,4400.256348,4385.897461,4499.743652,4535.0,4535.641113,4518.846191,4391.666504,4408.077148,4568.974121,4511.025879,4505.769043,4411.538574,4587.436035,4395.384766,4555.0,4502.820313,4407.820313,4528.077148,4501.410156,2962.0,1.0,22.0,512.0,56306.0,,,,0.0,4.0,4.0,4.0,4.0,4.0,4.0,4.0,4.0,4.0,4.0,4.0,4.0,4.0,4.0,4.0,4.0,4.0,4.0,4.0,4.0,4.0,4.0,4.0,4.0,4.0,4.0,4.0,4.0,4.0,4.0,4.0,4.0,100.0,,,,,,,,,,,,,,,,,,,,,,,,,,,,,,,,,,,,,,,,,,,,,,,,,,,,,,,,,,,,,,,,,,,,,,,,,,,,,,,,,,,,,,,,,,,,,,,,,,,,,,,,,,,,,,,,,,,,,,,,,,,,,,,,,,,,,,,,,,,,,,,,,,,,,,,,,,,,,,,,,,,,,,,,,,,,,,,,,,,,,,,,,,,,,,,,,,,,,,,,,,,,,,
1763973745.972513,31829.0,0.0,4371.025879,4391.282227,4499.102539,4530.384766,4392.307617,4510.897461,4537.94873,4385.512695,4586.538574,4384.358887,4502.692383,4509.487305,4557.563965,4388.846191,4378.205078,4489.487305,4533.077148,4523.461426,4509.743652,4379.102539,4409.358887,4566.025879,4506.922852,4502.94873,4408.333496,4581.538574,4394.102539,4553.846191,4500.128418,4402.820313,4523.589844,4496.922852,2833.0,1.0,22.0,512.0,56306.0,,,,0.0,4.0,4.0,4.0,4.0,4.0,4.0,4.0,4.0,4.0,4.0,4.0,4.0,4.0,4.0,4.0,4.0,4.0,4.0,4.0,4.0,4.0,4.0,4.0,4.0,4.0,4.0,4.0,4.0,4.0,4.0,4.0,4.0,100.0,,,,,,,,,,,,,,,,,,,,,,,,,,,,,,,,,,,57109.0,0.0,0.66294,0.29071,0.247559,0.643982,0.985472,-0.001465,-0.055671,27.333334,-26.666666,-22.833334,,,,,,,,,,,,,,,,,,,,,,,,,,,,,,,,,,,,,,,,,,,,,,,,,,,,,,,,,,,,,,,,,,,,,,,,,,,,,,,,,,,,,,,,,,,,,,,,,,,,,,,,,,,,,,,,,,,,,,,,,,,,,,,,,,,,,,,,,,,,,,,,,,,,,,,,,,,,,,,,
1763973745.976419,31830.0,0.0,4374.358887,4393.333496,4500.384766,4525.769043,4395.256348,4511.282227,4537.94873,4381.794922,4583.846191,4386.666504,4500.897461,4509.230957,4558.589844,4385.256348,4377.94873,4491.922852,4533.589844,4519.871582,4504.615234,4372.94873,4410.641113,4566.538574,4508.333496,4503.846191,4405.769043,4579.230957,4395.641113,4555.769043,4501.922852,4401.922852,4524.230957,4497.179688,2964.0,1.0,22.0,512.0,56314.0,,,,0.0,4.0,4.0,4.0,4.0,4.0,4.0,4.0,4.0,4.0,4.0,4.0,4.0,4.0,4.0,4.0,4.0,4.0,4.0,4.0,4.0,4.0,4.0,4.0,4.0,4.0,4.0,4.0,4.0,4.0,4.0,4.0,4.0,100.0,,,,,,,,,,,,,,,,,,,,,,,,,,,,,,,,,,,,,,,,,,,,,,,,,,,,,,,,,,,,,,,,,,,,,,,,,,,,,,,,,,,,,,,,,,,,,,,,,,,,,,,,,,,,,,,,,,,,,,,,,,,,,,,,,,,,,,,,,,,,,,,,,,,,,,,,,,,,,,,,,,,,,,,,,,,,,,,,,,,,,,,,,,,,,,,,,,,,,,,,,,,,,,
1763973745.980325,31831.0,0.0,4383.846191,4400.897461,4508.717773,4527.692383,4403.333496,4517.307617,4543.333496,4384.743652,4586.794922,4397.05127,4505.641113,4517.05127,4567.307617,4391.666504,4386.538574,4504.871582,4539.102539,4528.461426,4508.333496,4381.153809,4413.589844,4572.692383,4517.692383,4510.128418,4407.692383,4584.487305,4401.410156,4562.94873,4510.0,4408.205078,4532.94873,4504.743652,2913.0,1.0,22.0,512.0,56314.0,,,,0.0,4.0,4.0,4.0,4.0,4.0,4.0,4.0,4.0,4.0,4.0,4.0,4.0,4.0,4.0,4.0,4.0,4.0,4.0,4.0,4.0,4.0,4.0,4.0,4.0,4.0,4.0,4.0,4.0,4.0,4.0,4.0,4.0,100.0,,,,,,,,,,,,,,,,,,,,,,,,,,,,,,,,,,,,,,,,,,,,,,,,,,,,,,,,,,,,,,,,,,,,,,,,,,,,,,,,,,,,,,,,,,,,,,,,,,,,,,,,,,,,,,,,,,,,,,,,,,,,,,,,,,,,,,,,,,,,,,,,,,,,,,,,,,,,,,,,,,,,,,,,,,,,,,,,,,,,,,,,,,,,,,,,,,,,,,,,,,,,,,
1763973745.984231,31832.0,0.0,4395.641113,4410.512695,4520.897461,4534.743652,4412.563965,4525.512695,4550.769043,4392.436035,4593.333496,4409.743652,4512.436035,4528.333496,4578.974121,4402.820313,4397.94873,4517.563965,4548.333496,4542.436035,4518.846191,4399.615234,4416.922852,4581.922852,4531.410156,4518.333496,4414.102539,4594.871582,4408.589844,4572.436035,4520.897461,4418.846191,4546.025879,4516.666504,2884.0,1.0,22.0,256.0,56322.0,,,,0.0,4.0,4.0,4.0,4.0,4.0,4.0,4.0,4.0,4.0,4.0,4.0,4.0,4.0,4.0,4.0,4.0,4.0,4.0,4.0,4.0,4.0,4.0,4.0,4.0,4.0,4.0,4.0,4.0,4.0,4.0,4.0,4.0,100.0,,,,,,,,,,,,,,,,,,,,,,,,,,,,,,,,,,,,,,,,,,,,,,,,,,,,,,,,,,,,,,,,,,,,,,,,,,,,,,,,,,,,,,,,,,,,,,,,,,,,,,,,,,,,,,,,,,,,,,,,,,,,,,,,,,,,,,,,,,,,,,,,,,,,,,,,,,,,,,,,,,,,,,,,,,,,,,,,,,,,,,,,,,,,,,,,,,,,,,,,,,,,,,
1763973745.988137,31833.0,0.0,4403.333496,4416.153809,4530.0,4540.512695,4417.563965,4530.512695,4555.128418,4398.846191,4597.820313,4416.666504,4514.871582,4536.153809,4586.282227,4409.358887,4404.102539,4519.871582,4556.794922,4551.282227,4528.077148,4414.230957,4417.820313,4588.333496,4541.538574,4523.205078,4420.512695,4603.333496,4412.307617,4578.589844,4528.461426,4426.794922,4555.384766,4525.769043,2823.0,1.0,22.0,256.0,56322.0,,,,0.0,4.0,4.0,4.0,4.0,4.0,4.0,4.0,4.0,4.0,4.0,4.0,4.0,4.0,4.0,4.0,4.0,4.0,4.0,4.0,4.0,4.0,4.0,4.0,4.0,4.0,4.0,4.0,4.0,4.0,4.0,4.0,4.0,100.0,,,,,,,,,,,,,,,,,,,,,,,,,,,,,,,,,,,57110.0,0.0,0.662868,0.290771,0.247681,0.643982,0.990844,0.00293,-0.059089,28.166666,-26.166666,-24.5,,,,,,,,,,,,,,,,,,,,,,,,,,,,,,,,,,,,,,,,,,,,,,,,,,,,,,,,,,,,,,,,,,,,,,,,,,,,,,,,,,,,,,,,,,,,,,,,,,,,,,,,,,,,,,,,,,,,,,,,,,,,,,,,,,,,,,,,,,,,,,,,,,,,,,,,,,,,,,,,
1763973745.992043,31834.0,0.0,4402.436035,4413.461426,4530.128418,4538.461426,4414.615234,4528.717773,4552.692383,4397.563965,4595.0,4412.820313,4509.230957,4536.153809,4584.230957,4406.025879,4399.615234,4509.743652,4559.230957,4547.94873,4528.333496,4413.077148,4412.94873,4587.307617,4541.410156,4520.897461,4420.641113,4602.436035,4408.974121,4576.666504,4527.179688,4425.641113,4554.230957,4525.512695,2781.0,1.0,22.0,512.0,56330.0,,,,0.0,4.0,4.0,4.0,4.0,4.0,4.0,4.0,4.0,4.0,4.0,4.0,4.0,4.0,4.0,4.0,4.0,4.0,4.0,4.0,4.0,4.0,4.0,4.0,4.0,4.0,4.0,4.0,4.0,4.0,4.0,4.0,4.0,100.0,,,,,,,,,,,,,,,,,,,,,,,,,,,,,,,,,,,,,,,,,,,,,,,,,,,,,,,,,,,,,,,,,,,,,,,,,,,,,,,,,,,,,,,,,,,,,,,,,,,,,,,,,,,,,,,,,,,,,,,,,,,,,,,,,,,,,,,,,,,,,,,,,,,,,,,,,,,,,,,,,,,,,,,,,,,,,,,,,,,,,,,,,,,,,,,,,,,,,,,,,,,,,,
1763973745.995949,31835.0,0.0,4393.205078,4402.179688,4520.256348,4526.794922,4404.615234,4520.512695,4543.846191,4386.410156,4584.230957,4399.743652,4497.307617,4528.461426,4573.974121,4394.230957,4386.025879,4493.333496,4553.974121,4534.487305,4517.05127,4395.641113,4402.307617,4578.205078,4531.025879,4511.794922,4411.794922,4590.897461,4399.230957,4566.794922,4517.179688,4415.0,4541.666504,4514.230957,2994.0,1.0,22.0,512.0,56330.0,,,,0.0,4.0,4.0,4.0,4.0,4.0,4.0,4.0,4.0,4.0,4.0,4.0,4.0,4.0,4.0,4.0,4.0,4.0,4.0,4.0,4.0,4.0,4.0,4.0,4.0,4.0,4.0,4.0,4.0,4.0,4.0,4.0,4.0,100.0,,,,,,,,,,,,,,,,,,,,,,,,,,,,,,,,,,,,,,,,,,,,,,,,,,,,,,,,,,,,,,,,,,,,,,,,,,,,,,,,,,,,,,,,,,,,,,,,,,,,,,,,,,,,,,,,,,,,,,,,,,,,,,,,,,,,,,,,,,,,,,,,,,,,,,,,,,,,,,,,,,,,,,,,,,,,,,,,,,,,,,,,,,,,,,,,,,,,,,,,,,,,,,
1763973745.999855,31836.0,0.0,4382.307617,4388.589844,4505.897461,4511.025879,4392.94873,4511.153809,4534.230957,4370.512695,4571.282227,4384.871582,4486.538574,4519.102539,4562.692383,4382.05127,4370.897461,4481.666504,4545.256348,4520.128418,4500.384766,4373.333496,4390.256348,4566.538574,4518.461426,4501.025879,4398.333496,4575.256348,4388.205078,4555.0,4504.743652,4401.282227,4525.0,4497.94873,2953.0,1.0,22.0,768.0,56337.0,,,,0.0,4.0,4.0,4.0,4.0,4.0,4.0,4.0,4.0,4.0,4.0,4.0,4.0,4.0,4.0,4.0,4.0,4.0,4.0,4.0,4.0,4.0,4.0,4.0,4.0,4.0,4.0,4.0,4.0,4.0,4.0,4.0,4.0,100.0,,,,,,,,,,,,,,,,,,,,,,,,,,,,,,,,,,,,,,,,,,,,,,,,,,,,,,,,,,,,,,,,,,,,,,,,,,,,,,,,,,,,,,,,,,,,,,,,,,,,,,,,,,,,,,,,,,,,,,,,,,,,,,,,,,,,,,,,,,,,,,,,,,,,,,,,,,,,,,,,,,,,,,,,,,,,,,,,,,,,,,,,,,,,,,,,,,,,,,,,,,,,,,
1763973746.003761,31837.0,0.0,4378.077148,4380.897461,4495.256348,4501.025879,4386.794922,4506.666504,4531.410156,4359.743652,4565.384766,4377.436035,4484.615234,4515.769043,4559.743652,4378.461426,4364.102539,4482.820313,4541.153809,4515.384766,4489.230957,4361.538574,4384.358887,4561.666504,4514.871582,4495.641113,4389.615234,4565.769043,4383.461426,4550.0,4499.358887,4393.846191,4515.128418,4487.05127,2807.0,1.0,22.0,768.0,56337.0,,,,0.0,4.0,4.0,4.0,4.0,4.0,4.0,4.0,4.0,4.0,4.0,4.0,4.0,4.0,4.0,4.0,4.0,4.0,4.0,4.0,4.0,4.0,4.0,4.0,4.0,4.0,4.0,4.0,4.0,4.0,4.0,4.0,4.0,100.0,,,,,,,,,,,,,,,,,,,,,,,,,,,,,,,,,,,57111.0,0.0,0.662845,0.290771,0.247742,0.643982,0.996704,0.00879,-0.065926,26.666666,-26.0,-23.5,,,,,,,,,,,,,,,,,,,,,,,,,,,,,,,,,,,,,,,,,,,,,,,,,,,,,,,,,,,,,,,,,,,,,,,,,,,,,,,,,,,,,,,,,,,,,,,,,,,,,,,,,,,,,,,,,,,,,,,,,,,,,,,,,,,,,,,,,,,,,,,,,,,,,,,,,,,,,,,,
1763973746.007667,31838.0,0.0,4385.641113,4385.256348,4494.230957,4504.102539,4390.512695,4510.897461,4540.256348,4362.692383,4571.666504,4381.794922,4495.128418,4523.461426,4569.871582,4387.05127,4370.641113,4497.436035,4547.820313,4523.846191,4492.05127,4367.307617,4389.615234,4570.512695,4526.282227,4500.512695,4392.820313,4568.461426,4388.974121,4557.307617,4506.666504,4398.846191,4518.974121,4488.974121,2986.0,1.0,22.0,1024.0,56345.0,,,,0.0,4.0,4.0,4.0,4.0,4.0,4.0,4.0,4.0,4.0,4.0,4.0,4.0,4.0,4.0,4.0,4.0,4.0,4.0,4.0,4.0,4.0,4.0,4.0,4.0,4.0,4.0,4.0,4.0,4.0,4.0,4.0,4.0,100.0,,,,,,,,,,,,,,,,,,,,,,,,,,,,,,,,,,,,,,,,,,,,,,,,,,,,,,,,,,,,,,,,,,,,,,,,,,,,,,,,,,,,,,,,,,,,,,,,,,,,,,,,,,,,,,,,,,,,,,,,,,,,,,,,,,,,,,,,,,,,,,,,,,,,,,,,,,,,,,,,,,,,,,,,,,,,,,,,,,,,,,,,,,,,,,,,,,,,,,,,,,,,,,
1763973746.011573,31839.0,0.0,4402.307617,4400.256348,4502.692383,4519.615234,4402.179688,4522.179688,4557.820313,4379.871582,4586.922852,4395.256348,4514.230957,4540.256348,4588.974121,4403.589844,4387.820313,4517.94873,4563.717773,4541.025879,4508.205078,4385.512695,4404.102539,4590.897461,4548.461426,4513.717773,4407.179688,4580.641113,4402.94873,4574.743652,4524.230957,4414.358887,4535.256348,4503.077148,2900.0,1.0,22.0,1024.0,56345.0,,,,0.0,4.0,4.0,4.0,4.0,4.0,4.0,4.0,4.0,4.0,4.0,4.0,4.0,4.0,4.0,4.0,4.0,4.0,4.0,4.0,4.0,4.0,4.0,4.0,4.0,4.0,4.0,4.0,4.0,4.0,4.0,4.0,4.0,100.0,,,,,,,,,,,,,,,,,,,,,,,,,,,,,,,,,,,,,,,,,,,,,,,,,,,,,,,,,,,,,,,,,,,,,,,,,,,,,,,,,,,,,,,,,,,,,,,,,,,,,,,,,,,,,,,,,,,,,,,,,,,,,,,,,,,,,,,,,,,,,,,,,,,,,,,,,,,,,,,,,,,,,,,,,,,,,,,,,,,,,,,,,,,,,,,,,,,,,,,,,,,,,,
1763973746.015479,31840.0,0.0,4419.615234,4418.717773,4514.743652,4538.974121,4415.384766,4534.871582,4576.153809,4403.077148,4601.410156,4409.615234,4533.205078,4558.077148,4607.307617,4419.487305,4406.025879,4534.615234,4580.897461,4557.436035,4527.692383,4403.205078,4418.974121,4612.307617,4569.743652,4528.077148,4423.589844,4593.974121,4418.205078,4592.94873,4543.333496,4431.538574,4553.846191,4520.384766,2802.0,1.0,22.0,1280.0,56353.0,,,,0.0,4.0,4.0,4.0,4.0,4.0,4.0,4.0,4.0,4.0,4.0,4.0,4.0,4.0,4.0,4.0,4.0,4.0,4.0,4.0,4.0,4.0,4.0,4.0,4.0,4.0,4.0,4.0,4.0,4.0,4.0,4.0,4.0,100.0,,,,,,,,,,,,,,,,,,,,,,,,,,,,,,,,,,,,,,,,,,,,,,,,,,,,,,,,,,,,,,,,,,,,,,,,,,,,,,,,,,,,,,,,,,,,,,,,,,,,,,,,,,,,,,,,,,,,,,,,,,,,,,,,,,,,,,,,,,,,,,,,,,,,,,,,,,,,,,,,,,,,,,,,,,,,,,,,,,,,,,,,,,,,,,,,,,,,,,,,,,,,,,
1763973746.019385,31841.0,0.0,4428.846191,4431.538574,4522.307617,4552.05127,4422.94873,4542.692383,4586.666504,4421.153809,4606.666504,4417.436035,4543.461426,4568.205078,4616.410156,4427.94873,4415.897461,4541.025879,4590.256348,4565.0,4539.358887,4410.128418,4425.256348,4622.820313,4579.615234,4535.128418,4431.410156,4599.743652,4426.282227,4602.563965,4554.615234,4440.641113,4563.717773,4531.025879,2930.0,1.0,22.0,1280.0,56353.0,,,,0.0,4.0,4.0,4.0,4.0,4.0,4.0,4.0,4.0,4.0,4.0,4.0,4.0,4.0,4.0,4.0,4.0,4.0,4.0,4.0,4.0,4.0,4.0,4.0,4.0,4.0,4.0,4.0,4.0,4.0,4.0,4.0,4.0,100.0,,,,,,,,,,,,,,,,,,,,,,,,,,,,,,,,,,,57112.0,0.0,0.662765,0.291016,0.247986,0.64386,0.999634,0.008302,-0.069833,26.166666,-27.0,-24.166666,,,,,,,,,,,,,,,,,,,,,,,,,,,,,,,,,,,,,,,,,,,,,,,,,,,,,,,,,,,,,,,,,,,,,,,,,,,,,,,,,,,,,,,,,,,,,,,,,,,,,,,,,,,,,,,,,,,,,,,,,,,,,,,,,,,,,,,,,,,,,,,,,,,,,,,,,,,,,,,,
1763973746.023291,31842.0,0.0,4425.897461,4433.333496,4520.641113,4553.333496,4421.282227,4542.307617,4585.256348,4426.025879,4601.025879,4416.025879,4542.307617,4566.153809,4613.974121,4426.666504,4413.717773,4536.025879,4586.922852,4560.769043,4538.205078,4404.743652,4419.487305,4617.563965,4574.487305,4531.538574,4425.512695,4595.384766,4423.461426,4599.615234,4553.205078,4437.820313,4559.871582,4529.743652,2250.0,1.0,22.0,1536.0,56361.0,,,,0.0,4.0,4.0,4.0,4.0,4.0,4.0,4.0,4.0,4.0,4.0,4.0,4.0,4.0,4.0,4.0,4.0,4.0,4.0,4.0,4.0,4.0,4.0,4.0,4.0,4.0,4.0,4.0,4.0,4.0,4.0,4.0,4.0,100.0,,,,,,,,,,,,,,,,,,,,,,,,,,,,,,,,,,,,,,,,,,,,,,,,,,,,,,,,,,,,,,,,,,,,,,,,,,,,,,,,,,,,,,,,,,,,,,,,,,,,,,,,,,,,,,,,,,,,,,,,,,,,,,,,,,,,,,,,,,,,,,,,,,,,,,,,,,,,,,,,,,,,,,,,,,,,,,,,,,,,,,,,,,,,,,,,,,,,,,,,,,,,,,
1763973746.027197,31843.0,0.0,4412.820313,4424.102539,4510.0,4543.717773,4412.05127,4534.358887,4573.589844,4416.666504,4589.230957,4407.820313,4531.794922,4553.205078,4603.205078,4416.538574,4402.179688,4521.282227,4572.94873,4547.820313,4527.436035,4392.307617,4405.641113,4600.512695,4557.820313,4519.487305,4409.487305,4583.333496,4411.153809,4586.538574,4540.256348,4425.641113,4545.256348,4517.94873,2918.0,1.0,22.0,1536.0,56361.0,,,,0.0,4.0,4.0,4.0,4.0,4.0,4.0,4.0,4.0,4.0,4.0,4.0,4.0,4.0,4.0,4.0,4.0,4.0,4.0,4.0,4.0,4.0,4.0,4.0,4.0,4.0,4.0,4.0,4.0,4.0,4.0,4.0,4.0,100.0,,,,,,,,,,,,,,,,,,,,,,,,,,,,,,,,,,,,,,,,,,,,,,,,,,,,,,,,,,,,,,,,,,,,,,,,,,,,,,,,,,,,,,,,,,,,,,,,,,,,,,,,,,,,,,,,,,,,,,,,,,,,,,,,,,,,,,,,,,,,,,,,,,,,,,,,,,,,,,,,,,,,,,,,,,,,,,,,,,,,,,,,,,,,,,,,,,,,,,,,,,,,,,
1763973746.031103,31844.0,0.0,4395.128418,4408.974121,4494.871582,4528.333496,4399.871582,4522.179688,4556.922852,4398.589844,4577.05127,4397.820313,4516.794922,4534.743652,4588.589844,4401.153809,4387.563965,4501.538574,4554.358887,4532.179688,4514.487305,4379.230957,4391.538574,4580.897461,4536.538574,4504.615234,4391.025879,4569.358887,4394.358887,4569.358887,4522.05127,4409.871582,4527.436035,4501.025879,2821.0,1.0,22.0,1792.0,56369.0,,,,0.0,4.0,4.0,4.0,4.0,4.0,4.0,4.0,4.0,4.0,4.0,4.0,4.0,4.0,4.0,4.0,4.0,4.0,4.0,4.0,4.0,4.0,4.0,4.0,4.0,4.0,4.0,4.0,4.0,4.0,4.0,4.0,4.0,100.0,,,,,,,,,,,,,,,,,,,,,,,,,,,,,,,,,,,,,,,,,,,,,,,,,,,,,,,,,,,,,,,,,,,,,,,,,,,,,,,,,,,,,,,,,,,,,,,,,,,,,,,,,,,,,,,,,,,,,,,,,,,,,,,,,,,,,,,,,,,,,,,,,,,,,,,,,,,,,,,,,,,,,,,,,,,,,,,,,,,,,,,,,,,,,,,,,,,,,,,,,,,,,,
1763973746.035009,31845.0,0.0,4379.102539,4394.487305,4481.153809,4513.974121,4389.615234,4510.769043,4541.666504,4380.256348,4567.820313,4390.128418,4502.179688,4517.94873,4574.102539,4385.256348,4375.897461,4483.974121,4538.461426,4520.641113,4505.512695,4369.871582,4383.077148,4566.666504,4517.563965,4492.05127,4377.563965,4558.205078,4378.974121,4554.487305,4505.384766,4396.153809,4513.717773,4485.256348,2374.0,1.0,22.0,1792.0,56369.0,,,,0.0,4.0,4.0,4.0,4.0,4.0,4.0,4.0,4.0,4.0,4.0,4.0,4.0,4.0,4.0,4.0,4.0,4.0,4.0,4.0,4.0,4.0,4.0,4.0,4.0,4.0,4.0,4.0,4.0,4.0,4.0,4.0,4.0,100.0,,,,,,,,,,,,,,,,,,,,,,,,,,,,,,,,,,,57113.0,0.0,0.662666,0.291138,0.248108,0.64386,1.001587,0.001465,-0.068368,27.166666,-26.0,-25.166666,,,,,,,,,,,,,,,,,,,,,,,,,,,,,,,,,,,,,,,,,,,,,,,,,,,,,,,,,,,,,,,,,,,,,,,,,,,,,,,,,,,,,,,,,,,,,,,,,,,,,,,,,,,,,,,,,,,,,,,,,,,,,,,,,,,,,,,,,,,,,,,,,,,,,,,,,,,,,,,,
1763973746.038915,31846.0,0.0,4369.358887,4386.025879,4474.102539,4506.538574,4384.615234,4503.974121,4532.692383,4369.615234,4563.205078,4387.692383,4492.692383,4508.205078,4562.436035,4374.487305,4370.769043,4476.794922,4529.871582,4518.205078,4502.307617,4365.769043,4381.794922,4560.897461,4506.025879,4484.871582,4372.436035,4552.436035,4369.230957,4546.282227,4495.641113,4387.94873,4507.94873,4476.153809,2912.0,1.0,22.0,2048.0,56376.0,,,,0.0,4.0,4.0,4.0,4.0,4.0,4.0,4.0,4.0,4.0,4.0,4.0,4.0,4.0,4.0,4.0,4.0,4.0,4.0,4.0,4.0,4.0,4.0,4.0,4.0,4.0,4.0,4.0,4.0,4.0,4.0,4.0,4.0,100.0,,,,,,,,,,,,,,,,,,,,,,,,,,,,,,,,,,,,,,,,,,,,,,,,,,,,,,,,,,,,,,,,,,,,,,,,,,,,,,,,,,,,,,,,,,,,,,,,,,,,,,,,,,,,,,,,,,,,,,,,,,,,,,,,,,,,,,,,,,,,,,,,,,,,,,,,,,,,,,,,,,,,,,,,,,,,,,,,,,,,,,,,,,,,,,,,,,,,,,,,,,,,,,
1763973746.042821,31847.0,0.0,4366.922852,4385.641113,4476.153809,4508.589844,4385.641113,4503.589844,4531.538574,4369.615234,4563.461426,4391.282227,4490.769043,4506.922852,4555.897461,4372.820313,4372.436035,4483.077148,4528.846191,4524.615234,4503.333496,4367.307617,4385.384766,4562.692383,4503.717773,4484.615234,4375.641113,4553.077148,4367.436035,4545.641113,4494.487305,4387.179688,4510.641113,4475.897461,2930.0,1.0,22.0,2048.0,56376.0,,,,0.0,4.0,4.0,4.0,4.0,4.0,4.0,4.0,4.0,4.0,4.0,4.0,4.0,4.0,4.0,4.0,4.0,4.0,4.0,4.0,4.0,4.0,4.0,4.0,4.0,4.0,4.0,4.0,4.0,4.0,4.0,4.0,4.0,100.0,,,,,,,,,,,,,,,,,,,,,,,,,,,,,,,,,,,,,,,,,,,,,,,,,,,,,,,,,,,,,,,,,,,,,,,,,,,,,,,,,,,,,,,,,,,,,,,,,,,,,,,,,,,,,,,,,,,,,,,,,,,,,,,,,,,,,,,,,,,,,,,,,,,,,,,,,,,,,,,,,,,,,,,,,,,,,,,,,,,,,,,,,,,,,,,,,,,,,,,,,,,,,,
1763973746.046727,31848.0,0.0,4369.871582,4391.025879,4484.743652,4517.563965,4391.153809,4508.077148,4535.641113,4377.05127,4568.077148,4397.692383,4494.871582,4511.153809,4555.0,4379.487305,4378.333496,4497.94873,4532.05127,4534.743652,4505.897461,4373.333496,4390.769043,4568.205078,4508.461426,4490.0,4384.102539,4558.974121,4372.820313,4550.512695,4499.743652,4392.692383,4518.974121,4482.563965,2659.0,1.0,22.0,2304.0,56384.0,,,,0.0,4.0,4.0,4.0,4.0,4.0,4.0,4.0,4.0,4.0,4.0,4.0,4.0,4.0,4.0,4.0,4.0,4.0,4.0,4.0,4.0,4.0,4.0,4.0,4.0,4.0,4.0,4.0,4.0,4.0,4.0,4.0,4.0,100.0,,,,,,,,,,,,,,,,,,,,,,,,,,,,,,,,,,,,,,,,,,,,,,,,,,,,,,,,,,,,,,,,,,,,,,,,,,,,,,,,,,,,,,,,,,,,,,,,,,,,,,,,,,,,,,,,,,,,,,,,,,,,,,,,,,,,,,,,,,,,,,,,,,,,,,,,,,,,,,,,,,,,,,,,,,,,,,,,,,,,,,,,,,,,,,,,,,,,,,,,,,,,,,
1763973746.050633,31849.0,0.0,4374.487305,4398.077148,4494.615234,4526.153809,4397.820313,4513.846191,4540.512695,4385.512695,4574.230957,4401.922852,4500.0,4516.025879,4558.077148,4389.487305,4384.615234,4511.922852,4535.256348,4541.282227,4507.820313,4381.410156,4396.153809,4573.589844,4515.769043,4497.94873,4393.589844,4568.077148,4381.538574,4557.179688,4506.410156,4401.025879,4528.205078,4491.410156,2824.0,1.0,22.0,2304.0,56384.0,,,,0.0,4.0,4.0,4.0,4.0,4.0,4.0,4.0,4.0,4.0,4.0,4.0,4.0,4.0,4.0,4.0,4.0,4.0,4.0,4.0,4.0,4.0,4.0,4.0,4.0,4.0,4.0,4.0,4.0,4.0,4.0,4.0,4.0,100.0,,,,,,,,,,,,,,,,,,,,,,,,,,,,,,,,,,,57114.0,0.0,0.662679,0.291077,0.247986,0.643921,1.001587,0.001465,-0.068368,28.0,-25.166666,-24.666666,,,,,,,,,,,,,,,,,,,,,,,,,,,,,,,,,,,,,,,,,,,,,,,,,,,,,,,,,,,,,,,,,,,,,,,,,,,,,,,,,,,,,,,,,,,,,,,,,,,,,,,,,,,,,,,,,,,,,,,,,,,,,,,,,,,,,,,,,,,,,,,,,,,,,,,,,,,,,,,,
1763973746.054539,31850.0,0.0,4377.05127,4403.077148,4500.512695,4528.205078,4403.077148,4517.820313,4542.94873,4389.871582,4579.230957,4399.743652,4501.794922,4517.94873,4562.179688,4396.666504,4389.102539,4517.94873,4536.666504,4541.410156,4508.461426,4388.717773,4400.769043,4576.282227,4521.153809,4504.358887,4401.025879,4577.307617,4389.487305,4562.307617,4509.871582,4408.077148,4534.487305,4498.717773,2662.0,1.0,22.0,2560.0,56392.0,,,,0.0,4.0,4.0,4.0,4.0,4.0,4.0,4.0,4.0,4.0,4.0,4.0,4.0,4.0,4.0,4.0,4.0,4.0,4.0,4.0,4.0,4.0,4.0,4.0,4.0,4.0,4.0,4.0,4.0,4.0,4.0,4.0,4.0,100.0,,,,,,,,,,,,,,,,,,,,,,,,,,,,,,,,,,,,,,,,,,,,,,,,,,,,,,,,,,,,,,,,,,,,,,,,,,,,,,,,,,,,,,,,,,,,,,,,,,,,,,,,,,,,,,,,,,,,,,,,,,,,,,,,,,,,,,,,,,,,,,,,,,,,,,,,,,,,,,,,,,,,,,,,,,,,,,,,,,,,,,,,,,,,,,,,,,,,,,,,,,,,,,
1763973746.058445,31851.0,0.0,4376.922852,4405.128418,4501.794922,4523.717773,4406.282227,4518.974121,4542.307617,4390.384766,4582.179688,4392.94873,4500.769043,4516.794922,4565.512695,4398.333496,4391.666504,4516.025879,4537.05127,4538.077148,4508.333496,4393.974121,4405.0,4576.282227,4523.077148,4507.692383,4405.897461,4584.358887,4394.743652,4565.128418,4509.487305,4412.05127,4536.794922,4503.461426,2958.0,1.0,22.0,2560.0,56392.0,,,,0.0,4.0,4.0,4.0,4.0,4.0,4.0,4.0,4.0,4.0,4.0,4.0,4.0,4.0,4.0,4.0,4.0,4.0,4.0,4.0,4.0,4.0,4.0,4.0,4.0,4.0,4.0,4.0,4.0,4.0,4.0,4.0,4.0,100.0,,,,,,,,,,,,,,,,,,,,,,,,,,,,,,,,,,,,,,,,,,,,,,,,,,,,,,,,,,,,,,,,,,,,,,,,,,,,,,,,,,,,,,,,,,,,,,,,,,,,,,,,,,,,,,,,,,,,,,,,,,,,,,,,,,,,,,,,,,,,,,,,,,,,,,,,,,,,,,,,,,,,,,,,,,,,,,,,,,,,,,,,,,,,,,,,,,,,,,,,,,,,,,
1763973746.062351,31852.0,0.0,4376.410156,4406.282227,4501.794922,4518.717773,4408.717773,4519.102539,4541.025879,4390.897461,4584.230957,4387.05127,4500.641113,4515.0,4568.205078,4396.153809,4394.102539,4511.153809,4538.205078,4536.153809,4508.974121,4398.077148,4409.230957,4575.384766,4522.692383,4509.358887,4409.743652,4588.461426,4398.846191,4567.563965,4508.589844,4413.717773,4537.820313,4507.307617,2928.0,1.0,22.0,2560.0,56400.0,,,,0.0,4.0,4.0,4.0,4.0,4.0,4.0,4.0,4.0,4.0,4.0,4.0,4.0,4.0,4.0,4.0,4.0,4.0,4.0,4.0,4.0,4.0,4.0,4.0,4.0,4.0,4.0,4.0,4.0,4.0,4.0,4.0,4.0,100.0,,,,,,,,,,,,,,,,,,,,,,,,,,,,,,,,,,,,,,,,,,,,,,,,,,,,,,,,,,,,,,,,,,,,,,,,,,,,,,,,,,,,,,,,,,,,,,,,,,,,,,,,,,,,,,,,,,,,,,,,,,,,,,,,,,,,,,,,,,,,,,,,,,,,,,,,,,,,,,,,,,,,,,,,,,,,,,,,,,,,,,,,,,,,,,,,,,,,,,,,,,,,,,
1763973746.066257,31853.0,0.0,4377.94873,4408.077148,4504.615234,4519.871582,4411.282227,4520.0,4541.666504,4393.974121,4586.538574,4386.922852,4503.974121,4515.0,4570.384766,4393.461426,4396.410156,4507.307617,4540.769043,4537.563965,4511.153809,4401.794922,4412.563965,4575.512695,4522.179688,4510.769043,4413.589844,4590.384766,4402.820313,4570.769043,4510.897461,4414.871582,4540.256348,4511.794922,2784.0,1.0,22.0,2560.0,56400.0,,,,0.0,4.0,4.0,4.0,4.0,4.0,4.0,4.0,4.0,4.0,4.0,4.0,4.0,4.0,4.0,4.0,4.0,4.0,4.0,4.0,4.0,4.0,4.0,4.0,4.0,4.0,4.0,4.0,4.0,4.0,4.0,4.0,4.0,100.0,,,,,,,,,,,,,,,,,,,,,,,,,,,,,,,,,,,57115.0,0.0,0.662696,0.290955,0.247925,0.643982,1.006471,0.000488,-0.056648,27.666666,-25.0,-26.166666,,,,,,,,,,,,,,,,,,,,,,,,,,,,,,,,,,,,,,,,,,,,,,,,,,,,,,,,,,,,,,,,,,,,,,,,,,,,,,,,,,,,,,,,,,,,,,,,,,,,,,,,,,,,,,,,,,,,,,,,,,,,,,,,,,,,,,,,,,,,,,,,,,,,,,,,,,,,,,,,
1763973746.070163,31854.0,0.0,4381.922852,4410.0,4510.128418,4527.94873,4413.846191,4522.563965,4544.871582,4398.333496,4588.846191,4392.179688,4509.102539,4517.05127,4571.922852,4391.794922,4396.922852,4504.871582,4543.461426,4539.615234,4513.461426,4403.974121,4413.077148,4576.410156,4522.563965,4512.307617,4416.410156,4591.153809,4405.769043,4574.102539,4516.794922,4416.025879,4543.846191,4516.410156,2733.0,1.0,22.0,2304.0,56408.0,,,,0.0,4.0,4.0,4.0,4.0,4.0,4.0,4.0,4.0,4.0,4.0,4.0,4.0,4.0,4.0,4.0,4.0,4.0,4.0,4.0,4.0,4.0,4.0,4.0,4.0,4.0,4.0,4.0,4.0,4.0,4.0,4.0,4.0,100.0,,,,,,,,,,,,,,,,,,,,,,,,,,,,,,,,,,,,,,,,,,,,,,,2.158352,7.067736,0.696954,0.965272,1.079781,4.50155,7.58501,1.117116,1.040261,1.386713,3.602769,3.0144,1.63129,1.311316,1.038065,1.916148,2.619547,1.239002,1.161067,1.08964,2.088902,3.006423,0.713638,1.060117,0.778112,1.923314,3.056117,0.649349,0.695725,0.718998,1.652356,3.819213,1.22897,0.772104,0.97438,2.364427,3.746605,0.703247,0.998602,1.246801,1.500147,1.933789,0.714025,0.838546,1.238127,0.932993,2.629353,1.074531,3.634549,3.101088,0.659278,1.726073,0.825027,0.685709,1.05446,2.631028,5.535458,1.478889,0.781028,1.142333,1.187977,4.483963,1.978704,0.988717,1.219553,0.64507,1.100392,1.078964,0.669805,1.06154,0.990282,1.22385,0.937173,0.484561,1.157964,0.716145,2.405762,1.50048,1.340099,1.645763,0.998433,4.316956,1.761943,0.827576,1.069657,0.55974,2.606814,1.35823,0.761379,1.497335,1.005111,3.346595,2.259334,1.219301,1.728788,1.171474,3.709449,1.543922,0.690498,1.54635,1.366533,4.09535,1.491365,0.722825,1.038344,0.757239,4.220399,1.869133,1.083346,1.362055,1.688458,4.545238,2.436948,1.410559,1.467511,0.748119,1.448779,1.010157,0.875313,1.256979,1.773375,0.977797,1.570405,0.7738,1.289901,1.86206,1.108238,1.34074,0.718501,1.278219,2.892884,3.501429,0.612249,1.367162,1.38852,1.517148,2.989365,1.129497,0.944393,1.118275,3.060627,4.339747,0.964957,0.982053,1.195642,3.551613,4.358507,1.016976,1.103047,1.123567,3.688795,2.923982,1.138661,0.896432,1.340428,4.103662,4.40642,1.571211,1.171775,1.191589
1763973746.074069,31855.0,0.0,4386.538574,4410.769043,4514.230957,4537.179688,4415.256348,4525.769043,4548.589844,4400.0,4589.615234,4397.436035,4511.922852,4519.487305,4571.666504,4390.641113,4393.846191,4502.307617,4544.358887,4538.461426,4513.589844,4401.922852,4409.102539,4576.153809,4523.717773,4512.179688,4415.512695,4591.153809,4405.384766,4575.0,4522.563965,4416.666504,4545.256348,4518.589844,2784.0,1.0,22.0,2304.0,56408.0,,,,0.0,4.0,4.0,4.0,4.0,4.0,4.0,4.0,4.0,4.0,4.0,4.0,4.0,4.0,4.0,4.0,4.0,4.0,4.0,4.0,4.0,4.0,4.0,4.0,4.0,4.0,4.0,4.0,4.0,4.0,4.0,4.0,4.0,100.0,,,,,,,,,,,,,,,,,,,,,,,,,,,,,,,,,,,,,,,,,,,,,,,,,,,,,,,,,,,,,,,,,,,,,,,,,,,,,,,,,,,,,,,,,,,,,,,,,,,,,,,,,,,,,,,,,,,,,,,,,,,,,,,,,,,,,,,,,,,,,,,,,,,,,,,,,,,,,,,,,,,,,,,,,,,,,,,,,,,,,,,,,,,,,,,,,,,,,,,,,,,,,,
1763973746.077975,31856.0,0.0,4388.974121,4409.743652,4512.307617,4540.512695,4414.487305,4527.436035,4549.615234,4397.05127,4587.692383,4397.563965,4509.871582,4519.871582,4569.615234,4388.589844,4387.563965,4500.256348,4543.077148,4533.205078,4510.384766,4394.487305,4400.769043,4572.692383,4523.846191,4508.205078,4409.487305,4589.230957,4400.769043,4570.897461,4523.589844,4415.384766,4541.666504,4516.025879,2912.0,1.0,22.0,768.0,56416.0,,,,0.0,4.0,4.0,4.0,4.0,4.0,4.0,4.0,4.0,4.0,4.0,4.0,4.0,4.0,4.0,4.0,4.0,4.0,4.0,4.0,4.0,4.0,4.0,4.0,4.0,4.0,4.0,4.0,4.0,4.0,4.0,4.0,4.0,100.0,,,,,,,,,,,,,,,,,,,,,,,,,,,,,,,,,,,,,,,,,,,,,,,,,,,,,,,,,,,,,,,,,,,,,,,,,,,,,,,,,,,,,,,,,,,,,,,,,,,,,,,,,,,,,,,,,,,,,,,,,,,,,,,,,,,,,,,,,,,,,,,,,,,,,,,,,,,,,,,,,,,,,,,,,,,,,,,,,,,,,,,,,,,,,,,,,,,,,,,,,,,,,,
1763973746.081881,31857.0,0.0,4388.717773,4407.820313,4504.102539,4535.256348,4412.307617,4526.922852,4547.436035,4391.282227,4583.717773,4392.563965,4504.871582,4518.589844,4567.563965,4386.922852,4381.282227,4501.922852,4541.410156,4527.307617,4506.025879,4383.846191,4390.769043,4566.410156,4521.922852,4500.512695,4400.0,4585.128418,4393.974121,4563.205078,4518.846191,4412.179688,4533.717773,4509.615234,3031.0,1.0,22.0,768.0,56416.0,,,,0.0,4.0,4.0,4.0,4.0,4.0,4.0,4.0,4.0,4.0,4.0,4.0,4.0,4.0,4.0,4.0,4.0,4.0,4.0,4.0,4.0,4.0,4.0,4.0,4.0,4.0,4.0,4.0,4.0,4.0,4.0,4.0,4.0,100.0,,,,,,,,,,,,,,,,,,,,,,,,,,,,,,,,,,,57116.0,0.0,0.662799,0.29071,0.24762,0.644104,0.999145,-0.000488,-0.068856,28.333334,-25.166666,-24.666666,,,,,,,,,,,,,,,,,,,,,,,,,,,,,,,,,,,,,,,,,,,,,,,,,,,,,,,,,,,,,,,,,,,,,,,,,,,,,,,,,,,,,,,,,,,,,,,,,,,,,,,,,,,,,,,,,,,,,,,,,,,,,,,,,,,,,,,,,,,,,,,,,,,,,,,,,,,,,,,,
1763973746.085787,31858.0,0.0,4387.692383,4407.179688,4494.871582,4526.410156,4410.769043,4525.769043,4544.358887,4387.692383,4580.512695,4388.717773,4501.794922,4517.820313,4567.94873,4388.333496,4379.230957,4509.615234,4542.05127,4526.153809,4504.102539,4375.769043,4383.846191,4560.384766,4519.487305,4492.179688,4391.153809,4580.384766,4388.717773,4556.410156,4512.307617,4409.358887,4525.769043,4503.717773,2819.0,1.0,22.0,1024.0,56423.0,,,,0.0,4.0,4.0,4.0,4.0,4.0,4.0,4.0,4.0,4.0,4.0,4.0,4.0,4.0,4.0,4.0,4.0,4.0,4.0,4.0,4.0,4.0,4.0,4.0,4.0,4.0,4.0,4.0,4.0,4.0,4.0,4.0,4.0,100.0,,,,,,,,,,,,,,,,,,,,,,,,,,,,,,,,,,,,,,,,,,,,,,,,,,,,,,,,,,,,,,,,,,,,,,,,,,,,,,,,,,,,,,,,,,,,,,,,,,,,,,,,,,,,,,,,,,,,,,,,,,,,,,,,,,,,,,,,,,,,,,,,,,,,,,,,,,,,,,,,,,,,,,,,,,,,,,,,,,,,,,,,,,,,,,,,,,,,,,,,,,,,,,
1763973746.089693,31859.0,0.0,4389.358887,4408.974121,4491.153809,4522.05127,4411.922852,4526.666504,4543.974121,4390.128418,4581.282227,4392.820313,4504.615234,4520.512695,4572.436035,4395.0,4383.461426,4521.282227,4546.794922,4532.179688,4507.563965,4375.512695,4383.077148,4557.563965,4519.102539,4487.563965,4387.692383,4577.94873,4388.077148,4555.384766,4510.0,4409.871582,4522.820313,4503.717773,3004.0,1.0,22.0,1024.0,56423.0,,,,0.0,4.0,4.0,4.0,4.0,4.0,4.0,4.0,4.0,4.0,4.0,4.0,4.0,4.0,4.0,4.0,4.0,4.0,4.0,4.0,4.0,4.0,4.0,4.0,4.0,4.0,4.0,4.0,4.0,4.0,4.0,4.0,4.0,100.0,,,,,,,,,,,,,,,,,,,,,,,,,,,,,,,,,,,,,,,,,,,,,,,,,,,,,,,,,,,,,,,,,,,,,,,,,,,,,,,,,,,,,,,,,,,,,,,,,,,,,,,,,,,,,,,,,,,,,,,,,,,,,,,,,,,,,,,,,,,,,,,,,,,,,,,,,,,,,,,,,,,,,,,,,,,,,,,,,,,,,,,,,,,,,,,,,,,,,,,,,,,,,,
1763973746.093599,31860.0,0.0,4395.384766,4412.307617,4495.256348,4526.666504,4416.025879,4530.384766,4547.692383,4398.205078,4587.05127,4405.641113,4512.307617,4526.794922,4579.871582,4404.615234,4392.179688,4530.897461,4553.974121,4542.179688,4514.871582,4383.077148,4388.205078,4559.358887,4522.436035,4488.846191,4390.512695,4579.230957,4391.666504,4561.025879,4514.615234,4413.846191,4526.153809,4510.512695,2972.0,1.0,22.0,512.0,56431.0,,,,0.0,4.0,4.0,4.0,4.0,4.0,4.0,4.0,4.0,4.0,4.0,4.0,4.0,4.0,4.0,4.0,4.0,4.0,4.0,4.0,4.0,4.0,4.0,4.0,4.0,4.0,4.0,4.0,4.0,4.0,4.0,4.0,4.0,100.0,,,,,,,,,,,,,,,,,,,,,,,,,,,,,,,,,,,,,,,,,,,,,,,,,,,,,,,,,,,,,,,,,,,,,,,,,,,,,,,,,,,,,,,,,,,,,,,,,,,,,,,,,,,,,,,,,,,,,,,,,,,,,,,,,,,,,,,,,,,,,,,,,,,,,,,,,,,,,,,,,,,,,,,,,,,,,,,,,,,,,,,,,,,,,,,,,,,,,,,,,,,,,,
1763973746.097505,31861.0,0.0,4403.333496,4414.230957,4503.717773,4536.666504,4420.641113,4534.487305,4553.461426,4407.179688,4594.615234,4418.974121,4519.871582,4533.974121,4586.794922,4412.05127,4401.025879,4531.410156,4560.256348,4549.230957,4522.307617,4392.307617,4395.512695,4564.230957,4527.820313,4494.102539,4396.666504,4583.077148,4396.410156,4569.487305,4523.461426,4418.333496,4532.820313,4520.128418,2838.0,1.0,22.0,512.0,56431.0,,,,0.0,4.0,4.0,4.0,4.0,4.0,4.0,4.0,4.0,4.0,4.0,4.0,4.0,4.0,4.0,4.0,4.0,4.0,4.0,4.0,4.0,4.0,4.0,4.0,4.0,4.0,4.0,4.0,4.0,4.0,4.0,4.0,4.0,100.0,,,,,,,,,,,,,,,,,,,,,,,,,,,,,,,,,,,57117.0,0.0,0.662855,0.290466,0.247437,0.644226,0.996215,0.000977,-0.067879,28.166666,-25.0,-24.166666,,,,,,,,,,,,,,,,,,,,,,,,,,,,,,,,,,,,,,,,,,,,,,,,,,,,,,,,,,,,,,,,,,,,,,,,,,,,,,,,,,,,,,,,,,,,,,,,,,,,,,,,,,,,,,,,,,,,,,,,,,,,,,,,,,,,,,,,,,,,,,,,,,,,,,,,,,,,,,,,
1763973746.101411,31862.0,0.0,4409.230957,4412.436035,4510.128418,4544.102539,4422.820313,4535.641113,4557.820313,4411.666504,4598.974121,4422.563965,4522.820313,4538.333496,4589.358887,4412.820313,4405.256348,4520.641113,4562.94873,4548.589844,4525.769043,4396.153809,4400.384766,4569.487305,4532.563965,4499.487305,4401.025879,4586.153809,4399.102539,4574.743652,4530.0,4419.615234,4538.461426,4525.384766,2972.0,1.0,22.0,512.0,56439.0,,,,0.0,4.0,4.0,4.0,4.0,4.0,4.0,4.0,4.0,4.0,4.0,4.0,4.0,4.0,4.0,4.0,4.0,4.0,4.0,4.0,4.0,4.0,4.0,4.0,4.0,4.0,4.0,4.0,4.0,4.0,4.0,4.0,4.0,100.0,,,,,,,,,,,,,,,,,,,,,,,,,,,,,,,,,,,,,,,,,,,,,,,,,,,,,,,,,,,,,,,,,,,,,,,,,,,,,,,,,,,,,,,,,,,,,,,,,,,,,,,,,,,,,,,,,,,,,,,,,,,,,,,,,,,,,,,,,,,,,,,,,,,,,,,,,,,,,,,,,,,,,,,,,,,,,,,,,,,,,,,,,,,,,,,,,,,,,,,,,,,,,,
1763973746.105317,31863.0,0.0,4409.871582,4407.05127,4509.102539,4542.820313,4421.282227,4532.436035,4557.563965,4409.487305,4597.563965,4412.563965,4520.769043,4537.692383,4586.282227,4407.05127,4403.589844,4503.589844,4561.794922,4541.666504,4523.846191,4392.563965,4400.641113,4572.692383,4533.846191,4502.307617,4400.384766,4585.641113,4398.461426,4573.717773,4529.487305,4415.641113,4539.358887,4521.666504,2919.0,1.0,22.0,512.0,56439.0,,,,0.0,4.0,4.0,4.0,4.0,4.0,4.0,4.0,4.0,4.0,4.0,4.0,4.0,4.0,4.0,4.0,4.0,4.0,4.0,4.0,4.0,4.0,4.0,4.0,4.0,4.0,4.0,4.0,4.0,4.0,4.0,4.0,4.0,100.0,,,,,,,,,,,,,,,,,,,,,,,,,,,,,,,,,,,,,,,,,,,,,,,,,,,,,,,,,,,,,,,,,,,,,,,,,,,,,,,,,,,,,,,,,,,,,,,,,,,,,,,,,,,,,,,,,,,,,,,,,,,,,,,,,,,,,,,,,,,,,,,,,,,,,,,,,,,,,,,,,,,,,,,,,,,,,,,,,,,,,,,,,,,,,,,,,,,,,,,,,,,,,,
1763973746.109223,31864.0,0.0,4405.769043,4400.0,4500.384766,4532.94873,4416.153809,4526.153809,4552.94873,4402.05127,4590.769043,4394.487305,4516.153809,4533.205078,4579.615234,4398.846191,4396.922852,4490.512695,4558.846191,4534.487305,4518.333496,4384.487305,4396.410156,4573.205078,4531.538574,4501.282227,4395.0,4580.512695,4395.0,4567.179688,4522.307617,4407.179688,4534.230957,4510.0,2879.0,1.0,22.0,768.0,56447.0,,,,0.0,4.0,4.0,4.0,4.0,4.0,4.0,4.0,4.0,4.0,4.0,4.0,4.0,4.0,4.0,4.0,4.0,4.0,4.0,4.0,4.0,4.0,4.0,4.0,4.0,4.0,4.0,4.0,4.0,4.0,4.0,4.0,4.0,100.0,,,,,,,,,,,,,,,,,,,,,,,,,,,,,,,,,,,,,,,,,,,,,,,,,,,,,,,,,,,,,,,,,,,,,,,,,,,,,,,,,,,,,,,,,,,,,,,,,,,,,,,,,,,,,,,,,,,,,,,,,,,,,,,,,,,,,,,,,,,,,,,,,,,,,,,,,,,,,,,,,,,,,,,,,,,,,,,,,,,,,,,,,,,,,,,,,,,,,,,,,,,,,,
1763973746.113129,31865.0,0.0,4399.743652,4393.333496,4488.077148,4519.871582,4408.846191,4519.743652,4546.410156,4393.205078,4581.538574,4378.846191,4511.922852,4527.307617,4572.94873,4392.820313,4387.692383,4489.615234,4555.769043,4531.922852,4511.410156,4376.538574,4390.128418,4572.05127,4526.794922,4497.179688,4387.692383,4572.179688,4389.230957,4558.589844,4512.05127,4396.282227,4523.974121,4495.641113,2827.0,1.0,22.0,768.0,56447.0,,,,0.0,4.0,4.0,4.0,4.0,4.0,4.0,4.0,4.0,4.0,4.0,4.0,4.0,4.0,4.0,4.0,4.0,4.0,4.0,4.0,4.0,4.0,4.0,4.0,4.0,4.0,4.0,4.0,4.0,4.0,4.0,4.0,4.0,100.0,,,,,,,,,,,,,,,,,,,,,,,,,,,,,,,,,,,57118.0,0.0,0.662855,0.290466,0.247437,0.644226,1.009401,-0.003907,-0.070809,27.166666,-25.166666,-24.666666,,,,,,,,,,,,,,,,,,,,,,,,,,,,,,,,,,,,,,,,,,,,,,,,,,,,,,,,,,,,,,,,,,,,,,,,,,,,,,,,,,,,,,,,,,,,,,,,,,,,,,,,,,,,,,,,,,,,,,,,,,,,,,,,,,,,,,,,,,,,,,,,,,,,,,,,,,,,,,,,
1763973746.117035,31866.0,0.0,4395.128418,4388.846191,4478.589844,4509.358887,4401.666504,4516.410156,4541.153809,4386.410156,4573.333496,4373.846191,4509.358887,4522.563965,4569.615234,4391.153809,4378.717773,4500.384766,4553.205078,4533.589844,4504.871582,4372.307617,4385.128418,4571.153809,4521.794922,4492.563965,4382.436035,4563.589844,4382.307617,4551.922852,4502.94873,4386.666504,4512.820313,4484.871582,2785.0,1.0,22.0,1024.0,56455.0,,,,0.0,4.0,4.0,4.0,4.0,4.0,4.0,4.0,4.0,4.0,4.0,4.0,4.0,4.0,4.0,4.0,4.0,4.0,4.0,4.0,4.0,4.0,4.0,4.0,4.0,4.0,4.0,4.0,4.0,4.0,4.0,4.0,4.0,100.0,,,,,,,,,,,,,,,,,,,,,,,,,,,,,,,,,,,,,,,,,,,,,,,,,,,,,,,,,,,,,,,,,,,,,,,,,,,,,,,,,,,,,,,,,,,,,,,,,,,,,,,,,,,,,,,,,,,,,,,,,,,,,,,,,,,,,,,,,,,,,,,,,,,,,,,,,,,,,,,,,,,,,,,,,,,,,,,,,,,,,,,,,,,,,,,,,,,,,,,,,,,,,,
1763973746.120941,31867.0,0.0,4393.717773,4387.179688,4476.666504,4505.769043,4397.05127,4517.436035,4540.128418,4383.461426,4569.230957,4380.384766,4508.589844,4520.256348,4570.512695,4392.692383,4373.717773,4513.461426,4551.410156,4535.384766,4500.384766,4372.563965,4385.384766,4572.563965,4519.230957,4491.666504,4381.922852,4558.846191,4376.666504,4549.615234,4498.717773,4382.179688,4506.025879,4481.025879,2998.0,1.0,22.0,1024.0,56455.0,,,,0.0,4.0,4.0,4.0,4.0,4.0,4.0,4.0,4.0,4.0,4.0,4.0,4.0,4.0,4.0,4.0,4.0,4.0,4.0,4.0,4.0,4.0,4.0,4.0,4.0,4.0,4.0,4.0,4.0,4.0,4.0,4.0,4.0,100.0,,,,,,,,,,,,,,,,,,,,,,,,,,,,,,,,,,,,,,,,,,,,,,,,,,,,,,,,,,,,,,,,,,,,,,,,,,,,,,,,,,,,,,,,,,,,,,,,,,,,,,,,,,,,,,,,,,,,,,,,,,,,,,,,,,,,,,,,,,,,,,,,,,,,,,,,,,,,,,,,,,,,,,,,,,,,,,,,,,,,,,,,,,,,,,,,,,,,,,,,,,,,,,
1763973746.124847,31868.0,0.0,4395.641113,4388.846191,4482.436035,4509.871582,4396.410156,4521.666504,4543.974121,4384.743652,4570.384766,4392.820313,4509.358887,4521.410156,4574.230957,4395.897461,4375.0,4519.615234,4550.641113,4535.0,4500.0,4376.794922,4392.94873,4577.436035,4520.769043,4496.794922,4387.692383,4560.641113,4375.256348,4552.820313,4500.897461,4384.615234,4506.794922,4483.205078,2956.0,1.0,22.0,1280.0,56462.0,,,,0.0,4.0,4.0,4.0,4.0,4.0,4.0,4.0,4.0,4.0,4.0,4.0,4.0,4.0,4.0,4.0,4.0,4.0,4.0,4.0,4.0,4.0,4.0,4.0,4.0,4.0,4.0,4.0,4.0,4.0,4.0,4.0,4.0,100.0,,,,,,,,,,,,,,,,,,,,,,,,,,,,,,,,,,,,,,,,,,,,,,,,,,,,,,,,,,,,,,,,,,,,,,,,,,,,,,,,,,,,,,,,,,,,,,,,,,,,,,,,,,,,,,,,,,,,,,,,,,,,,,,,,,,,,,,,,,,,,,,,,,,,,,,,,,,,,,,,,,,,,,,,,,,,,,,,,,,,,,,,,,,,,,,,,,,,,,,,,,,,,,
1763973746.128753,31869.0,0.0,4399.230957,4393.077148,4491.538574,4519.487305,4399.487305,4526.666504,4551.538574,4390.128418,4576.282227,4403.333496,4512.05127,4525.769043,4579.358887,4400.128418,4382.563965,4517.307617,4551.666504,4534.871582,4504.871582,4383.846191,4405.384766,4584.743652,4526.153809,4506.794922,4397.820313,4568.717773,4379.487305,4560.769043,4508.333496,4392.436035,4514.871582,4487.94873,2811.0,1.0,22.0,1280.0,56462.0,,,,0.0,4.0,4.0,4.0,4.0,4.0,4.0,4.0,4.0,4.0,4.0,4.0,4.0,4.0,4.0,4.0,4.0,4.0,4.0,4.0,4.0,4.0,4.0,4.0,4.0,4.0,4.0,4.0,4.0,4.0,4.0,4.0,4.0,100.0,,,,,,,,,,,,,,,,,,,,,,,,,,,,,,,,,,,57119.0,0.0,0.662905,0.290405,0.247375,0.644226,1.005005,0.013185,-0.057624,27.666666,-26.166666,-24.5,,,,,,,,,,,,,,,,,,,,,,,,,,,,,,,,,,,,,,,,,,,,,,,,,,,,,,,,,,,,,,,,,,,,,,,,,,,,,,,,,,,,,,,,,,,,,,,,,,,,,,,,,,,,,,,,,,,,,,,,,,,,,,,,,,,,,,,,,,,,,,,,,,,,,,,,,,,,,,,,
1763973746.132659,31870.0,0.0,4402.05127,4397.94873,4498.461426,4530.512695,4404.487305,4529.871582,4559.487305,4397.820313,4584.358887,4407.94873,4516.794922,4531.794922,4584.871582,4405.512695,4393.205078,4514.230957,4554.615234,4539.487305,4514.230957,4391.794922,4417.307617,4592.179688,4532.563965,4517.436035,4408.589844,4579.487305,4387.94873,4570.384766,4517.179688,4401.153809,4526.153809,4492.692383,2993.0,1.0,22.0,1536.0,56470.0,,,,0.0,4.0,4.0,4.0,4.0,4.0,4.0,4.0,4.0,4.0,4.0,4.0,4.0,4.0,4.0,4.0,4.0,4.0,4.0,4.0,4.0,4.0,4.0,4.0,4.0,4.0,4.0,4.0,4.0,4.0,4.0,4.0,4.0,100.0,,,,,,,,,,,,,,,,,,,,,,,,,,,,,,,,,,,,,,,,,,,,,,,,,,,,,,,,,,,,,,,,,,,,,,,,,,,,,,,,,,,,,,,,,,,,,,,,,,,,,,,,,,,,,,,,,,,,,,,,,,,,,,,,,,,,,,,,,,,,,,,,,,,,,,,,,,,,,,,,,,,,,,,,,,,,,,,,,,,,,,,,,,,,,,,,,,,,,,,,,,,,,,
1763973746.136565,31871.0,0.0,4401.922852,4400.769043,4500.0,4538.461426,4408.333496,4530.0,4563.974121,4404.615234,4591.153809,4406.666504,4522.179688,4536.025879,4589.230957,4410.512695,4401.666504,4518.333496,4557.307617,4549.230957,4524.102539,4397.692383,4422.94873,4596.282227,4536.153809,4523.589844,4415.256348,4587.563965,4396.282227,4577.563965,4522.94873,4406.410156,4535.0,4495.897461,2907.0,1.0,22.0,1536.0,56470.0,,,,0.0,4.0,4.0,4.0,4.0,4.0,4.0,4.0,4.0,4.0,4.0,4.0,4.0,4.0,4.0,4.0,4.0,4.0,4.0,4.0,4.0,4.0,4.0,4.0,4.0,4.0,4.0,4.0,4.0,4.0,4.0,4.0,4.0,100.0,,,,,,,,,,,,,,,,,,,,,,,,,,,,,,,,,,,,,,,,,,,,,,,,,,,,,,,,,,,,,,,,,,,,,,,,,,,,,,,,,,,,,,,,,,,,,,,,,,,,,,,,,,,,,,,,,,,,,,,,,,,,,,,,,,,,,,,,,,,,,,,,,,,,,,,,,,,,,,,,,,,,,,,,,,,,,,,,,,,,,,,,,,,,,,,,,,,,,,,,,,,,,,
1763973746.140471,31872.0,0.0,4396.666504,4398.717773,4495.512695,4538.589844,4407.94873,4526.282227,4561.410156,4405.897461,4592.94873,4401.666504,4523.846191,4534.487305,4589.358887,4411.666504,4402.820313,4528.589844,4555.769043,4557.179688,4528.589844,4397.820313,4419.230957,4593.717773,4533.333496,4521.538574,4413.846191,4588.589844,4398.974121,4577.94873,4522.05127,4405.256348,4535.769043,4496.282227,2813.0,1.0,22.0,1792.0,56478.0,,,,0.0,4.0,4.0,4.0,4.0,4.0,4.0,4.0,4.0,4.0,4.0,4.0,4.0,4.0,4.0,4.0,4.0,4.0,4.0,4.0,4.0,4.0,4.0,4.0,4.0,4.0,4.0,4.0,4.0,4.0,4.0,4.0,4.0,100.0,,,,,,,,,,,,,,,,,,,,,,,,,,,,,,,,,,,,,,,,,,,,,,,,,,,,,,,,,,,,,,,,,,,,,,,,,,,,,,,,,,,,,,,,,,,,,,,,,,,,,,,,,,,,,,,,,,,,,,,,,,,,,,,,,,,,,,,,,,,,,,,,,,,,,,,,,,,,,,,,,,,,,,,,,,,,,,,,,,,,,,,,,,,,,,,,,,,,,,,,,,,,,,
1763973746.144377,31873.0,0.0,4385.512695,4390.641113,4486.666504,4529.487305,4402.179688,4519.102539,4550.897461,4398.717773,4587.179688,4394.743652,4517.820313,4525.0,4581.666504,4405.897461,4394.871582,4534.743652,4546.922852,4555.0,4524.102539,4390.256348,4406.794922,4583.205078,4522.94873,4510.641113,4403.205078,4581.282227,4392.94873,4569.102539,4513.333496,4397.94873,4526.922852,4493.333496,2940.0,1.0,22.0,1792.0,56478.0,,,,0.0,4.0,4.0,4.0,4.0,4.0,4.0,4.0,4.0,4.0,4.0,4.0,4.0,4.0,4.0,4.0,4.0,4.0,4.0,4.0,4.0,4.0,4.0,4.0,4.0,4.0,4.0,4.0,4.0,4.0,4.0,4.0,4.0,100.0,,,,,,,,,,,,,,,,,,,,,,,,,,,,,,,,,,,57120.0,0.0,0.662895,0.290344,0.247314,0.644287,0.999145,0.00586,-0.066903,29.5,-24.833334,-24.333334,,,,,,,,,,,,,,,,,,,,,,,,,,,,,,,,,,,,,,,,,,,,,,,,,,,,,,,,,,,,,,,,,,,,,,,,,,,,,,,,,,,,,,,,,,,,,,,,,,,,,,,,,,,,,,,,,,,,,,,,,,,,,,,,,,,,,,,,,,,,,,,,,,,,,,,,,,,,,,,,
1763973746.148283,31874.0,0.0,4370.897461,4380.0,4476.794922,4514.615234,4392.94873,4510.0,4536.025879,4385.641113,4575.897461,4387.179688,4504.358887,4510.256348,4566.410156,4393.717773,4381.410156,4527.307617,4532.820313,4540.769043,4512.05127,4377.94873,4390.897461,4567.563965,4508.589844,4495.256348,4387.436035,4569.230957,4380.256348,4554.102539,4500.384766,4387.94873,4512.692383,4488.333496,2256.0,1.0,22.0,2048.0,56486.0,,,,0.0,4.0,4.0,4.0,4.0,4.0,4.0,4.0,4.0,4.0,4.0,4.0,4.0,4.0,4.0,4.0,4.0,4.0,4.0,4.0,4.0,4.0,4.0,4.0,4.0,4.0,4.0,4.0,4.0,4.0,4.0,4.0,4.0,100.0,,,,,,,,,,,,,,,,,,,,,,,,,,,,,,,,,,,,,,,,,,,,,,,,,,,,,,,,,,,,,,,,,,,,,,,,,,,,,,,,,,,,,,,,,,,,,,,,,,,,,,,,,,,,,,,,,,,,,,,,,,,,,,,,,,,,,,,,,,,,,,,,,,,,,,,,,,,,,,,,,,,,,,,,,,,,,,,,,,,,,,,,,,,,,,,,,,,,,,,,,,,,,,
1763973746.152189,31875.0,0.0,4358.589844,4373.077148,4470.641113,4502.563965,4385.641113,4502.94873,4523.717773,4374.358887,4565.128418,4380.641113,4490.256348,4497.179688,4550.384766,4381.153809,4370.512695,4507.179688,4519.871582,4522.563965,4498.846191,4368.333496,4379.358887,4553.846191,4496.922852,4483.333496,4375.128418,4559.487305,4368.974121,4540.512695,4490.256348,4381.025879,4501.794922,4484.743652,2929.0,1.0,22.0,2048.0,56486.0,,,,0.0,4.0,4.0,4.0,4.0,4.0,4.0,4.0,4.0,4.0,4.0,4.0,4.0,4.0,4.0,4.0,4.0,4.0,4.0,4.0,4.0,4.0,4.0,4.0,4.0,4.0,4.0,4.0,4.0,4.0,4.0,4.0,4.0,100.0,,,,,,,,,,,,,,,,,,,,,,,,,,,,,,,,,,,,,,,,,,,,,,,,,,,,,,,,,,,,,,,,,,,,,,,,,,,,,,,,,,,,,,,,,,,,,,,,,,,,,,,,,,,,,,,,,,,,,,,,,,,,,,,,,,,,,,,,,,,,,,,,,,,,,,,,,,,,,,,,,,,,,,,,,,,,,,,,,,,,,,,,,,,,,,,,,,,,,,,,,,,,,,
1763973746.156095,31876.0,0.0,4355.0,4375.641113,4472.05127,4501.025879,4384.871582,4501.666504,4520.769043,4372.179688,4561.025879,4378.205078,4483.717773,4492.820313,4543.461426,4375.641113,4369.487305,4485.641113,4515.512695,4512.436035,4492.692383,4367.94873,4378.974121,4549.487305,4493.333496,4481.538574,4373.974121,4558.589844,4367.307617,4536.410156,4489.487305,4382.05127,4502.05127,4485.897461,2831.0,1.0,22.0,2304.0,56494.0,,,,0.0,4.0,4.0,4.0,4.0,4.0,4.0,4.0,4.0,4.0,4.0,4.0,4.0,4.0,4.0,4.0,4.0,4.0,4.0,4.0,4.0,4.0,4.0,4.0,4.0,4.0,4.0,4.0,4.0,4.0,4.0,4.0,4.0,100.0,,,,,,,,,,,,,,,,,,,,,,,,,,,,,,,,,,,,,,,,,,,,,,,,,,,,,,,,,,,,,,,,,,,,,,,,,,,,,,,,,,,,,,,,,,,,,,,,,,,,,,,,,,,,,,,,,,,,,,,,,,,,,,,,,,,,,,,,,,,,,,,,,,,,,,,,,,,,,,,,,,,,,,,,,,,,,,,,,,,,,,,,,,,,,,,,,,,,,,,,,,,,,,
1763973746.160001,31877.0,0.0,4362.692383,4388.077148,4480.256348,4511.538574,4391.410156,4507.94873,4529.102539,4381.153809,4565.897461,4382.179688,4488.846191,4499.487305,4550.769043,4380.384766,4379.102539,4476.410156,4522.692383,4517.94873,4498.077148,4378.205078,4390.256348,4557.05127,4499.743652,4490.384766,4385.256348,4567.563965,4377.05127,4544.487305,4499.487305,4391.538574,4513.974121,4492.436035,2379.0,1.0,22.0,2304.0,56494.0,,,,0.0,4.0,4.0,4.0,4.0,4.0,4.0,4.0,4.0,4.0,4.0,4.0,4.0,4.0,4.0,4.0,4.0,4.0,4.0,4.0,4.0,4.0,4.0,4.0,4.0,4.0,4.0,4.0,4.0,4.0,4.0,4.0,4.0,100.0,,,,,,,,,,,,,,,,,,,,,,,,,,,,,,,,,,,57121.0,0.0,0.662945,0.290283,0.247253,0.644287,0.999145,0.00586,-0.066903,27.166666,-25.666666,-24.333334,,,,,,,,,,,,,,,,,,,,,,,,,,,,,,,,,,,,,,,,,,,,,,,,,,,,,,,,,,,,,,,,,,,,,,,,,,,,,,,,,,,,,,,,,,,,,,,,,,,,,,,,,,,,,,,,,,,,,,,,,,,,,,,,,,,,,,,,,,,,,,,,,,,,,,,,,,,,,,,,
1763973746.163907,31878.0,0.0,4377.94873,4404.743652,4490.512695,4527.94873,4401.922852,4519.102539,4544.230957,4396.282227,4576.282227,4391.922852,4501.922852,4513.589844,4568.974121,4392.05127,4393.461426,4485.128418,4538.205078,4536.282227,4512.692383,4393.846191,4406.538574,4571.666504,4512.820313,4504.487305,4402.563965,4581.410156,4391.794922,4559.487305,4515.0,4405.384766,4530.512695,4500.769043,2922.0,1.0,22.0,1792.0,56501.0,,,,0.0,4.0,4.0,4.0,4.0,4.0,4.0,4.0,4.0,4.0,4.0,4.0,4.0,4.0,4.0,4.0,4.0,4.0,4.0,4.0,4.0,4.0,4.0,4.0,4.0,4.0,4.0,4.0,4.0,4.0,4.0,4.0,4.0,100.0,,,,,,,,,,,,,,,,,,,,,,,,,,,,,,,,,,,,,,,,,,,,,,,,,,,,,,,,,,,,,,,,,,,,,,,,,,,,,,,,,,,,,,,,,,,,,,,,,,,,,,,,,,,,,,,,,,,,,,,,,,,,,,,,,,,,,,,,,,,,,,,,,,,,,,,,,,,,,,,,,,,,,,,,,,,,,,,,,,,,,,,,,,,,,,,,,,,,,,,,,,,,,,
1763973746.167813,31879.0,0.0,4393.717773,4418.077148,4496.794922,4540.641113,4411.025879,4529.743652,4557.820313,4409.358887,4585.641113,4402.692383,4514.615234,4527.179688,4587.692383,4403.333496,4403.589844,4505.128418,4554.358887,4555.769043,4528.077148,4406.282227,4417.820313,4584.871582,4526.410156,4515.256348,4415.641113,4591.922852,4401.794922,4572.563965,4527.820313,4416.538574,4541.025879,4506.282227,2941.0,1.0,22.0,1792.0,56501.0,,,,0.0,4.0,4.0,4.0,4.0,4.0,4.0,4.0,4.0,4.0,4.0,4.0,4.0,4.0,4.0,4.0,4.0,4.0,4.0,4.0,4.0,4.0,4.0,4.0,4.0,4.0,4.0,4.0,4.0,4.0,4.0,4.0,4.0,100.0,,,,,,,,,,,,,,,,,,,,,,,,,,,,,,,,,,,,,,,,,,,,,,,,,,,,,,,,,,,,,,,,,,,,,,,,,,,,,,,,,,,,,,,,,,,,,,,,,,,,,,,,,,,,,,,,,,,,,,,,,,,,,,,,,,,,,,,,,,,,,,,,,,,,,,,,,,,,,,,,,,,,,,,,,,,,,,,,,,,,,,,,,,,,,,,,,,,,,,,,,,,,,,
1763973746.171719,31880.0,0.0,4402.563965,4422.820313,4495.897461,4542.820313,4414.871582,4534.358887,4562.692383,4413.974121,4588.333496,4407.692383,4519.102539,4533.589844,4596.538574,4407.307617,4403.461426,4522.563965,4563.589844,4563.589844,4535.897461,4408.589844,4417.94873,4589.615234,4533.974121,4516.794922,4417.307617,4593.333496,4401.282227,4576.282227,4531.538574,4419.102539,4540.128418,4505.897461,2667.0,1.0,22.0,768.0,56509.0,,,,0.0,4.0,4.0,4.0,4.0,4.0,4.0,4.0,4.0,4.0,4.0,4.0,4.0,4.0,4.0,4.0,4.0,4.0,4.0,4.0,4.0,4.0,4.0,4.0,4.0,4.0,4.0,4.0,4.0,4.0,4.0,4.0,4.0,100.0,,,,,,,,,,,,,,,,,,,,,,,,,,,,,,,,,,,,,,,,,,,,,,,,,,,,,,,,,,,,,,,,,,,,,,,,,,,,,,,,,,,,,,,,,,,,,,,,,,,,,,,,,,,,,,,,,,,,,,,,,,,,,,,,,,,,,,,,,,,,,,,,,,,,,,,,,,,,,,,,,,,,,,,,,,,,,,,,,,,,,,,,,,,,,,,,,,,,,,,,,,,,,,
1763973746.175625,31881.0,0.0,4401.538574,4417.692383,4488.461426,4533.333496,4412.692383,4530.641113,4557.307617,4408.846191,4582.820313,4403.461426,4513.846191,4531.025879,4591.282227,4401.666504,4393.717773,4525.384766,4563.077148,4555.128418,4531.922852,4400.256348,4407.820313,4583.846191,4532.307617,4508.589844,4407.307617,4585.641113,4391.538574,4569.743652,4525.128418,4411.922852,4529.743652,4500.128418,2833.0,1.0,22.0,768.0,56509.0,,,,0.0,4.0,4.0,4.0,4.0,4.0,4.0,4.0,4.0,4.0,4.0,4.0,4.0,4.0,4.0,4.0,4.0,4.0,4.0,4.0,4.0,4.0,4.0,4.0,4.0,4.0,4.0,4.0,4.0,4.0,4.0,4.0,4.0,100.0,,,,,,,,,,,,,,,,,,,,,,,,,,,,,,,,,,,57122.0,0.0,0.662994,0.290222,0.247192,0.644287,1.005982,0.015627,-0.071298,26.166666,-25.0,-24.5,,,,,,,,,,,,,,,,,,,,,,,,,,,,,,,,,,,,,,,,,,,,,,,,,,,,,,,,,,,,,,,,,,,,,,,,,,,,,,,,,,,,,,,,,,,,,,,,,,,,,,,,,,,,,,,,,,,,,,,,,,,,,,,,,,,,,,,,,,,,,,,,,,,,,,,,,,,,,,,,
1763973746.179531,31882.0,0.0,4392.820313,4406.025879,4477.307617,4517.563965,4406.025879,4521.153809,4546.025879,4397.179688,4572.692383,4392.05127,4503.333496,4522.307617,4576.922852,4389.487305,4379.615234,4512.820313,4555.512695,4537.179688,4519.487305,4386.666504,4394.230957,4571.922852,4523.077148,4495.512695,4391.794922,4573.846191,4378.589844,4556.922852,4512.563965,4398.846191,4516.794922,4491.922852,2669.0,1.0,22.0,256.0,56517.0,,,,0.0,4.0,4.0,4.0,4.0,4.0,4.0,4.0,4.0,4.0,4.0,4.0,4.0,4.0,4.0,4.0,4.0,4.0,4.0,4.0,4.0,4.0,4.0,4.0,4.0,4.0,4.0,4.0,4.0,4.0,4.0,4.0,4.0,100.0,,,,,,,,,,,,,,,,,,,,,,,,,,,,,,,,,,,,,,,,,,,,,,,,,,,,,,,,,,,,,,,,,,,,,,,,,,,,,,,,,,,,,,,,,,,,,,,,,,,,,,,,,,,,,,,,,,,,,,,,,,,,,,,,,,,,,,,,,,,,,,,,,,,,,,,,,,,,,,,,,,,,,,,,,,,,,,,,,,,,,,,,,,,,,,,,,,,,,,,,,,,,,,
1763973746.183437,31883.0,0.0,4382.436035,4393.333496,4466.666504,4503.205078,4397.307617,4510.641113,4535.641113,4384.358887,4563.717773,4381.025879,4494.615234,4512.94873,4563.333496,4377.05127,4367.820313,4495.897461,4547.307617,4523.077148,4506.794922,4374.487305,4384.487305,4560.769043,4511.538574,4484.487305,4378.589844,4563.846191,4369.230957,4544.743652,4500.128418,4385.641113,4507.563965,4484.615234,2964.0,1.0,22.0,256.0,56517.0,,,,0.0,4.0,4.0,4.0,4.0,4.0,4.0,4.0,4.0,4.0,4.0,4.0,4.0,4.0,4.0,4.0,4.0,4.0,4.0,4.0,4.0,4.0,4.0,4.0,4.0,4.0,4.0,4.0,4.0,4.0,4.0,4.0,4.0,100.0,,,,,,,,,,,,,,,,,,,,,,,,,,,,,,,,,,,,,,,,,,,,,,,,,,,,,,,,,,,,,,,,,,,,,,,,,,,,,,,,,,,,,,,,,,,,,,,,,,,,,,,,,,,,,,,,,,,,,,,,,,,,,,,,,,,,,,,,,,,,,,,,,,,,,,,,,,,,,,,,,,,,,,,,,,,,,,,,,,,,,,,,,,,,,,,,,,,,,,,,,,,,,,
1763973746.187343,31884.0,0.0,4376.538574,4385.384766,4460.256348,4497.05127,4390.0,4504.615234,4532.05127,4376.153809,4560.769043,4377.94873,4493.205078,4508.461426,4559.102539,4370.769043,4362.820313,4489.230957,4543.717773,4522.179688,4501.410156,4368.974121,4382.820313,4556.666504,4504.102539,4480.256348,4373.461426,4560.0,4367.05127,4538.717773,4493.461426,4378.077148,4505.0,4481.282227,2936.0,1.0,22.0,256.0,56525.0,,,,0.0,4.0,4.0,4.0,4.0,4.0,4.0,4.0,4.0,4.0,4.0,4.0,4.0,4.0,4.0,4.0,4.0,4.0,4.0,4.0,4.0,4.0,4.0,4.0,4.0,4.0,4.0,4.0,4.0,4.0,4.0,4.0,4.0,100.0,,,,,,,,,,,,,,,,,,,,,,,,,,,,,,,,,,,,,,,,,,,,,,,,,,,,,,,,,,,,,,,,,,,,,,,,,,,,,,,,,,,,,,,,,,,,,,,,,,,,,,,,,,,,,,,,,,,,,,,,,,,,,,,,,,,,,,,,,,,,,,,,,,,,,,,,,,,,,,,,,,,,,,,,,,,,,,,,,,,,,,,,,,,,,,,,,,,,,,,,,,,,,,
1763973746.191249,31885.0,0.0,4378.461426,4385.512695,4461.666504,4502.05127,4387.563965,4506.282227,4537.820313,4376.282227,4565.897461,4385.512695,4500.897461,4511.922852,4567.179688,4374.871582,4366.410156,4500.128418,4547.563965,4534.487305,4505.897461,4371.666504,4388.846191,4561.794922,4505.769043,4484.743652,4378.461426,4564.102539,4372.436035,4542.05127,4495.641113,4379.487305,4509.871582,4483.846191,2788.0,1.0,22.0,256.0,56525.0,,,,0.0,4.0,4.0,4.0,4.0,4.0,4.0,4.0,4.0,4.0,4.0,4.0,4.0,4.0,4.0,4.0,4.0,4.0,4.0,4.0,4.0,4.0,4.0,4.0,4.0,4.0,4.0,4.0,4.0,4.0,4.0,4.0,4.0,100.0,,,,,,,,,,,,,,,,,,,,,,,,,,,,,,,,,,,57123.0,0.0,0.663069,0.290039,0.246887,0.644409,0.993285,-0.012209,-0.074228,27.333334,-25.0,-23.666666,,,,,,,,,,,,,,,,,,,,,,,,,,,,,,,,,,,,,,,,,,,,,,,,,,,,,,,,,,,,,,,,,,,,,,,,,,,,,,,,,,,,,,,,,,,,,,,,,,,,,,,,,,,,,,,,,,,,,,,,,,,,,,,,,,,,,,,,,,,,,,,,,,,,,,,,,,,,,,,,
1763973746.195055,31886.0,0.0,4387.820313,4393.333496,4471.666504,4516.538574,4391.794922,4515.0,4550.897461,4385.512695,4578.589844,4399.871582,4515.0,4522.563965,4583.461426,4388.974121,4377.692383,4522.563965,4557.563965,4551.922852,4516.538574,4381.153809,4398.974121,4573.589844,4516.666504,4496.282227,4391.410156,4574.871582,4383.589844,4553.589844,4505.256348,4389.615234,4520.641113,4492.179688,2739.0,1.0,22.0,256.0,56533.0,,,,0.0,4.0,4.0,4.0,4.0,4.0,4.0,4.0,4.0,4.0,4.0,4.0,4.0,4.0,4.0,4.0,4.0,4.0,4.0,4.0,4.0,4.0,4.0,4.0,4.0,4.0,4.0,4.0,4.0,4.0,4.0,4.0,4.0,100.0,0.925781,91.666664,4.0,4.0,4.0,4.0,4.0,4.0,4.0,4.0,4.0,3.0,4.0,4.0,4.0,4.0,4.0,4.0,4.0,4.0,4.0,4.0,4.0,4.0,4.0,4.0,4.0,4.0,4.0,4.0,4.0,4.0,4.0,4.0,,,,,,,,,,,,,2.433245,5.8241,0.911652,0.9319,1.262784,5.060019,6.573031,1.222237,0.974557,1.702879,4.05663,2.396578,1.68792,1.148174,1.22906,2.162087,2.356387,1.596835,1.035123,1.299782,2.20455,2.620804,0.781673,0.972568,0.937771,1.931925,2.611651,0.783807,0.663279,0.848095,1.574096,3.427505,1.426895,0.788801,1.18073,2.245576,3.150169,0.929793,1.000712,1.40824,1.467792,1.689086,0.87717,0.862914,1.39598,1.021273,2.57097,1.517612,3.300242,3.375404,0.577123,1.704526,0.974006,0.687584,1.254101,2.647679,4.763944,1.713167,0.815975,1.32937,1.106291,4.460557,2.391921,1.020623,1.417874,0.552415,1.140376,1.231543,0.731487,1.224012,0.838473,1.076635,0.906364,0.510217,1.267476,0.612788,2.664828,1.771004,1.723501,1.825707,1.212894,3.92243,1.941694,0.793295,1.247772,0.532568,2.493408,1.282739,0.864681,1.722265,1.031894,3.058682,2.102762,1.145881,1.89142,1.23393,3.392468,1.427503,0.679064,1.709409,1.297243,4.05193,1.423916,0.758708,1.266794,0.935957,4.45451,1.933397,1.031012,1.553397,2.04554,4.240061,2.647528,1.309531,1.67912,0.931455,1.876922,1.06682,0.853786,1.49719,2.199535,1.208288,1.512009,0.751277,1.547006,2.241166,1.050912,1.232123,0.668997,1.55685,3.329218,3.007328,0.652305,1.256646,1.602058,1.841646,2.7781,1.216049,0.894256,1.375147,3.472003,3.536331,1.160777,0.909167,1.438184,4.121377,3.499773,1.066559,1.021954,1.378774,4.246544,2.429459,1.197223,0.842018,1.571517,4.521729,3.507188,1.563955,1.093416,1.490563
1763973746.198961,31887.0,0.0,4399.487305,4404.358887,4485.384766,4533.461426,4400.769043,4525.769043,4564.487305,4399.487305,4593.461426,4411.666504,4528.974121,4535.384766,4598.717773,4406.410156,4391.666504,4542.179688,4568.461426,4563.974121,4525.641113,4392.179688,4406.666504,4585.256348,4530.897461,4509.871582,4406.025879,4587.179688,4395.641113,4567.692383,4516.153809,4403.077148,4532.436035,4502.94873,2790.0,1.0,22.0,256.0,56533.0,,,,0.0,4.0,4.0,4.0,4.0,4.0,4.0,4.0,4.0,4.0,4.0,4.0,4.0,4.0,4.0,4.0,4.0,4.0,4.0,4.0,4.0,4.0,4.0,4.0,4.0,4.0,4.0,4.0,4.0,4.0,4.0,4.0,4.0,100.0,,,,,,,,,,,,,,,,,,,,,,,,,,,,,,,,,,,,,,,,,,,,,,,,,,,,,,,,,,,,,,,,,,,,,,,,,,,,,,,,,,,,,,,,,,,,,,,,,,,,,,,,,,,,,,,,,,,,,,,,,,,,,,,,,,,,,,,,,,,,,,,,,,,,,,,,,,,,,,,,,,,,,,,,,,,,,,,,,,,,,,,,,,,,,,,,,,,,,,,,,,,,,,
1763973746.202767,31888.0,0.0,4406.282227,4411.025879,4494.230957,4543.333496,4408.205078,4531.538574,4570.384766,4409.743652,4602.05127,4412.05127,4534.743652,4542.436035,4603.333496,4416.666504,4400.384766,4546.282227,4572.94873,4563.846191,4526.538574,4397.563965,4406.282227,4588.974121,4538.717773,4517.05127,4414.102539,4593.974121,4402.692383,4576.025879,4520.512695,4411.153809,4538.333496,4509.615234,2920.0,1.0,22.0,256.0,56541.0,,,,0.0,4.0,4.0,4.0,4.0,4.0,4.0,4.0,4.0,4.0,4.0,4.0,4.0,4.0,4.0,4.0,4.0,4.0,4.0,4.0,4.0,4.0,4.0,4.0,4.0,4.0,4.0,4.0,4.0,4.0,4.0,4.0,4.0,100.0,,,,,,,,,,,,,,,,,,,,,,,,,,,,,,,,,,,,,,,,,,,,,,,,,,,,,,,,,,,,,,,,,,,,,,,,,,,,,,,,,,,,,,,,,,,,,,,,,,,,,,,,,,,,,,,,,,,,,,,,,,,,,,,,,,,,,,,,,,,,,,,,,,,,,,,,,,,,,,,,,,,,,,,,,,,,,,,,,,,,,,,,,,,,,,,,,,,,,,,,,,,,,,
1763973746.206672,31889.0,0.0,4403.589844,4408.077148,4491.922852,4539.743652,4407.94873,4527.820313,4564.230957,4409.615234,4598.846191,4398.846191,4528.205078,4538.461426,4593.717773,4412.563965,4397.436035,4532.692383,4566.538574,4551.794922,4517.563965,4392.820313,4396.538574,4580.256348,4534.230957,4512.179688,4410.256348,4590.512695,4400.128418,4572.820313,4514.358887,4408.077148,4534.230957,4506.922852,3038.0,1.0,22.0,256.0,56541.0,,,,0.0,4.0,4.0,4.0,4.0,4.0,4.0,4.0,4.0,4.0,4.0,4.0,4.0,4.0,4.0,4.0,4.0,4.0,4.0,4.0,4.0,4.0,4.0,4.0,4.0,4.0,4.0,4.0,4.0,4.0,4.0,4.0,4.0,100.0,,,,,,,,,,,,,,,,,,,,,,,,,,,,,,,,,,,57124.0,0.0,0.663099,0.289856,0.246704,0.644531,1.002564,-0.007813,-0.073251,27.333334,-23.0,-25.0,,,,,,,,,,,,,,,,,,,,,,,,,,,,,,,,,,,,,,,,,,,,,,,,,,,,,,,,,,,,,,,,,,,,,,,,,,,,,,,,,,,,,,,,,,,,,,,,,,,,,,,,,,,,,,,,,,,,,,,,,,,,,,,,,,,,,,,,,,,,,,,,,,,,,,,,,,,,,,,,
1763973746.210678,31890.0,0.0,4392.563965,4396.794922,4479.743652,4525.0,4399.358887,4517.307617,4549.102539,4398.589844,4585.897461,4380.256348,4512.692383,4525.256348,4574.871582,4395.769043,4383.974121,4509.102539,4551.282227,4534.102539,4503.589844,4380.0,4382.179688,4562.179688,4520.128418,4497.436035,4396.666504,4578.846191,4388.974121,4559.487305,4501.410156,4395.512695,4522.179688,4495.384766,2824.0,1.0,22.0,512.0,56548.0,,,,0.0,4.0,4.0,4.0,4.0,4.0,4.0,4.0,4.0,4.0,4.0,4.0,4.0,4.0,4.0,4.0,4.0,4.0,4.0,4.0,4.0,4.0,4.0,4.0,4.0,4.0,4.0,4.0,4.0,4.0,4.0,4.0,4.0,100.0,,,,,,,,,,,,,,,,,,,,,,,,,,,,,,,,,,,,,,,,,,,,,,,,,,,,,,,,,,,,,,,,,,,,,,,,,,,,,,,,,,,,,,,,,,,,,,,,,,,,,,,,,,,,,,,,,,,,,,,,,,,,,,,,,,,,,,,,,,,,,,,,,,,,,,,,,,,,,,,,,,,,,,,,,,,,,,,,,,,,,,,,,,,,,,,,,,,,,,,,,,,,,,
1763973746.214584,31891.0,0.0,4380.128418,4384.487305,4466.538574,4508.461426,4388.461426,4507.436035,4534.230957,4383.461426,4571.666504,4368.461426,4497.05127,4511.025879,4557.179688,4376.410156,4368.333496,4487.436035,4535.512695,4520.128418,4491.538574,4367.179688,4370.897461,4544.230957,4506.025879,4481.666504,4381.666504,4566.666504,4375.897461,4544.743652,4490.256348,4382.692383,4510.128418,4481.922852,3011.0,1.0,22.0,512.0,56548.0,,,,0.0,4.0,4.0,4.0,4.0,4.0,4.0,4.0,4.0,4.0,4.0,4.0,4.0,4.0,4.0,4.0,4.0,4.0,4.0,4.0,4.0,4.0,4.0,4.0,4.0,4.0,4.0,4.0,4.0,4.0,4.0,4.0,4.0,100.0,,,,,,,,,,,,,,,,,,,,,,,,,,,,,,,,,,,,,,,,,,,,,,,,,,,,,,,,,,,,,,,,,,,,,,,,,,,,,,,,,,,,,,,,,,,,,,,,,,,,,,,,,,,,,,,,,,,,,,,,,,,,,,,,,,,,,,,,,,,,,,,,,,,,,,,,,,,,,,,,,,,,,,,,,,,,,,,,,,,,,,,,,,,,,,,,,,,,,,,,,,,,,,
1763973746.21849,31892.0,0.0,4373.589844,4378.717773,4461.153809,4500.384766,4382.563965,4504.743652,4527.820313,4373.205078,4565.0,4371.025879,4489.871582,4503.974121,4549.743652,4365.897461,4360.512695,4477.179688,4527.563965,4516.538574,4487.307617,4362.307617,4367.94873,4536.538574,4500.897461,4474.358887,4374.230957,4562.05127,4368.717773,4538.077148,4488.461426,4378.333496,4505.641113,4474.743652,2981.0,1.0,22.0,768.0,56556.0,,,,0.0,4.0,4.0,4.0,4.0,4.0,4.0,4.0,4.0,4.0,4.0,4.0,4.0,4.0,4.0,4.0,4.0,4.0,4.0,4.0,4.0,4.0,4.0,4.0,4.0,4.0,4.0,4.0,4.0,4.0,4.0,4.0,4.0,100.0,,,,,,,,,,,,,,,,,,,,,,,,,,,,,,,,,,,,,,,,,,,,,,,,,,,,,,,,,,,,,,,,,,,,,,,,,,,,,,,,,,,,,,,,,,,,,,,,,,,,,,,,,,,,,,,,,,,,,,,,,,,,,,,,,,,,,,,,,,,,,,,,,,,,,,,,,,,,,,,,,,,,,,,,,,,,,,,,,,,,,,,,,,,,,,,,,,,,,,,,,,,,,,
1763973746.222396,31893.0,0.0,4376.282227,4382.692383,4466.282227,4504.487305,4385.384766,4510.128418,4532.179688,4373.589844,4568.333496,4384.871582,4493.205078,4506.922852,4554.615234,4369.871582,4365.512695,4483.077148,4531.025879,4524.102539,4492.05127,4367.307617,4374.230957,4543.589844,4506.666504,4479.102539,4377.692383,4567.563965,4371.153809,4543.717773,4496.282227,4385.384766,4510.897461,4478.589844,2838.0,1.0,22.0,768.0,56556.0,,,,0.0,4.0,4.0,4.0,4.0,4.0,4.0,4.0,4.0,4.0,4.0,4.0,4.0,4.0,4.0,4.0,4.0,4.0,4.0,4.0,4.0,4.0,4.0,4.0,4.0,4.0,4.0,4.0,4.0,4.0,4.0,4.0,4.0,100.0,,,,,,,,,,,,,,,,,,,,,,,,,,,,,,,,,,,57125.0,0.0,0.663069,0.290039,0.246887,0.644409,0.993285,0.009278,-0.062508,28.166666,-27.0,-22.5,,,,,,,,,,,,,,,,,,,,,,,,,,,,,,,,,,,,,,,,,,,,,,,,,,,,,,,,,,,,,,,,,,,,,,,,,,,,,,,,,,,,,,,,,,,,,,,,,,,,,,,,,,,,,,,,,,,,,,,,,,,,,,,,,,,,,,,,,,,,,,,,,,,,,,,,,,,,,,,,
1763973746.226302,31894.0,0.0,4385.897461,4393.205078,4477.820313,4516.666504,4394.358887,4519.358887,4542.820313,4383.589844,4577.692383,4399.743652,4502.692383,4516.282227,4566.794922,4384.743652,4380.256348,4501.666504,4541.794922,4536.794922,4502.692383,4377.94873,4386.410156,4561.538574,4518.717773,4492.436035,4388.846191,4579.230957,4381.410156,4557.692383,4508.333496,4399.487305,4521.410156,4491.153809,2977.0,1.0,22.0,1024.0,56564.0,,,,0.0,4.0,4.0,4.0,4.0,4.0,4.0,4.0,4.0,4.0,4.0,4.0,4.0,4.0,4.0,4.0,4.0,4.0,4.0,4.0,4.0,4.0,4.0,4.0,4.0,4.0,4.0,4.0,4.0,4.0,4.0,4.0,4.0,100.0,,,,,,,,,,,,,,,,,,,,,,,,,,,,,,,,,,,,,,,,,,,,,,,,,,,,,,,,,,,,,,,,,,,,,,,,,,,,,,,,,,,,,,,,,,,,,,,,,,,,,,,,,,,,,,,,,,,,,,,,,,,,,,,,,,,,,,,,,,,,,,,,,,,,,,,,,,,,,,,,,,,,,,,,,,,,,,,,,,,,,,,,,,,,,,,,,,,,,,,,,,,,,,
1763973746.230208,31895.0,0.0,4396.025879,4403.846191,4488.717773,4528.333496,4403.333496,4526.922852,4551.282227,4396.025879,4586.153809,4406.025879,4510.897461,4525.512695,4577.94873,4400.897461,4395.897461,4522.563965,4552.179688,4546.410156,4514.102539,4387.307617,4399.615234,4580.256348,4528.974121,4506.538574,4400.512695,4589.743652,4393.205078,4571.153809,4518.077148,4412.94873,4530.256348,4504.871582,2926.0,1.0,22.0,1024.0,56564.0,,,,0.0,4.0,4.0,4.0,4.0,4.0,4.0,4.0,4.0,4.0,4.0,4.0,4.0,4.0,4.0,4.0,4.0,4.0,4.0,4.0,4.0,4.0,4.0,4.0,4.0,4.0,4.0,4.0,4.0,4.0,4.0,4.0,4.0,100.0,,,,,,,,,,,,,,,,,,,,,,,,,,,,,,,,,,,,,,,,,,,,,,,,,,,,,,,,,,,,,,,,,,,,,,,,,,,,,,,,,,,,,,,,,,,,,,,,,,,,,,,,,,,,,,,,,,,,,,,,,,,,,,,,,,,,,,,,,,,,,,,,,,,,,,,,,,,,,,,,,,,,,,,,,,,,,,,,,,,,,,,,,,,,,,,,,,,,,,,,,,,,,,
1763973746.234114,31896.0,0.0,4400.256348,4408.974121,4493.333496,4532.692383,4406.794922,4528.717773,4551.025879,4402.179688,4588.589844,4401.922852,4512.692383,4528.589844,4581.538574,4408.205078,4403.846191,4533.589844,4555.256348,4547.563965,4521.025879,4391.153809,4408.589844,4590.0,4531.794922,4513.717773,4406.153809,4592.692383,4400.128418,4576.538574,4521.538574,4419.102539,4531.922852,4511.538574,2883.0,1.0,22.0,1280.0,56572.0,,,,0.0,4.0,4.0,4.0,4.0,4.0,4.0,4.0,4.0,4.0,4.0,4.0,4.0,4.0,4.0,4.0,4.0,4.0,4.0,4.0,4.0,4.0,4.0,4.0,4.0,4.0,4.0,4.0,4.0,4.0,4.0,4.0,4.0,100.0,,,,,,,,,,,,,,,,,,,,,,,,,,,,,,,,,,,,,,,,,,,,,,,,,,,,,,,,,,,,,,,,,,,,,,,,,,,,,,,,,,,,,,,,,,,,,,,,,,,,,,,,,,,,,,,,,,,,,,,,,,,,,,,,,,,,,,,,,,,,,,,,,,,,,,,,,,,,,,,,,,,,,,,,,,,,,,,,,,,,,,,,,,,,,,,,,,,,,,,,,,,,,,
1763973746.23802,31897.0,0.0,4395.897461,4407.05127,4491.025879,4528.461426,4403.717773,4525.384766,4541.922852,4398.974121,4584.871582,4393.846191,4507.820313,4524.487305,4576.025879,4403.846191,4401.410156,4529.871582,4549.743652,4541.794922,4520.512695,4389.358887,4410.128418,4586.794922,4526.794922,4511.282227,4403.205078,4587.307617,4398.974121,4572.179688,4519.230957,4416.282227,4526.922852,4508.717773,2827.0,1.0,22.0,1280.0,56572.0,,,,0.0,4.0,4.0,4.0,4.0,4.0,4.0,4.0,4.0,4.0,4.0,4.0,4.0,4.0,4.0,4.0,4.0,4.0,4.0,4.0,4.0,4.0,4.0,4.0,4.0,4.0,4.0,4.0,4.0,4.0,4.0,4.0,4.0,100.0,,,,,,,,,,,,,,,,,,,,,,,,,,,,,,,,,,,57126.0,0.0,0.663069,0.290039,0.246887,0.644409,0.99182,-0.001465,-0.056159,28.5,-27.0,-25.0,,,,,,,,,,,,,,,,,,,,,,,,,,,,,,,,,,,,,,,,,,,,,,,,,,,,,,,,,,,,,,,,,,,,,,,,,,,,,,,,,,,,,,,,,,,,,,,,,,,,,,,,,,,,,,,,,,,,,,,,,,,,,,,,,,,,,,,,,,,,,,,,,,,,,,,,,,,,,,,,
1763973746.241926,31898.0,0.0,4386.538574,4401.538574,4485.897461,4520.641113,4397.563965,4520.384766,4530.769043,4390.256348,4578.974121,4389.743652,4501.025879,4517.179688,4565.897461,4392.692383,4393.077148,4516.922852,4540.641113,4535.512695,4514.487305,4386.410156,4405.256348,4575.512695,4518.846191,4502.436035,4395.256348,4578.205078,4392.307617,4562.692383,4514.487305,4408.846191,4521.025879,4500.897461,2789.0,1.0,22.0,1536.0,56580.0,,,,0.0,4.0,4.0,4.0,4.0,4.0,4.0,4.0,4.0,4.0,4.0,4.0,4.0,4.0,4.0,4.0,4.0,4.0,4.0,4.0,4.0,4.0,4.0,4.0,4.0,4.0,4.0,4.0,4.0,4.0,4.0,4.0,4.0,100.0,,,,,,,,,,,,,,,,,,,,,,,,,,,,,,,,,,,,,,,,,,,,,,,,,,,,,,,,,,,,,,,,,,,,,,,,,,,,,,,,,,,,,,,,,,,,,,,,,,,,,,,,,,,,,,,,,,,,,,,,,,,,,,,,,,,,,,,,,,,,,,,,,,,,,,,,,,,,,,,,,,,,,,,,,,,,,,,,,,,,,,,,,,,,,,,,,,,,,,,,,,,,,,
1763973746.245833,31899.0,0.0,4378.205078,4397.692383,4482.820313,4515.384766,4393.205078,4517.307617,4524.615234,4383.717773,4575.0,4391.794922,4496.538574,4511.666504,4557.563965,4383.589844,4386.282227,4505.0,4534.102539,4533.717773,4506.794922,4385.897461,4398.846191,4564.230957,4513.077148,4494.358887,4388.205078,4572.179688,4386.025879,4554.615234,4511.025879,4403.077148,4520.128418,4495.0,3003.0,1.0,22.0,1536.0,56580.0,,,,0.0,4.0,4.0,4.0,4.0,4.0,4.0,4.0,4.0,4.0,4.0,4.0,4.0,4.0,4.0,4.0,4.0,4.0,4.0,4.0,4.0,4.0,4.0,4.0,4.0,4.0,4.0,4.0,4.0,4.0,4.0,4.0,4.0,100.0,,,,,,,,,,,,,,,,,,,,,,,,,,,,,,,,,,,,,,,,,,,,,,,,,,,,,,,,,,,,,,,,,,,,,,,,,,,,,,,,,,,,,,,,,,,,,,,,,,,,,,,,,,,,,,,,,,,,,,,,,,,,,,,,,,,,,,,,,,,,,,,,,,,,,,,,,,,,,,,,,,,,,,,,,,,,,,,,,,,,,,,,,,,,,,,,,,,,,,,,,,,,,,
1763973746.249739,31900.0,0.0,4373.846191,4396.538574,4481.922852,4513.846191,4391.794922,4516.025879,4524.871582,4382.179688,4572.05127,4394.102539,4494.743652,4509.358887,4553.589844,4380.0,4384.743652,4498.974121,4531.922852,4535.0,4500.512695,4387.563965,4394.615234,4557.307617,4510.128418,4490.512695,4385.0,4571.410156,4382.820313,4550.256348,4508.717773,4401.410156,4523.846191,4492.820313,2961.0,1.0,22.0,1792.0,56587.0,,,,0.0,4.0,4.0,4.0,4.0,4.0,4.0,4.0,4.0,4.0,4.0,4.0,4.0,4.0,4.0,4.0,4.0,4.0,4.0,4.0,4.0,4.0,4.0,4.0,4.0,4.0,4.0,4.0,4.0,4.0,4.0,4.0,4.0,100.0,,,,,,,,,,,,,,,,,,,,,,,,,,,,,,,,,,,,,,,,,,,,,,,,,,,,,,,,,,,,,,,,,,,,,,,,,,,,,,,,,,,,,,,,,,,,,,,,,,,,,,,,,,,,,,,,,,,,,,,,,,,,,,,,,,,,,,,,,,,,,,,,,,,,,,,,,,,,,,,,,,,,,,,,,,,,,,,,,,,,,,,,,,,,,,,,,,,,,,,,,,,,,,
1763973746.253645,31901.0,0.0,4371.025879,4394.487305,4478.205078,4511.025879,4390.128418,4513.589844,4525.769043,4382.05127,4565.256348,4387.436035,4491.666504,4506.794922,4551.410156,4378.717773,4384.871582,4496.153809,4529.743652,4532.820313,4495.256348,4386.794922,4392.05127,4553.077148,4506.153809,4488.461426,4383.205078,4571.666504,4380.128418,4546.410156,4504.230957,4400.256348,4526.410156,4490.128418,2811.0,1.0,22.0,1792.0,56587.0,,,,0.0,4.0,4.0,4.0,4.0,4.0,4.0,4.0,4.0,4.0,4.0,4.0,4.0,4.0,4.0,4.0,4.0,4.0,4.0,4.0,4.0,4.0,4.0,4.0,4.0,4.0,4.0,4.0,4.0,4.0,4.0,4.0,4.0,100.0,,,,,,,,,,,,,,,,,,,,,,,,,,,,,,,,,,,57127.0,0.0,0.663043,0.2901,0.246887,0.644409,0.995239,0.002442,-0.072274,27.166666,-26.833334,-25.5,,,,,,,,,,,,,,,,,,,,,,,,,,,,,,,,,,,,,,,,,,,,,,,,,,,,,,,,,,,,,,,,,,,,,,,,,,,,,,,,,,,,,,,,,,,,,,,,,,,,,,,,,,,,,,,,,,,,,,,,,,,,,,,,,,,,,,,,,,,,,,,,,,,,,,,,,,,,,,,,
1763973746.257551,31902.0,0.0,4366.794922,4388.846191,4469.230957,4502.94873,4385.641113,4508.205078,4522.179688,4378.205078,4552.563965,4368.974121,4484.743652,4501.025879,4547.436035,4375.0,4382.179688,4492.307617,4524.615234,4523.846191,4490.641113,4380.641113,4389.230957,4548.717773,4499.102539,4484.743652,4379.230957,4568.077148,4374.487305,4539.615234,4496.153809,4395.641113,4523.077148,4482.820313,2994.0,1.0,22.0,2048.0,56595.0,,,,0.0,4.0,4.0,4.0,4.0,4.0,4.0,4.0,4.0,4.0,4.0,4.0,4.0,4.0,4.0,4.0,4.0,4.0,4.0,4.0,4.0,4.0,4.0,4.0,4.0,4.0,4.0,4.0,4.0,4.0,4.0,4.0,4.0,100.0,,,,,,,,,,,,,,,,,,,,,,,,,,,,,,,,,,,,,,,,,,,,,,,,,,,,,,,,,,,,,,,,,,,,,,,,,,,,,,,,,,,,,,,,,,,,,,,,,,,,,,,,,,,,,,,,,,,,,,,,,,,,,,,,,,,,,,,,,,,,,,,,,,,,,,,,,,,,,,,,,,,,,,,,,,,,,,,,,,,,,,,,,,,,,,,,,,,,,,,,,,,,,,
1763973746.261457,31903.0,0.0,4362.94873,4382.94873,4460.256348,4493.589844,4380.769043,4503.333496,4516.538574,4372.05127,4540.0,4348.205078,4478.077148,4495.384766,4543.461426,4370.256348,4377.692383,4487.820313,4519.743652,4513.717773,4489.615234,4373.974121,4387.307617,4546.538574,4493.205078,4480.769043,4374.358887,4562.307617,4368.077148,4532.94873,4489.230957,4389.358887,4515.897461,4474.102539,2907.0,1.0,22.0,2048.0,56595.0,,,,0.0,4.0,4.0,4.0,4.0,4.0,4.0,4.0,4.0,4.0,4.0,4.0,4.0,4.0,4.0,4.0,4.0,4.0,4.0,4.0,4.0,4.0,4.0,4.0,4.0,4.0,4.0,4.0,4.0,4.0,4.0,4.0,4.0,100.0,,,,,,,,,,,,,,,,,,,,,,,,,,,,,,,,,,,,,,,,,,,,,,,,,,,,,,,,,,,,,,,,,,,,,,,,,,,,,,,,,,,,,,,,,,,,,,,,,,,,,,,,,,,,,,,,,,,,,,,,,,,,,,,,,,,,,,,,,,,,,,,,,,,,,,,,,,,,,,,,,,,,,,,,,,,,,,,,,,,,,,,,,,,,,,,,,,,,,,,,,,,,,,
1763973746.265363,31904.0,0.0,4365.641113,4383.974121,4461.282227,4492.436035,4382.307617,4505.0,4517.05127,4370.897461,4538.846191,4341.794922,4480.384766,4497.820313,4546.922852,4371.794922,4378.717773,4487.692383,4523.333496,4513.461426,4498.205078,4376.153809,4391.410156,4553.077148,4496.922852,4483.461426,4375.897461,4562.692383,4368.589844,4534.615234,4491.922852,4389.102539,4514.102539,4473.077148,2812.0,1.0,22.0,2304.0,56603.0,,,,0.0,4.0,4.0,4.0,4.0,4.0,4.0,4.0,4.0,4.0,4.0,4.0,4.0,4.0,4.0,4.0,4.0,4.0,4.0,4.0,4.0,4.0,4.0,4.0,4.0,4.0,4.0,4.0,4.0,4.0,4.0,4.0,4.0,100.0,,,,,,,,,,,,,,,,,,,,,,,,,,,,,,,,,,,,,,,,,,,,,,,,,,,,,,,,,,,,,,,,,,,,,,,,,,,,,,,,,,,,,,,,,,,,,,,,,,,,,,,,,,,,,,,,,,,,,,,,,,,,,,,,,,,,,,,,,,,,,,,,,,,,,,,,,,,,,,,,,,,,,,,,,,,,,,,,,,,,,,,,,,,,,,,,,,,,,,,,,,,,,,
1763973746.269269,31905.0,0.0,4378.846191,4395.641113,4477.436035,4505.769043,4394.102539,4516.410156,4529.871582,4380.641113,4554.615234,4359.487305,4496.538574,4512.94873,4563.077148,4384.743652,4390.769043,4497.179688,4540.769043,4530.0,4518.461426,4392.820313,4404.487305,4571.666504,4514.487305,4497.692383,4389.358887,4575.512695,4382.179688,4549.743652,4507.307617,4400.384766,4523.974121,4486.153809,2944.0,1.0,22.0,2304.0,56603.0,,,,0.0,4.0,4.0,4.0,4.0,4.0,4.0,4.0,4.0,4.0,4.0,4.0,4.0,4.0,4.0,4.0,4.0,4.0,4.0,4.0,4.0,4.0,4.0,4.0,4.0,4.0,4.0,4.0,4.0,4.0,4.0,4.0,4.0,100.0,,,,,,,,,,,,,,,,,,,,,,,,,,,,,,,,,,,57128.0,0.0,0.663043,0.2901,0.246887,0.644409,0.995239,0.002442,-0.072274,28.0,-25.666666,-24.666666,,,,,,,,,,,,,,,,,,,,,,,,,,,,,,,,,,,,,,,,,,,,,,,,,,,,,,,,,,,,,,,,,,,,,,,,,,,,,,,,,,,,,,,,,,,,,,,,,,,,,,,,,,,,,,,,,,,,,,,,,,,,,,,,,,,,,,,,,,,,,,,,,,,,,,,,,,,,,,,,
1763973746.273175,31906.0,0.0,4398.461426,4413.846191,4501.538574,4529.358887,4412.692383,4533.205078,4551.538574,4398.846191,4581.153809,4394.230957,4521.410156,4535.769043,4588.077148,4405.769043,4410.0,4516.538574,4567.05127,4558.205078,4544.102539,4417.307617,4422.307617,4597.436035,4540.256348,4520.0,4411.794922,4597.05127,4405.0,4573.717773,4528.461426,4419.743652,4542.436035,4508.589844,2253.0,1.0,22.0,2560.0,56611.0,,,,0.0,4.0,4.0,4.0,4.0,4.0,4.0,4.0,4.0,4.0,4.0,4.0,4.0,4.0,4.0,4.0,4.0,4.0,4.0,4.0,4.0,4.0,4.0,4.0,4.0,4.0,4.0,4.0,4.0,4.0,4.0,4.0,4.0,100.0,,,,,,,,,,,,,,,,,,,,,,,,,,,,,,,,,,,,,,,,,,,,,,,,,,,,,,,,,,,,,,,,,,,,,,,,,,,,,,,,,,,,,,,,,,,,,,,,,,,,,,,,,,,,,,,,,,,,,,,,,,,,,,,,,,,,,,,,,,,,,,,,,,,,,,,,,,,,,,,,,,,,,,,,,,,,,,,,,,,,,,,,,,,,,,,,,,,,,,,,,,,,,,
1763973746.277081,31907.0,0.0,4413.974121,4427.692383,4518.846191,4549.615234,4427.820313,4545.769043,4570.769043,4415.128418,4603.077148,4426.666504,4542.179688,4554.487305,4609.743652,4424.102539,4424.487305,4539.230957,4589.230957,4583.205078,4562.307617,4434.615234,4435.641113,4617.820313,4560.769043,4538.974121,4431.538574,4614.743652,4424.487305,4593.717773,4542.820313,4435.512695,4558.333496,4526.666504,2928.0,1.0,22.0,2560.0,56611.0,,,,0.0,4.0,4.0,4.0,4.0,4.0,4.0,4.0,4.0,4.0,4.0,4.0,4.0,4.0,4.0,4.0,4.0,4.0,4.0,4.0,4.0,4.0,4.0,4.0,4.0,4.0,4.0,4.0,4.0,4.0,4.0,4.0,4.0,100.0,,,,,,,,,,,,,,,,,,,,,,,,,,,,,,,,,,,,,,,,,,,,,,,,,,,,,,,,,,,,,,,,,,,,,,,,,,,,,,,,,,,,,,,,,,,,,,,,,,,,,,,,,,,,,,,,,,,,,,,,,,,,,,,,,,,,,,,,,,,,,,,,,,,,,,,,,,,,,,,,,,,,,,,,,,,,,,,,,,,,,,,,,,,,,,,,,,,,,,,,,,,,,,
1763973746.280987,31908.0,0.0,4416.282227,4427.94873,4518.846191,4553.974121,4430.641113,4546.410156,4577.05127,4418.974121,4607.820313,4439.230957,4547.307617,4558.589844,4616.282227,4428.717773,4423.077148,4554.615234,4595.384766,4590.897461,4563.205078,4433.077148,4436.410156,4621.666504,4565.256348,4543.461426,4437.563965,4617.05127,4428.461426,4598.461426,4541.922852,4436.922852,4560.641113,4528.461426,2837.0,1.0,22.0,2560.0,56619.0,,,,0.0,4.0,4.0,4.0,4.0,4.0,4.0,4.0,4.0,4.0,4.0,4.0,4.0,4.0,4.0,4.0,4.0,4.0,4.0,4.0,4.0,4.0,4.0,4.0,4.0,4.0,4.0,4.0,4.0,4.0,4.0,4.0,4.0,100.0,,,,,,,,,,,,,,,,,,,,,,,,,,,,,,,,,,,,,,,,,,,,,,,,,,,,,,,,,,,,,,,,,,,,,,,,,,,,,,,,,,,,,,,,,,,,,,,,,,,,,,,,,,,,,,,,,,,,,,,,,,,,,,,,,,,,,,,,,,,,,,,,,,,,,,,,,,,,,,,,,,,,,,,,,,,,,,,,,,,,,,,,,,,,,,,,,,,,,,,,,,,,,,
1763973746.284893,31909.0,0.0,4403.846191,4414.615234,4502.307617,4539.871582,4420.128418,4534.487305,4568.205078,4408.205078,4594.230957,4428.205078,4535.0,4547.05127,4604.871582,4417.307617,4405.128418,4554.871582,4583.333496,4577.692383,4546.282227,4412.307617,4424.230957,4606.794922,4552.307617,4531.025879,4426.666504,4602.307617,4414.358887,4586.282227,4527.436035,4423.077148,4547.436035,4512.563965,2381.0,1.0,22.0,2560.0,56619.0,,,,0.0,4.0,4.0,4.0,4.0,4.0,4.0,4.0,4.0,4.0,4.0,4.0,4.0,4.0,4.0,4.0,4.0,4.0,4.0,4.0,4.0,4.0,4.0,4.0,4.0,4.0,4.0,4.0,4.0,4.0,4.0,4.0,4.0,100.0,,,,,,,,,,,,,,,,,,,,,,,,,,,,,,,,,,,57129.0,0.0,0.663039,0.290161,0.246826,0.644409,0.991332,0.000488,-0.065926,27.666666,-25.833334,-23.333334,,,,,,,,,,,,,,,,,,,,,,,,,,,,,,,,,,,,,,,,,,,,,,,,,,,,,,,,,,,,,,,,,,,,,,,,,,,,,,,,,,,,,,,,,,,,,,,,,,,,,,,,,,,,,,,,,,,,,,,,,,,,,,,,,,,,,,,,,,,,,,,,,,,,,,,,,,,,,,,,
1763973746.288799,31910.0,0.0,4384.230957,4396.025879,4480.641113,4516.153809,4402.820313,4517.179688,4551.025879,4389.487305,4572.307617,4404.487305,4513.589844,4527.307617,4582.179688,4396.666504,4380.897461,4538.333496,4561.538574,4551.794922,4520.512695,4383.846191,4405.128418,4581.666504,4529.615234,4509.230957,4405.769043,4579.230957,4390.0,4565.384766,4508.461426,4402.307617,4525.512695,4489.102539,2925.0,1.0,22.0,1280.0,56626.0,,,,0.0,4.0,4.0,4.0,4.0,4.0,4.0,4.0,4.0,4.0,4.0,4.0,4.0,4.0,4.0,4.0,4.0,4.0,4.0,4.0,4.0,4.0,4.0,4.0,4.0,4.0,4.0,4.0,4.0,4.0,4.0,4.0,4.0,100.0,,,,,,,,,,,,,,,,,,,,,,,,,,,,,,,,,,,,,,,,,,,,,,,,,,,,,,,,,,,,,,,,,,,,,,,,,,,,,,,,,,,,,,,,,,,,,,,,,,,,,,,,,,,,,,,,,,,,,,,,,,,,,,,,,,,,,,,,,,,,,,,,,,,,,,,,,,,,,,,,,,,,,,,,,,,,,,,,,,,,,,,,,,,,,,,,,,,,,,,,,,,,,,
1763973746.292705,31911.0,0.0,4367.94873,4382.94873,4466.025879,4496.410156,4388.333496,4503.974121,4536.153809,4372.94873,4555.384766,4383.461426,4495.0,4509.615234,4559.487305,4377.563965,4363.205078,4511.922852,4542.179688,4526.666504,4497.820313,4362.05127,4386.922852,4558.589844,4508.717773,4488.974121,4385.641113,4560.0,4368.461426,4547.307617,4494.102539,4385.769043,4505.512695,4471.538574,2941.0,1.0,22.0,1280.0,56626.0,,,,0.0,4.0,4.0,4.0,4.0,4.0,4.0,4.0,4.0,4.0,4.0,4.0,4.0,4.0,4.0,4.0,4.0,4.0,4.0,4.0,4.0,4.0,4.0,4.0,4.0,4.0,4.0,4.0,4.0,4.0,4.0,4.0,4.0,100.0,,,,,,,,,,,,,,,,,,,,,,,,,,,,,,,,,,,,,,,,,,,,,,,,,,,,,,,,,,,,,,,,,,,,,,,,,,,,,,,,,,,,,,,,,,,,,,,,,,,,,,,,,,,,,,,,,,,,,,,,,,,,,,,,,,,,,,,,,,,,,,,,,,,,,,,,,,,,,,,,,,,,,,,,,,,,,,,,,,,,,,,,,,,,,,,,,,,,,,,,,,,,,,
1763973746.296611,31912.0,0.0,4362.436035,4381.666504,4464.871582,4490.641113,4383.205078,4501.025879,4530.769043,4365.769043,4550.897461,4375.0,4487.692383,4501.025879,4546.025879,4368.205078,4358.974121,4486.538574,4533.077148,4512.307617,4487.05127,4355.512695,4376.025879,4546.282227,4497.692383,4478.846191,4374.743652,4553.333496,4359.487305,4540.128418,4489.871582,4380.128418,4495.769043,4467.436035,2661.0,1.0,22.0,256.0,56634.0,,,,0.0,4.0,4.0,4.0,4.0,4.0,4.0,4.0,4.0,4.0,4.0,4.0,4.0,4.0,4.0,4.0,4.0,4.0,4.0,4.0,4.0,4.0,4.0,4.0,4.0,4.0,4.0,4.0,4.0,4.0,4.0,4.0,4.0,100.0,,,,,,,,,,,,,,,,,,,,,,,,,,,,,,,,,,,,,,,,,,,,,,,,,,,,,,,,,,,,,,,,,,,,,,,,,,,,,,,,,,,,,,,,,,,,,,,,,,,,,,,,,,,,,,,,,,,,,,,,,,,,,,,,,,,,,,,,,,,,,,,,,,,,,,,,,,,,,,,,,,,,,,,,,,,,,,,,,,,,,,,,,,,,,,,,,,,,,,,,,,,,,,
1763973746.300517,31913.0,0.0,4368.077148,4391.410156,4475.0,4499.358887,4388.461426,4508.333496,4535.512695,4368.974121,4558.077148,4378.333496,4492.307617,4502.94873,4544.871582,4370.0,4366.282227,4472.307617,4534.230957,4510.769043,4488.717773,4363.205078,4374.358887,4546.153809,4498.461426,4480.641113,4375.641113,4559.230957,4365.0,4544.615234,4495.769043,4385.384766,4498.589844,4476.025879,2828.0,1.0,22.0,256.0,56634.0,,,,0.0,4.0,4.0,4.0,4.0,4.0,4.0,4.0,4.0,4.0,4.0,4.0,4.0,4.0,4.0,4.0,4.0,4.0,4.0,4.0,4.0,4.0,4.0,4.0,4.0,4.0,4.0,4.0,4.0,4.0,4.0,4.0,4.0,100.0,,,,,,,,,,,,,,,,,,,,,,,,,,,,,,,,,,,57130.0,0.0,0.663088,0.2901,0.246765,0.644409,0.991332,0.000488,-0.065926,28.5,-24.666666,-24.166666,,,,,,,,,,,,,,,,,,,,,,,,,,,,,,,,,,,,,,,,,,,,,,,,,,,,,,,,,,,,,,,,,,,,,,,,,,,,,,,,,,,,,,,,,,,,,,,,,,,,,,,,,,,,,,,,,,,,,,,,,,,,,,,,,,,,,,,,,,,,,,,,,,,,,,,,,,,,,,,,
1763973746.304423,31914.0,0.0,4379.102539,4405.897461,4488.461426,4515.0,4399.743652,4519.743652,4545.256348,4378.461426,4570.384766,4386.282227,4502.436035,4511.025879,4552.307617,4378.205078,4377.05127,4472.179688,4540.641113,4517.436035,4496.153809,4376.538574,4378.717773,4552.692383,4506.794922,4489.102539,4384.487305,4570.641113,4378.717773,4555.0,4507.179688,4396.282227,4510.256348,4489.487305,2663.0,1.0,22.0,256.0,56642.0,,,,0.0,4.0,4.0,4.0,4.0,4.0,4.0,4.0,4.0,4.0,4.0,4.0,4.0,4.0,4.0,4.0,4.0,4.0,4.0,4.0,4.0,4.0,4.0,4.0,4.0,4.0,4.0,4.0,4.0,4.0,4.0,4.0,4.0,100.0,,,,,,,,,,,,,,,,,,,,,,,,,,,,,,,,,,,,,,,,,,,,,,,,,,,,,,,,,,,,,,,,,,,,,,,,,,,,,,,,,,,,,,,,,,,,,,,,,,,,,,,,,,,,,,,,,,,,,,,,,,,,,,,,,,,,,,,,,,,,,,,,,,,,,,,,,,,,,,,,,,,,,,,,,,,,,,,,,,,,,,,,,,,,,,,,,,,,,,,,,,,,,,
1763973746.308329,31915.0,0.0,4387.94873,4417.692383,4497.94873,4527.94873,4411.025879,4528.461426,4553.205078,4387.94873,4580.641113,4391.666504,4510.769043,4518.974121,4561.410156,4385.641113,4383.717773,4482.563965,4546.025879,4525.769043,4500.384766,4384.871582,4383.333496,4558.461426,4515.769043,4496.922852,4394.230957,4578.589844,4390.769043,4563.974121,4517.94873,4406.153809,4523.205078,4500.128418,2965.0,1.0,22.0,256.0,56642.0,,,,0.0,4.0,4.0,4.0,4.0,4.0,4.0,4.0,4.0,4.0,4.0,4.0,4.0,4.0,4.0,4.0,4.0,4.0,4.0,4.0,4.0,4.0,4.0,4.0,4.0,4.0,4.0,4.0,4.0,4.0,4.0,4.0,4.0,100.0,,,,,,,,,,,,,,,,,,,,,,,,,,,,,,,,,,,,,,,,,,,,,,,,,,,,,,,,,,,,,,,,,,,,,,,,,,,,,,,,,,,,,,,,,,,,,,,,,,,,,,,,,,,,,,,,,,,,,,,,,,,,,,,,,,,,,,,,,,,,,,,,,,,,,,,,,,,,,,,,,,,,,,,,,,,,,,,,,,,,,,,,,,,,,,,,,,,,,,,,,,,,,,
1763973746.312135,31916.0,0.0,4391.666504,4424.230957,4501.410156,4534.102539,4418.205078,4531.922852,4556.794922,4394.487305,4586.666504,4394.102539,4514.102539,4522.820313,4567.692383,4388.589844,4384.487305,4496.794922,4548.333496,4531.282227,4498.589844,4383.846191,4384.871582,4560.897461,4521.282227,4499.487305,4400.128418,4579.871582,4395.769043,4567.692383,4524.487305,4411.794922,4531.666504,4505.128418,2930.0,1.0,22.0,256.0,56650.0,,,,0.0,4.0,4.0,4.0,4.0,4.0,4.0,4.0,4.0,4.0,4.0,4.0,4.0,4.0,4.0,4.0,4.0,4.0,4.0,4.0,4.0,4.0,4.0,4.0,4.0,4.0,4.0,4.0,4.0,4.0,4.0,4.0,4.0,100.0,,,,,,,,,,,,,,,,,,,,,,,,,,,,,,,,,,,,,,,,,,,,,,,,,,,,,,,,,,,,,,,,,,,,,,,,,,,,,,,,,,,,,,,,,,,,,,,,,,,,,,,,,,,,,,,,,,,,,,,,,,,,,,,,,,,,,,,,,,,,,,,,,,,,,,,,,,,,,,,,,,,,,,,,,,,,,,,,,,,,,,,,,,,,,,,,,,,,,,,,,,,,,,
1763973746.31604,31917.0,0.0,4393.205078,4428.333496,4503.077148,4536.538574,4421.794922,4532.563965,4557.820313,4399.871582,4591.025879,4398.461426,4515.128418,4523.589844,4570.769043,4388.589844,4383.333496,4508.974121,4549.871582,4534.102539,4495.256348,4377.436035,4384.871582,4562.94873,4524.358887,4498.974121,4402.307617,4578.333496,4395.769043,4568.461426,4527.94873,4415.256348,4535.128418,4507.692383,2783.0,1.0,22.0,256.0,56650.0,,,,0.0,4.0,4.0,4.0,4.0,4.0,4.0,4.0,4.0,4.0,4.0,4.0,4.0,4.0,4.0,4.0,4.0,4.0,4.0,4.0,4.0,4.0,4.0,4.0,4.0,4.0,4.0,4.0,4.0,4.0,4.0,4.0,4.0,100.0,,,,,,,,,,,,,,,,,,,,,,,,,,,,,,,,,,,57131.0,0.0,0.663078,0.290039,0.246704,0.64447,1.007936,-0.001465,-0.061043,26.5,-25.5,-25.333334,,,,,,,,,,,,,,,,,,,,,,,,,,,,,,,,,,,,,,,,,,,,,,,,,,,,,,,,,,,,,,,,,,,,,,,,,,,,,,,,,,,,,,,,,,,,,,,,,,,,,,,,,,,,,,,,,,,,,,,,,,,,,,,,,,,,,,,,,,,,,,,,,,,,,,,,,,,,,,,,
1763973746.320046,31918.0,0.0,4397.179688,4434.743652,4508.333496,4540.897461,4425.256348,4534.743652,4560.256348,4407.179688,4596.922852,4408.077148,4517.94873,4525.512695,4573.461426,4390.0,4385.384766,4516.025879,4554.615234,4536.153809,4496.794922,4373.333496,4387.179688,4568.974121,4528.589844,4500.641113,4404.487305,4580.256348,4397.05127,4571.410156,4532.179688,4420.128418,4536.794922,4512.820313,2735.0,1.0,22.0,512.0,56658.0,,,,0.0,4.0,4.0,4.0,4.0,4.0,4.0,4.0,4.0,4.0,4.0,4.0,4.0,4.0,4.0,4.0,4.0,4.0,4.0,4.0,4.0,4.0,4.0,4.0,4.0,4.0,4.0,4.0,4.0,4.0,4.0,4.0,4.0,100.0,,,,,,,,,,,,,,,,,,,,,,,,,,,,,,,,,,,,,,,,,,,,,,,2.669894,4.574916,1.171973,0.865034,1.437496,5.36367,5.180516,1.305293,0.871793,1.986413,4.465845,1.746345,1.664795,0.95491,1.4412,2.417609,2.004497,1.844663,0.898644,1.521053,2.235493,2.12786,0.811676,0.842834,1.094295,1.801482,2.107662,0.900264,0.603942,0.980018,1.493279,3.056609,1.592312,0.787482,1.385101,2.033215,2.459337,1.127339,0.989566,1.563376,1.414779,1.4612,0.995049,0.905671,1.537579,1.081506,2.472318,1.946409,2.902751,3.475368,0.570286,1.726512,1.080502,0.705536,1.451889,2.606198,4.185533,1.928086,0.850908,1.514117,0.979215,4.72347,2.672571,1.063802,1.597474,0.469397,1.270377,1.360879,0.808287,1.382007,0.68248,0.928484,0.865636,0.565555,1.40945,0.537745,3.055733,1.998338,2.127508,1.956918,1.492547,4.09241,2.016186,0.801611,1.401161,0.522956,2.475648,1.176309,1.015979,1.898823,1.048044,2.658834,1.887766,1.079278,1.995922,1.278719,2.853776,1.263988,0.684237,1.851792,1.213497,3.704354,1.295788,0.826467,1.487279,1.233346,4.779988,1.883153,0.999457,1.711722,2.42439,4.220595,2.755678,1.191462,1.858578,1.145772,2.344,1.058702,0.85118,1.711135,2.541745,1.493647,1.39262,0.771297,1.783094,2.468678,1.02955,1.095343,0.64524,1.808905,3.557917,2.454724,0.672993,1.127379,1.805095,2.156252,2.580909,1.241271,0.844455,1.637737,3.723324,2.709712,1.356634,0.808718,1.679389,4.484599,2.535342,1.06821,0.896434,1.627923,4.54521,1.884272,1.190173,0.775284,1.819822,4.691297,2.55132,1.477754,0.954873,1.777819
1763973746.323952,31919.0,0.0,4405.0,4444.230957,4517.692383,4549.102539,4430.128418,4539.358887,4565.256348,4416.666504,4603.589844,4420.0,4522.94873,4530.384766,4577.179688,4395.128418,4391.794922,4517.436035,4562.563965,4538.461426,4505.0,4376.410156,4393.461426,4578.974121,4535.512695,4507.05127,4409.358887,4587.563965,4403.077148,4578.846191,4539.230957,4427.436035,4540.128418,4521.666504,2785.0,1.0,22.0,512.0,56658.0,,,,0.0,4.0,4.0,4.0,4.0,4.0,4.0,4.0,4.0,4.0,4.0,4.0,4.0,4.0,4.0,4.0,4.0,4.0,4.0,4.0,4.0,4.0,4.0,4.0,4.0,4.0,4.0,4.0,4.0,4.0,4.0,4.0,4.0,100.0,,,,,,,,,,,,,,,,,,,,,,,,,,,,,,,,,,,,,,,,,,,,,,,,,,,,,,,,,,,,,,,,,,,,,,,,,,,,,,,,,,,,,,,,,,,,,,,,,,,,,,,,,,,,,,,,,,,,,,,,,,,,,,,,,,,,,,,,,,,,,,,,,,,,,,,,,,,,,,,,,,,,,,,,,,,,,,,,,,,,,,,,,,,,,,,,,,,,,,,,,,,,,,
1763973746.327858,31920.0,0.0,4411.794922,4452.563965,4526.282227,4557.179688,4434.615234,4543.461426,4569.871582,4423.589844,4607.05127,4427.436035,4527.05127,4535.512695,4580.897461,4401.153809,4398.717773,4515.512695,4568.846191,4540.0,4515.128418,4385.0,4400.769043,4588.333496,4541.410156,4515.256348,4415.384766,4596.282227,4411.794922,4587.436035,4546.282227,4434.102539,4545.384766,4530.128418,2912.0,1.0,22.0,768.0,56666.0,,,,0.0,4.0,4.0,4.0,4.0,4.0,4.0,4.0,4.0,4.0,4.0,4.0,4.0,4.0,4.0,4.0,4.0,4.0,4.0,4.0,4.0,4.0,4.0,4.0,4.0,4.0,4.0,4.0,4.0,4.0,4.0,4.0,4.0,100.0,,,,,,,,,,,,,,,,,,,,,,,,,,,,,,,,,,,,,,,,,,,,,,,,,,,,,,,,,,,,,,,,,,,,,,,,,,,,,,,,,,,,,,,,,,,,,,,,,,,,,,,,,,,,,,,,,,,,,,,,,,,,,,,,,,,,,,,,,,,,,,,,,,,,,,,,,,,,,,,,,,,,,,,,,,,,,,,,,,,,,,,,,,,,,,,,,,,,,,,,,,,,,,
1763973746.331764,31921.0,0.0,4411.538574,4454.230957,4527.820313,4559.102539,4435.384766,4542.94873,4570.0,4422.692383,4604.230957,4426.153809,4525.897461,4535.769043,4581.153809,4402.692383,4401.153809,4511.922852,4567.94873,4539.358887,4519.871582,4393.077148,4404.102539,4591.153809,4541.282227,4519.102539,4418.589844,4599.615234,4417.05127,4591.153809,4548.205078,4435.512695,4549.358887,4532.436035,3034.0,1.0,22.0,768.0,56666.0,,,,0.0,4.0,4.0,4.0,4.0,4.0,4.0,4.0,4.0,4.0,4.0,4.0,4.0,4.0,4.0,4.0,4.0,4.0,4.0,4.0,4.0,4.0,4.0,4.0,4.0,4.0,4.0,4.0,4.0,4.0,4.0,4.0,4.0,100.0,,,,,,,,,,,,,,,,,,,,,,,,,,,,,,,,,,,57132.0,0.0,0.663118,0.289917,0.246582,0.644531,0.998657,0.012697,-0.067879,26.166666,-25.5,-23.333334,,,,,,,,,,,,,,,,,,,,,,,,,,,,,,,,,,,,,,,,,,,,,,,,,,,,,,,,,,,,,,,,,,,,,,,,,,,,,,,,,,,,,,,,,,,,,,,,,,,,,,,,,,,,,,,,,,,,,,,,,,,,,,,,,,,,,,,,,,,,,,,,,,,,,,,,,,,,,,,,
1763973746.33567,31922.0,0.0,4402.307617,4447.436035,4520.897461,4552.94873,4430.897461,4536.666504,4563.589844,4412.692383,4595.384766,4417.179688,4518.589844,4528.974121,4576.025879,4396.794922,4396.922852,4506.666504,4558.846191,4535.897461,4516.922852,4395.512695,4400.769043,4585.256348,4532.692383,4515.256348,4415.128418,4594.487305,4414.615234,4585.897461,4542.307617,4429.743652,4548.205078,4526.025879,2816.0,1.0,22.0,1024.0,56673.0,,,,0.0,4.0,4.0,4.0,4.0,4.0,4.0,4.0,4.0,4.0,4.0,4.0,4.0,4.0,4.0,4.0,4.0,4.0,4.0,4.0,4.0,4.0,4.0,4.0,4.0,4.0,4.0,4.0,4.0,4.0,4.0,4.0,4.0,100.0,,,,,,,,,,,,,,,,,,,,,,,,,,,,,,,,,,,,,,,,,,,,,,,,,,,,,,,,,,,,,,,,,,,,,,,,,,,,,,,,,,,,,,,,,,,,,,,,,,,,,,,,,,,,,,,,,,,,,,,,,,,,,,,,,,,,,,,,,,,,,,,,,,,,,,,,,,,,,,,,,,,,,,,,,,,,,,,,,,,,,,,,,,,,,,,,,,,,,,,,,,,,,,
1763973746.339576,31923.0,0.0,4388.333496,4435.256348,4509.871582,4541.666504,4422.692383,4527.563965,4553.077148,4398.205078,4584.230957,4404.487305,4508.077148,4517.692383,4567.307617,4385.641113,4388.077148,4498.974121,4546.025879,4531.153809,4509.487305,4391.282227,4392.692383,4573.974121,4519.230957,4505.128418,4405.256348,4583.461426,4404.871582,4573.077148,4530.641113,4418.717773,4540.128418,4513.461426,3005.0,1.0,22.0,1024.0,56673.0,,,,0.0,4.0,4.0,4.0,4.0,4.0,4.0,4.0,4.0,4.0,4.0,4.0,4.0,4.0,4.0,4.0,4.0,4.0,4.0,4.0,4.0,4.0,4.0,4.0,4.0,4.0,4.0,4.0,4.0,4.0,4.0,4.0,4.0,100.0,,,,,,,,,,,,,,,,,,,,,,,,,,,,,,,,,,,,,,,,,,,,,,,,,,,,,,,,,,,,,,,,,,,,,,,,,,,,,,,,,,,,,,,,,,,,,,,,,,,,,,,,,,,,,,,,,,,,,,,,,,,,,,,,,,,,,,,,,,,,,,,,,,,,,,,,,,,,,,,,,,,,,,,,,,,,,,,,,,,,,,,,,,,,,,,,,,,,,,,,,,,,,,
1763973746.343482,31924.0,0.0,4376.794922,4423.333496,4500.641113,4531.282227,4414.487305,4520.512695,4543.077148,4386.666504,4575.0,4391.922852,4499.230957,4508.077148,4560.0,4374.743652,4379.230957,4491.282227,4536.794922,4528.077148,4503.461426,4383.461426,4384.615234,4564.102539,4507.692383,4494.102539,4393.461426,4572.307617,4392.05127,4558.974121,4518.589844,4407.436035,4527.436035,4500.256348,2974.0,1.0,22.0,1280.0,56681.0,,,,0.0,4.0,4.0,4.0,4.0,4.0,4.0,4.0,4.0,4.0,4.0,4.0,4.0,4.0,4.0,4.0,4.0,4.0,4.0,4.0,4.0,4.0,4.0,4.0,4.0,4.0,4.0,4.0,4.0,4.0,4.0,4.0,4.0,100.0,,,,,,,,,,,,,,,,,,,,,,,,,,,,,,,,,,,,,,,,,,,,,,,,,,,,,,,,,,,,,,,,,,,,,,,,,,,,,,,,,,,,,,,,,,,,,,,,,,,,,,,,,,,,,,,,,,,,,,,,,,,,,,,,,,,,,,,,,,,,,,,,,,,,,,,,,,,,,,,,,,,,,,,,,,,,,,,,,,,,,,,,,,,,,,,,,,,,,,,,,,,,,,
1763973746.347388,31925.0,0.0,4372.94873,4416.025879,4496.410156,4526.025879,4409.615234,4518.589844,4538.077148,4383.589844,4570.128418,4381.922852,4496.153809,4504.871582,4558.846191,4370.384766,4374.871582,4489.743652,4535.897461,4529.230957,4502.94873,4376.922852,4381.410156,4561.538574,4504.358887,4487.179688,4385.128418,4566.538574,4381.666504,4550.512695,4510.897461,4400.0,4515.128418,4491.538574,2831.0,1.0,22.0,1280.0,56681.0,,,,0.0,4.0,4.0,4.0,4.0,4.0,4.0,4.0,4.0,4.0,4.0,4.0,4.0,4.0,4.0,4.0,4.0,4.0,4.0,4.0,4.0,4.0,4.0,4.0,4.0,4.0,4.0,4.0,4.0,4.0,4.0,4.0,4.0,100.0,,,,,,,,,,,,,,,,,,,,,,,,,,,,,,,,,,,57133.0,0.0,0.663127,0.289978,0.246643,0.64447,0.991332,0.00879,-0.071298,26.166666,-25.5,-23.333334,,,,,,,,,,,,,,,,,,,,,,,,,,,,,,,,,,,,,,,,,,,,,,,,,,,,,,,,,,,,,,,,,,,,,,,,,,,,,,,,,,,,,,,,,,,,,,,,,,,,,,,,,,,,,,,,,,,,,,,,,,,,,,,,,,,,,,,,,,,,,,,,,,,,,,,,,,,,,,,,
1763973746.351294,31926.0,0.0,4376.666504,4412.94873,4496.282227,4526.410156,4408.461426,4521.153809,4539.871582,4388.461426,4569.358887,4376.153809,4499.230957,4508.846191,4565.128418,4374.615234,4376.666504,4499.358887,4542.436035,4535.512695,4507.436035,4375.0,4384.871582,4567.563965,4509.487305,4486.922852,4383.589844,4566.922852,4376.666504,4549.871582,4508.589844,4397.05127,4507.692383,4488.589844,2972.0,1.0,22.0,1536.0,56689.0,,,,0.0,4.0,4.0,4.0,4.0,4.0,4.0,4.0,4.0,4.0,4.0,4.0,4.0,4.0,4.0,4.0,4.0,4.0,4.0,4.0,4.0,4.0,4.0,4.0,4.0,4.0,4.0,4.0,4.0,4.0,4.0,4.0,4.0,100.0,,,,,,,,,,,,,,,,,,,,,,,,,,,,,,,,,,,,,,,,,,,,,,,,,,,,,,,,,,,,,,,,,,,,,,,,,,,,,,,,,,,,,,,,,,,,,,,,,,,,,,,,,,,,,,,,,,,,,,,,,,,,,,,,,,,,,,,,,,,,,,,,,,,,,,,,,,,,,,,,,,,,,,,,,,,,,,,,,,,,,,,,,,,,,,,,,,,,,,,,,,,,,,
1763973746.3552,31927.0,0.0,4382.94873,4410.769043,4496.922852,4528.846191,4408.205078,4523.846191,4545.256348,4395.384766,4570.384766,4374.871582,4505.0,4516.025879,4575.384766,4384.615234,4383.077148,4517.307617,4550.512695,4544.102539,4513.717773,4377.179688,4392.179688,4576.922852,4517.820313,4491.282227,4386.794922,4569.743652,4375.384766,4553.589844,4508.717773,4396.282227,4505.256348,4488.461426,2923.0,1.0,22.0,1536.0,56689.0,,,,0.0,4.0,4.0,4.0,4.0,4.0,4.0,4.0,4.0,4.0,4.0,4.0,4.0,4.0,4.0,4.0,4.0,4.0,4.0,4.0,4.0,4.0,4.0,4.0,4.0,4.0,4.0,4.0,4.0,4.0,4.0,4.0,4.0,100.0,,,,,,,,,,,,,,,,,,,,,,,,,,,,,,,,,,,,,,,,,,,,,,,,,,,,,,,,,,,,,,,,,,,,,,,,,,,,,,,,,,,,,,,,,,,,,,,,,,,,,,,,,,,,,,,,,,,,,,,,,,,,,,,,,,,,,,,,,,,,,,,,,,,,,,,,,,,,,,,,,,,,,,,,,,,,,,,,,,,,,,,,,,,,,,,,,,,,,,,,,,,,,,
1763973746.359106,31928.0,0.0,4385.0,4405.641113,4494.615234,4528.333496,4405.769043,4523.077148,4548.846191,4397.820313,4570.256348,4377.820313,4508.461426,4520.384766,4582.820313,4394.615234,4390.384766,4533.077148,4553.589844,4550.256348,4518.077148,4381.153809,4398.333496,4582.563965,4522.436035,4496.025879,4389.871582,4570.512695,4374.230957,4555.512695,4507.179688,4393.717773,4504.230957,4486.410156,2877.0,1.0,22.0,1792.0,56697.0,,,,0.0,4.0,4.0,4.0,4.0,4.0,4.0,4.0,4.0,4.0,4.0,4.0,4.0,4.0,4.0,4.0,4.0,4.0,4.0,4.0,4.0,4.0,4.0,4.0,4.0,4.0,4.0,4.0,4.0,4.0,4.0,4.0,4.0,100.0,,,,,,,,,,,,,,,,,,,,,,,,,,,,,,,,,,,,,,,,,,,,,,,,,,,,,,,,,,,,,,,,,,,,,,,,,,,,,,,,,,,,,,,,,,,,,,,,,,,,,,,,,,,,,,,,,,,,,,,,,,,,,,,,,,,,,,,,,,,,,,,,,,,,,,,,,,,,,,,,,,,,,,,,,,,,,,,,,,,,,,,,,,,,,,,,,,,,,,,,,,,,,,
