title:Neutral4, start timestamp:1764665405.802872, stop timestamp:1764665412.112698, headset type:FLEX2, headset serial:F30002B4, headset firmware:2f10, channels:283, sampling rate:eeg_256;mot_64;pow_8, samples:1617      , version:2.2, ,,,,,,,,,,,,,,,,,,,,,,,,,,,,,,,,,,,,,,,,,,,,,,,,,,,,,,,,,,,,,,,,,,,,,,,,,,,,,,,,,,,,,,,,,,,,,,,,,,,,,,,,,,,,,,,,,,,,,,,,,,,,,,,,,,,,,,,,,,,,,,,,,,,,,,,,,,,,,,,,,,,,,,,,,,,,,,,,,,,,,,,,,,,,,,,,,,,,,,,,,,,,,,,,,,,,,,,,,,,,,,,,,,,,,,,,,,,,,,,,,,,,,,,,,,,,,,,,,,,,,,,,,,,,,,,,
Timestamp,EEG.Counter,EEG.Interpolated,EEG.Cz,EEG.Fz,EEG.Fp1,EEG.F7,EEG.F3,EEG.FC1,EEG.C3,EEG.FC5,EEG.FT9,EEG.T7,EEG.CP5,EEG.CP1,EEG.P3,EEG.P7,EEG.PO9,EEG.O1,EEG.Pz,EEG.Oz,EEG.O2,EEG.PO10,EEG.P8,EEG.P4,EEG.CP2,EEG.CP6,EEG.T8,EEG.FT10,EEG.FC6,EEG.C4,EEG.FC2,EEG.F4,EEG.F8,EEG.Fp2,EEG.RawCq,EEG.Battery,EEG.BatteryPercent,EEG.FwBufferSize,EEG.FwClockTime,MarkerIndex,MarkerType,MarkerValueInt,EEG.MarkerHardware,CQ.Cz,CQ.Fz,CQ.Fp1,CQ.F7,CQ.F3,CQ.FC1,CQ.C3,CQ.FC5,CQ.FT9,CQ.T7,CQ.CP5,CQ.CP1,CQ.P3,CQ.P7,CQ.PO9,CQ.O1,CQ.Pz,CQ.Oz,CQ.O2,CQ.PO10,CQ.P8,CQ.P4,CQ.CP2,CQ.CP6,CQ.T8,CQ.FT10,CQ.FC6,CQ.C4,CQ.FC2,CQ.F4,CQ.F8,CQ.Fp2,CQ.Overall,EQ.SampleRateQuality,EQ.OVERALL,EQ.Cz,EQ.Fz,EQ.Fp1,EQ.F7,EQ.F3,EQ.FC1,EQ.C3,EQ.FC5,EQ.FT9,EQ.T7,EQ.CP5,EQ.CP1,EQ.P3,EQ.P7,EQ.PO9,EQ.O1,EQ.Pz,EQ.Oz,EQ.O2,EQ.PO10,EQ.P8,EQ.P4,EQ.CP2,EQ.CP6,EQ.T8,EQ.FT10,EQ.FC6,EQ.C4,EQ.FC2,EQ.F4,EQ.F8,EQ.Fp2,MOT.CounterMems,MOT.InterpolatedMems,MOT.Q0,MOT.Q1,MOT.Q2,MOT.Q3,MOT.AccX,MOT.AccY,MOT.AccZ,MOT.MagX,MOT.MagY,MOT.MagZ,POW.Cz.Theta,POW.Cz.Alpha,POW.Cz.BetaL,POW.Cz.BetaH,POW.Cz.Gamma,POW.Fz.Theta,POW.Fz.Alpha,POW.Fz.BetaL,POW.Fz.BetaH,POW.Fz.Gamma,POW.Fp1.Theta,POW.Fp1.Alpha,POW.Fp1.BetaL,POW.Fp1.BetaH,POW.Fp1.Gamma,POW.F7.Theta,POW.F7.Alpha,POW.F7.BetaL,POW.F7.BetaH,POW.F7.Gamma,POW.F3.Theta,POW.F3.Alpha,POW.F3.BetaL,POW.F3.BetaH,POW.F3.Gamma,POW.FC1.Theta,POW.FC1.Alpha,POW.FC1.BetaL,POW.FC1.BetaH,POW.FC1.Gamma,POW.C3.Theta,POW.C3.Alpha,POW.C3.BetaL,POW.C3.BetaH,POW.C3.Gamma,POW.FC5.Theta,POW.FC5.Alpha,POW.FC5.BetaL,POW.FC5.BetaH,POW.FC5.Gamma,POW.FT9.Theta,POW.FT9.Alpha,POW.FT9.BetaL,POW.FT9.BetaH,POW.FT9.Gamma,POW.T7.Theta,POW.T7.Alpha,POW.T7.BetaL,POW.T7.BetaH,POW.T7.Gamma,POW.CP5.Theta,POW.CP5.Alpha,POW.CP5.BetaL,POW.CP5.BetaH,POW.CP5.Gamma,POW.CP1.Theta,POW.CP1.Alpha,POW.CP1.BetaL,POW.CP1.BetaH,POW.CP1.Gamma,POW.P3.Theta,POW.P3.Alpha,POW.P3.BetaL,POW.P3.BetaH,POW.P3.Gamma,POW.P7.Theta,POW.P7.Alpha,POW.P7.BetaL,POW.P7.BetaH,POW.P7.Gamma,POW.PO9.Theta,POW.PO9.Alpha,POW.PO9.BetaL,POW.PO9.BetaH,POW.PO9.Gamma,POW.O1.Theta,POW.O1.Alpha,POW.O1.BetaL,POW.O1.BetaH,POW.O1.Gamma,POW.Pz.Theta,POW.Pz.Alpha,POW.Pz.BetaL,POW.Pz.BetaH,POW.Pz.Gamma,POW.Oz.Theta,POW.Oz.Alpha,POW.Oz.BetaL,POW.Oz.BetaH,POW.Oz.Gamma,POW.O2.Theta,POW.O2.Alpha,POW.O2.BetaL,POW.O2.BetaH,POW.O2.Gamma,POW.PO10.Theta,POW.PO10.Alpha,POW.PO10.BetaL,POW.PO10.BetaH,POW.PO10.Gamma,POW.P8.Theta,POW.P8.Alpha,POW.P8.BetaL,POW.P8.BetaH,POW.P8.Gamma,POW.P4.Theta,POW.P4.Alpha,POW.P4.BetaL,POW.P4.BetaH,POW.P4.Gamma,POW.CP2.Theta,POW.CP2.Alpha,POW.CP2.BetaL,POW.CP2.BetaH,POW.CP2.Gamma,POW.CP6.Theta,POW.CP6.Alpha,POW.CP6.BetaL,POW.CP6.BetaH,POW.CP6.Gamma,POW.T8.Theta,POW.T8.Alpha,POW.T8.BetaL,POW.T8.BetaH,POW.T8.Gamma,POW.FT10.Theta,POW.FT10.Alpha,POW.FT10.BetaL,POW.FT10.BetaH,POW.FT10.Gamma,POW.FC6.Theta,POW.FC6.Alpha,POW.FC6.BetaL,POW.FC6.BetaH,POW.FC6.Gamma,POW.C4.Theta,POW.C4.Alpha,POW.C4.BetaL,POW.C4.BetaH,POW.C4.Gamma,POW.FC2.Theta,POW.FC2.Alpha,POW.FC2.BetaL,POW.FC2.BetaH,POW.FC2.Gamma,POW.F4.Theta,POW.F4.Alpha,POW.F4.BetaL,POW.F4.BetaH,POW.F4.Gamma,POW.F8.Theta,POW.F8.Alpha,POW.F8.BetaL,POW.F8.BetaH,POW.F8.Gamma,POW.Fp2.Theta,POW.Fp2.Alpha,POW.Fp2.BetaL,POW.Fp2.BetaH,POW.Fp2.Gamma
1764665406.603376,23408,0,4380.128418,4388.974121,4492.563965,4517.436035,4384.743652,4509.487305,4521.153809,4376.922852,4555.256348,4379.615234,4492.05127,4509.743652,4555.769043,4374.230957,4374.743652,4505.769043,4537.820313,4536.538574,4514.487305,4385.384766,4381.410156,4562.94873,4504.871582,4482.05127,4383.717773,4563.205078,4382.820313,4547.436035,4499.487305,4385.384766,4518.974121,4501.410156,2874,1,24,768,21013,1,1,3,0,4,4,4,4,4,4,4,4,4,4,4,4,4,4,4,4,4,4,4,4,4,4,4,4,4,4,4,4,4,4,4,4,100,,,,,,,,,,,,,,,,,,,,,,,,,,,,,,,,,,,,,,,,,,,,,,,,,,,,,,,,,,,,,,,,,,,,,,,,,,,,,,,,,,,,,,,,,,,,,,,,,,,,,,,,,,,,,,,,,,,,,,,,,,,,,,,,,,,,,,,,,,,,,,,,,,,,,,,,,,,,,,,,,,,,,,,,,,,,,,,,,,,,,,,,,,,,,,,,,,,,,,,,,,,,,,
1764665406.607282,23409,0,4380,4392.179688,4491.153809,4510.512695,4385.897461,4508.974121,4519.871582,4378.461426,4552.05127,4378.846191,4490.128418,4513.846191,4554.871582,4373.717773,4370.769043,4498.333496,4539.102539,4529.615234,4509.487305,4380.256348,4382.94873,4562.692383,4507.820313,4481.666504,4381.410156,4563.974121,4382.179688,4548.461426,4500.256348,4387.94873,4520.384766,4504.230957,2929,1,24,768,21013,,,,0,4,4,4,4,4,4,4,4,4,4,4,4,4,4,4,4,4,4,4,4,4,4,4,4,4,4,4,4,4,4,4,4,100,,,,,,,,,,,,,,,,,,,,,,,,,,,,,,,,,,,38620,0,0.018551,-0.69696,-0.716858,-0.004089,0.98889,0.023929,0.03223,16.5,-0.5,53.833332,,,,,,,,,,,,,,,,,,,,,,,,,,,,,,,,,,,,,,,,,,,,,,,,,,,,,,,,,,,,,,,,,,,,,,,,,,,,,,,,,,,,,,,,,,,,,,,,,,,,,,,,,,,,,,,,,,,,,,,,,,,,,,,,,,,,,,,,,,,,,,,,,,,,,,,,,,,,,,,,
1764665406.611188,23410,0,4382.692383,4397.05127,4494.230957,4506.025879,4389.615234,4511.666504,4521.666504,4379.743652,4551.794922,4379.230957,4490.384766,4519.743652,4558.333496,4374.743652,4371.025879,4492.692383,4539.487305,4522.820313,4502.436035,4376.666504,4383.974121,4563.717773,4513.846191,4483.846191,4383.461426,4567.307617,4384.743652,4551.410156,4503.333496,4394.615234,4526.282227,4507.94873,1770,1,24,1024,21021,,,,0,4,4,4,4,4,4,4,4,4,4,4,4,4,4,4,4,4,4,4,4,4,4,4,4,4,4,4,4,4,4,4,4,100,,,,,,,,,,,,,,,,,,,,,,,,,,,,,,,,,,,,,,,,,,,,,,,,,,,,,,,,,,,,,,,,,,,,,,,,,,,,,,,,,,,,,,,,,,,,,,,,,,,,,,,,,,,,,,,,,,,,,,,,,,,,,,,,,,,,,,,,,,,,,,,,,,,,,,,,,,,,,,,,,,,,,,,,,,,,,,,,,,,,,,,,,,,,,,,,,,,,,,,,,,,,,,
1764665406.615093,23411,0,4388.974121,4403.333496,4501.410156,4506.410156,4395,4518.077148,4526.538574,4380.384766,4555.769043,4382.436035,4493.077148,4525.769043,4565,4376.922852,4374.487305,4492.436035,4540.769043,4522.05127,4500.384766,4378.333496,4386.153809,4568.846191,4521.025879,4489.230957,4390.769043,4572.179688,4390.769043,4556.922852,4508.461426,4402.820313,4534.871582,4512.94873,2949,1,24,1024,21021,,,,0,4,4,4,4,4,4,4,4,4,4,4,4,4,4,4,4,4,4,4,4,4,4,4,4,4,4,4,4,4,4,4,4,100,,,,,,,,,,,,,,,,,,,,,,,,,,,,,,,,,,,,,,,,,,,,,,,,,,,,,,,,,,,,,,,,,,,,,,,,,,,,,,,,,,,,,,,,,,,,,,,,,,,,,,,,,,,,,,,,,,,,,,,,,,,,,,,,,,,,,,,,,,,,,,,,,,,,,,,,,,,,,,,,,,,,,,,,,,,,,,,,,,,,,,,,,,,,,,,,,,,,,,,,,,,,,,
1764665406.618999,23412,0,4396.153809,4409.102539,4508.717773,4510.384766,4399.102539,4524.743652,4531.922852,4379.487305,4561.666504,4387.179688,4496.410156,4529.871582,4571.025879,4378.974121,4378.589844,4497.436035,4543.333496,4528.077148,4506.025879,4384.358887,4390.128418,4576.153809,4526.538574,4495.897461,4398.205078,4576.922852,4397.436035,4563.205078,4513.589844,4408.205078,4542.05127,4517.436035,2541,1,24,1280,21028,,,,0,4,4,4,4,4,4,4,4,4,4,4,4,4,4,4,4,4,4,4,4,4,4,4,4,4,4,4,4,4,4,4,4,100,,,,,,,,,,,,,,,,,,,,,,,,,,,,,,,,,,,,,,,,,,,,,,,,,,,,,,,,,,,,,,,,,,,,,,,,,,,,,,,,,,,,,,,,,,,,,,,,,,,,,,,,,,,,,,,,,,,,,,,,,,,,,,,,,,,,,,,,,,,,,,,,,,,,,,,,,,,,,,,,,,,,,,,,,,,,,,,,,,,,,,,,,,,,,,,,,,,,,,,,,,,,,,
1764665406.622905,23413,0,4400.128418,4411.794922,4512.307617,4513.846191,4399.230957,4527.563965,4534.743652,4376.794922,4565.641113,4389.615234,4497.563965,4530,4572.179688,4378.846191,4380.384766,4503.974121,4545,4535.897461,4515.512695,4390,4394.102539,4581.282227,4528.077148,4500.512695,4399.358887,4580.256348,4401.666504,4567.94873,4516.153809,4408.333496,4544.230957,4519.230957,2828,1,24,1280,21028,,,,0,4,4,4,4,4,4,4,4,4,4,4,4,4,4,4,4,4,4,4,4,4,4,4,4,4,4,4,4,4,4,4,4,100,,,,,,,,,,,,,,,,,,,,,,,,,,,,,,,,,,,38621,0,0.020681,-0.696899,-0.716858,-0.004272,1.007447,0.0293,0.022952,18.166666,0.5,54.333332,,,,,,,,,,,,,,,,,,,,,,,,,,,,,,,,,,,,,,,,,,,,,,,,,,,,,,,,,,,,,,,,,,,,,,,,,,,,,,,,,,,,,,,,,,,,,,,,,,,,,,,,,,,,,,,,,,,,,,,,,,,,,,,,,,,,,,,,,,,,,,,,,,,,,,,,,,,,,,,,
1764665406.626811,23414,0,4398.205078,4410.769043,4510.512695,4514.743652,4395.897461,4524.358887,4532.94873,4373.717773,4565.512695,4387.05127,4495.384766,4525.897461,4567.179688,4376.025879,4379.230957,4507.94873,4543.333496,4540,4521.922852,4391.153809,4395,4580.897461,4525.769043,4500.384766,4393.589844,4581.153809,4401.794922,4569.743652,4515.512695,4404.230957,4541.922852,4517.820313,2938,1,24,1536,21036,,,,0,4,4,4,4,4,4,4,4,4,4,4,4,4,4,4,4,4,4,4,4,4,4,4,4,4,4,4,4,4,4,4,4,100,,,,,,,,,,,,,,,,,,,,,,,,,,,,,,,,,,,,,,,,,,,,,,,,,,,,,,,,,,,,,,,,,,,,,,,,,,,,,,,,,,,,,,,,,,,,,,,,,,,,,,,,,,,,,,,,,,,,,,,,,,,,,,,,,,,,,,,,,,,,,,,,,,,,,,,,,,,,,,,,,,,,,,,,,,,,,,,,,,,,,,,,,,,,,,,,,,,,,,,,,,,,,,
1764665406.630716,23415,0,4391.538574,4407.563965,4505.641113,4513.205078,4391.666504,4517.179688,4527.436035,4371.922852,4561.922852,4380.641113,4491.153809,4520,4558.846191,4372.179688,4376.538574,4507.563965,4537.820313,4538.077148,4520.769043,4388.205078,4391.282227,4575.384766,4521.025879,4496.025879,4386.282227,4579.615234,4399.102539,4569.230957,4512.94873,4399.871582,4538.589844,4515.128418,2850,1,24,1536,21036,,,,0,4,4,4,4,4,4,4,4,4,4,4,4,4,4,4,4,4,4,4,4,4,4,4,4,4,4,4,4,4,4,4,4,100,,,,,,,,,,,,,,,,,,,,,,,,,,,,,,,,,,,,,,,,,,,,,,,,,,,,,,,,,,,,,,,,,,,,,,,,,,,,,,,,,,,,,,,,,,,,,,,,,,,,,,,,,,,,,,,,,,,,,,,,,,,,,,,,,,,,,,,,,,,,,,,,,,,,,,,,,,,,,,,,,,,,,,,,,,,,,,,,,,,,,,,,,,,,,,,,,,,,,,,,,,,,,,
1764665406.634622,23416,0,4383.846191,4403.974121,4501.282227,4511.282227,4388.974121,4510.384766,4521.794922,4372.179688,4558.589844,4374.102539,4487.692383,4515,4551.538574,4369.743652,4375.128418,4504.615234,4531.153809,4532.436035,4513.461426,4385.256348,4384.358887,4568.077148,4516.410156,4491.025879,4384.615234,4576.794922,4396.282227,4567.94873,4510,4398.333496,4538.461426,4514.102539,2765,1,24,1792,21044,,,,0,4,4,4,4,4,4,4,4,4,4,4,4,4,4,4,4,4,4,4,4,4,4,4,4,4,4,4,4,4,4,4,4,100,,,,,,,,,,,,,,,,,,,,,,,,,,,,,,,,,,,,,,,,,,,,,,,,,,,,,,,,,,,,,,,,,,,,,,,,,,,,,,,,,,,,,,,,,,,,,,,,,,,,,,,,,,,,,,,,,,,,,,,,,,,,,,,,,,,,,,,,,,,,,,,,,,,,,,,,,,,,,,,,,,,,,,,,,,,,,,,,,,,,,,,,,,,,,,,,,,,,,,,,,,,,,,
1764665406.638528,23417,0,4379.487305,4402.05127,4500.897461,4511.282227,4388.589844,4507.307617,4519.102539,4373.333496,4558.589844,4371.410156,4487.179688,4512.436035,4548.974121,4369.615234,4376.666504,4502.563965,4526.538574,4527.692383,4505.641113,4386.153809,4378.717773,4562.94873,4514.102539,4489.615234,4391.538574,4575.641113,4395.641113,4567.307617,4508.077148,4400.384766,4542.436035,4516.410156,2833,1,24,1792,21044,,,,0,4,4,4,4,4,4,4,4,4,4,4,4,4,4,4,4,4,4,4,4,4,4,4,4,4,4,4,4,4,4,4,4,100,,,,,,,,,,,,,,,,,,,,,,,,,,,,,,,,,,,38622,0,0.020668,-0.696899,-0.716858,-0.004333,1.007447,0.0293,0.022952,18.333334,1.833333,52.833332,,,,,,,,,,,,,,,,,,,,,,,,,,,,,,,,,,,,,,,,,,,,,,,,,,,,,,,,,,,,,,,,,,,,,,,,,,,,,,,,,,,,,,,,,,,,,,,,,,,,,,,,,,,,,,,,,,,,,,,,,,,,,,,,,,,,,,,,,,,,,,,,,,,,,,,,,,,,,,,,
1764665406.642434,23418,0,4379.871582,4402.179688,4504.743652,4514.102539,4389.615234,4508.205078,4520.128418,4374.102539,4562.692383,4374.102539,4489.487305,4511.922852,4551.025879,4370.897461,4381.410156,4503.205078,4526.153809,4527.307617,4502.820313,4391.538574,4378.461426,4562.436035,4515,4493.461426,4403.846191,4578.589844,4397.820313,4567.692383,4508.077148,4404.358887,4548.461426,4521.538574,1945,1,24,2048,21052,,,,0,4,4,4,4,4,4,4,4,4,4,4,4,4,4,4,4,4,4,4,4,4,4,4,4,4,4,4,4,4,4,4,4,100,1,100,4,4,4,4,4,4,4,4,4,4,4,4,4,4,4,4,4,4,4,4,4,4,4,4,4,4,4,4,4,4,4,4,,,,,,,,,,,,,1.304296,2.569315,1.865974,0.801293,1.104305,2.051722,2.829689,2.203399,1.236261,1.331879,2.747104,3.310766,1.758713,1.402435,1.461446,1.17727,1.566545,1.493862,1.140378,1.310543,1.827895,2.195962,2.08035,1.014258,1.320346,2.663973,1.739947,1.491027,0.93348,1.032955,1.266383,1.647441,1.24502,0.927863,1.287603,0.701954,1.425245,1.498344,1.371597,1.435474,0.586012,0.720043,0.988391,1.094558,1.314492,0.499977,0.984773,1.457851,1.115883,1.843744,1.233621,1.263119,0.983718,0.533611,0.785762,1.351044,2.22008,1.408973,0.75691,1.161501,1.047528,1.306234,0.970784,0.604632,0.929029,0.583269,0.558008,0.401401,0.386991,0.793952,0.86561,1.289458,0.377454,0.47679,1.084754,0.553719,0.713053,0.246904,0.377288,0.617559,2.110596,2.692903,2.19958,1.041396,1.304144,1.675762,2.156526,1.134284,1.155677,1.164862,0.73718,1.683167,0.919818,0.907192,0.703056,0.998388,1.587745,0.784545,0.927126,1.115808,1.506834,2.469733,1.136178,1.23509,1.030623,2.160984,3.158726,1.565512,1.151854,1.276638,1.439613,1.753391,2.001241,0.790082,1.104987,2.256443,2.425472,1.888798,1.28278,1.453995,2.387248,2.692292,5.507103,1.70551,1.760588,1.279498,2.313371,1.197645,1.05932,0.984553,1.831146,2.778591,2.105064,1.442044,1.49565,2.147097,2.48454,2.194992,1.363836,1.344036,0.794671,1.264693,1.184644,0.528423,0.537937,2.11822,2.403495,1.828209,1.240406,1.390704,1.382818,3.045274,1.944801,1.26612,1.474369,1.393276,2.959779,1.761986,1.185057,1.412707
1764665406.646339,23419,0,4382.94873,4403.205078,4509.487305,4518.077148,4390.256348,4509.615234,4523.077148,4373.974121,4568.077148,4380.384766,4491.922852,4511.794922,4554.102539,4371.666504,4386.922852,4506.025879,4528.717773,4531.410156,4506.282227,4397.94873,4383.717773,4565.256348,4518.077148,4499.871582,4414.743652,4585.384766,4401.538574,4568.333496,4508.846191,4407.307617,4553.461426,4526.410156,2649,1,24,2048,21052,,,,0,4,4,4,4,4,4,4,4,4,4,4,4,4,4,4,4,4,4,4,4,4,4,4,4,4,4,4,4,4,4,4,4,100,,,,,,,,,,,,,,,,,,,,,,,,,,,,,,,,,,,,,,,,,,,,,,,,,,,,,,,,,,,,,,,,,,,,,,,,,,,,,,,,,,,,,,,,,,,,,,,,,,,,,,,,,,,,,,,,,,,,,,,,,,,,,,,,,,,,,,,,,,,,,,,,,,,,,,,,,,,,,,,,,,,,,,,,,,,,,,,,,,,,,,,,,,,,,,,,,,,,,,,,,,,,,,
1764665406.650245,23420,0,4383.589844,4402.307617,4509.743652,4518.846191,4387.94873,4507.179688,4523.846191,4371.666504,4569.102539,4385.256348,4490.897461,4509.615234,4553.974121,4369.871582,4389.615234,4507.179688,4529.743652,4534.871582,4511.410156,4400.128418,4389.615234,4566.922852,4519.871582,4502.94873,4417.05127,4591.538574,4402.94873,4566.666504,4508.461426,4406.282227,4553.974121,4526.666504,2705,1,24,2304,21060,,,,0,4,4,4,4,4,4,4,4,4,4,4,4,4,4,4,4,4,4,4,4,4,4,4,4,4,4,4,4,4,4,4,4,100,,,,,,,,,,,,,,,,,,,,,,,,,,,,,,,,,,,,,,,,,,,,,,,,,,,,,,,,,,,,,,,,,,,,,,,,,,,,,,,,,,,,,,,,,,,,,,,,,,,,,,,,,,,,,,,,,,,,,,,,,,,,,,,,,,,,,,,,,,,,,,,,,,,,,,,,,,,,,,,,,,,,,,,,,,,,,,,,,,,,,,,,,,,,,,,,,,,,,,,,,,,,,,
1764665406.654151,23421,0,4377.94873,4396.153809,4502.179688,4512.820313,4381.153809,4499.230957,4518.974121,4365.641113,4561.666504,4384.358887,4485,4503.333496,4548.205078,4364.487305,4386.410156,4503.077148,4524.487305,4532.179688,4512.05127,4395.128418,4390.128418,4562.436035,4516.153809,4497.820313,4407.436035,4591.410156,4398.461426,4560.769043,4504.743652,4399.743652,4548.589844,4519.615234,2542,1,24,2304,21060,,,,0,4,4,4,4,4,4,4,4,4,4,4,4,4,4,4,4,4,4,4,4,4,4,4,4,4,4,4,4,4,4,4,4,100,,,,,,,,,,,,,,,,,,,,,,,,,,,,,,,,,,,38623,0,0.020693,-0.696899,-0.716858,-0.004211,1.003052,0.028812,0.02637,19.666666,1.333333,56,,,,,,,,,,,,,,,,,,,,,,,,,,,,,,,,,,,,,,,,,,,,,,,,,,,,,,,,,,,,,,,,,,,,,,,,,,,,,,,,,,,,,,,,,,,,,,,,,,,,,,,,,,,,,,,,,,,,,,,,,,,,,,,,,,,,,,,,,,,,,,,,,,,,,,,,,,,,,,,,
1764665406.658057,23422,0,4366.666504,4385.256348,4489.230957,4500.897461,4371.153809,4488.077148,4509.358887,4356.410156,4546.922852,4377.05127,4476.538574,4493.717773,4538.974121,4357.563965,4378.077148,4494.230957,4512.436035,4523.205078,4505.769043,4384.871582,4383.077148,4551.282227,4507.05127,4485.256348,4389.615234,4583.077148,4388.205078,4551.282227,4498.333496,4389.743652,4539.230957,4507.692383,2670,1,24,2560,21068,,,,0,4,4,4,4,4,4,4,4,4,4,4,4,4,4,4,4,4,4,4,4,4,4,4,4,4,4,4,4,4,4,4,4,100,,,,,,,,,,,,,,,,,,,,,,,,,,,,,,,,,,,,,,,,,,,,,,,,,,,,,,,,,,,,,,,,,,,,,,,,,,,,,,,,,,,,,,,,,,,,,,,,,,,,,,,,,,,,,,,,,,,,,,,,,,,,,,,,,,,,,,,,,,,,,,,,,,,,,,,,,,,,,,,,,,,,,,,,,,,,,,,,,,,,,,,,,,,,,,,,,,,,,,,,,,,,,,
1764665406.661963,23423,0,4355.769043,4374.871582,4478.205078,4489.743652,4363.333496,4479.615234,4500.897461,4348.333496,4533.077148,4368.461426,4471.410156,4485.256348,4532.179688,4353.717773,4370,4486.410156,4500.256348,4514.102539,4496.794922,4375.769043,4373.333496,4539.487305,4497.307617,4472.307617,4373.205078,4571.922852,4378.077148,4542.179688,4492.563965,4382.05127,4531.025879,4498.333496,2836,1,24,2560,21068,,,,0,4,4,4,4,4,4,4,4,4,4,4,4,4,4,4,4,4,4,4,4,4,4,4,4,4,4,4,4,4,4,4,4,100,,,,,,,,,,,,,,,,,,,,,,,,,,,,,,,,,,,,,,,,,,,,,,,,,,,,,,,,,,,,,,,,,,,,,,,,,,,,,,,,,,,,,,,,,,,,,,,,,,,,,,,,,,,,,,,,,,,,,,,,,,,,,,,,,,,,,,,,,,,,,,,,,,,,,,,,,,,,,,,,,,,,,,,,,,,,,,,,,,,,,,,,,,,,,,,,,,,,,,,,,,,,,,
1764665406.665868,23424,0,4352.179688,4372.05127,4476.410156,4486.794922,4362.94873,4478.333496,4499.358887,4346.538574,4528.974121,4365.384766,4474.487305,4483.717773,4533.077148,4356.538574,4367.94873,4485.512695,4496.153809,4512.563965,4492.436035,4373.717773,4368.205078,4534.487305,4492.692383,4467.820313,4368.077148,4565.769043,4374.615234,4537.94873,4490.641113,4381.794922,4528.461426,4497.692383,2776,1,24,2304,21075,,,,0,4,4,4,4,4,4,4,4,4,4,4,4,4,4,4,4,4,4,4,4,4,4,4,4,4,4,4,4,4,4,4,4,100,,,,,,,,,,,,,,,,,,,,,,,,,,,,,,,,,,,,,,,,,,,,,,,,,,,,,,,,,,,,,,,,,,,,,,,,,,,,,,,,,,,,,,,,,,,,,,,,,,,,,,,,,,,,,,,,,,,,,,,,,,,,,,,,,,,,,,,,,,,,,,,,,,,,,,,,,,,,,,,,,,,,,,,,,,,,,,,,,,,,,,,,,,,,,,,,,,,,,,,,,,,,,,
1764665406.669774,23425,0,4357.307617,4378.205078,4483.717773,4493.717773,4369.871582,4483.846191,4505.256348,4352.307617,4535.897461,4369.871582,4483.974121,4489.615234,4541.666504,4365.128418,4372.692383,4491.666504,4502.563965,4519.871582,4495.641113,4378.333496,4371.153809,4538.589844,4494.615234,4473.589844,4376.282227,4568.205078,4378.846191,4539.102539,4493.333496,4388.461426,4531.794922,4504.743652,2938,1,24,2304,21075,,,,0,4,4,4,4,4,4,4,4,4,4,4,4,4,4,4,4,4,4,4,4,4,4,4,4,4,4,4,4,4,4,4,4,100,,,,,,,,,,,,,,,,,,,,,,,,,,,,,,,,,,,38624,0,0.020693,-0.696899,-0.716858,-0.004211,0.99768,0.036626,0.026859,18.333334,2.333333,55,,,,,,,,,,,,,,,,,,,,,,,,,,,,,,,,,,,,,,,,,,,,,,,,,,,,,,,,,,,,,,,,,,,,,,,,,,,,,,,,,,,,,,,,,,,,,,,,,,,,,,,,,,,,,,,,,,,,,,,,,,,,,,,,,,,,,,,,,,,,,,,,,,,,,,,,,,,,,,,,
1764665406.673680,23426,0,4365,4387.179688,4493.333496,4503.974121,4377.820313,4490.641113,4512.436035,4360.897461,4546.153809,4377.307617,4492.820313,4497.307617,4551.666504,4373.974121,4379.358887,4498.846191,4513.974121,4529.615234,4502.436035,4383.846191,4378.333496,4546.666504,4498.974121,4483.589844,4389.358887,4575.128418,4385.384766,4541.410156,4497.179688,4395.256348,4536.153809,4511.282227,2604,1,24,1024,21083,,,,0,4,4,4,4,4,4,4,4,4,4,4,4,4,4,4,4,4,4,4,4,4,4,4,4,4,4,4,4,4,4,4,4,100,,,,,,,,,,,,,,,,,,,,,,,,,,,,,,,,,,,,,,,,,,,,,,,,,,,,,,,,,,,,,,,,,,,,,,,,,,,,,,,,,,,,,,,,,,,,,,,,,,,,,,,,,,,,,,,,,,,,,,,,,,,,,,,,,,,,,,,,,,,,,,,,,,,,,,,,,,,,,,,,,,,,,,,,,,,,,,,,,,,,,,,,,,,,,,,,,,,,,,,,,,,,,,
1764665406.677586,23427,0,4367.692383,4391.153809,4497.179688,4509.487305,4379.358887,4493.461426,4514.102539,4365.769043,4550.128418,4381.025879,4495.256348,4499.743652,4556.282227,4377.436035,4382.563965,4501.153809,4522.179688,4533.077148,4506.282227,4384.358887,4382.436035,4551.153809,4500.641113,4488.974121,4395.769043,4579.743652,4387.436035,4540.512695,4498.205078,4395.512695,4536.282227,4510.512695,2872,1,24,1024,21083,,,,0,4,4,4,4,4,4,4,4,4,4,4,4,4,4,4,4,4,4,4,4,4,4,4,4,4,4,4,4,4,4,4,4,100,,,,,,,,,,,,,,,,,,,,,,,,,,,,,,,,,,,,,,,,,,,,,,,,,,,,,,,,,,,,,,,,,,,,,,,,,,,,,,,,,,,,,,,,,,,,,,,,,,,,,,,,,,,,,,,,,,,,,,,,,,,,,,,,,,,,,,,,,,,,,,,,,,,,,,,,,,,,,,,,,,,,,,,,,,,,,,,,,,,,,,,,,,,,,,,,,,,,,,,,,,,,,,
1764665406.681491,23428,0,4363.974121,4388.077148,4493.974121,4507.436035,4373.717773,4491.538574,4509.871582,4365.256348,4545.641113,4379.102539,4492.05127,4495.769043,4554.487305,4375.128418,4381.153809,4497.94873,4523.077148,4528.333496,4504.102539,4379.743652,4380.128418,4549.615234,4498.846191,4486.282227,4390.769043,4578.717773,4383.717773,4536.794922,4495.384766,4389.230957,4531.922852,4504.230957,2764,1,24,512,21091,,,,0,4,4,4,4,4,4,4,4,4,4,4,4,4,4,4,4,4,4,4,4,4,4,4,4,4,4,4,4,4,4,4,4,100,,,,,,,,,,,,,,,,,,,,,,,,,,,,,,,,,,,,,,,,,,,,,,,,,,,,,,,,,,,,,,,,,,,,,,,,,,,,,,,,,,,,,,,,,,,,,,,,,,,,,,,,,,,,,,,,,,,,,,,,,,,,,,,,,,,,,,,,,,,,,,,,,,,,,,,,,,,,,,,,,,,,,,,,,,,,,,,,,,,,,,,,,,,,,,,,,,,,,,,,,,,,,,
1764665406.685397,23429,0,4359.487305,4383.205078,4489.871582,4503.589844,4367.692383,4489.615234,4506.025879,4363.846191,4539.102539,4376.666504,4489.615234,4491.153809,4551.538574,4371.410156,4378.589844,4494.102539,4520.384766,4521.282227,4499.230957,4374.871582,4374.487305,4546.282227,4497.692383,4480.128418,4380.769043,4575.256348,4379.743652,4534.743652,4491.922852,4383.205078,4528.589844,4501.025879,2802,1,24,512,21091,,,,0,4,4,4,4,4,4,4,4,4,4,4,4,4,4,4,4,4,4,4,4,4,4,4,4,4,4,4,4,4,4,4,4,100,,,,,,,,,,,,,,,,,,,,,,,,,,,,,,,,,,,38625,0,0.020705,-0.696899,-0.716858,-0.00415,1.000122,0.031254,0.028324,19.666666,-0.166667,53.5,,,,,,,,,,,,,,,,,,,,,,,,,,,,,,,,,,,,,,,,,,,,,,,,,,,,,,,,,,,,,,,,,,,,,,,,,,,,,,,,,,,,,,,,,,,,,,,,,,,,,,,,,,,,,,,,,,,,,,,,,,,,,,,,,,,,,,,,,,,,,,,,,,,,,,,,,,,,,,,,
1764665406.689303,23430,0,4361.538574,4383.717773,4492.307617,4505.256348,4369.230957,4492.692383,4508.717773,4367.05127,4539.230957,4379.487305,4493.077148,4492.94873,4553.205078,4371.153809,4378.589844,4494.487305,4520.512695,4519.487305,4497.563965,4374.743652,4371.794922,4546.794922,4501.666504,4478.205078,4376.153809,4574.743652,4382.307617,4538.846191,4492.307617,4384.871582,4532.05127,4507.563965,2808,1,24,256,21099,,,,0,4,4,4,4,4,4,4,4,4,4,4,4,4,4,4,4,4,4,4,4,4,4,4,4,4,4,4,4,4,4,4,4,100,,,,,,,,,,,,,,,,,,,,,,,,,,,,,,,,,,,,,,,,,,,,,,,,,,,,,,,,,,,,,,,,,,,,,,,,,,,,,,,,,,,,,,,,,,,,,,,,,,,,,,,,,,,,,,,,,,,,,,,,,,,,,,,,,,,,,,,,,,,,,,,,,,,,,,,,,,,,,,,,,,,,,,,,,,,,,,,,,,,,,,,,,,,,,,,,,,,,,,,,,,,,,,
1764665406.693209,23431,0,4371.666504,4391.410156,4502.692383,4514.230957,4379.487305,4501.153809,4518.589844,4375.641113,4548.461426,4388.077148,4501.410156,4502.436035,4560.384766,4375.384766,4381.410156,4499.487305,4527.436035,4525.256348,4501.282227,4379.487305,4375.256348,4553.205078,4510.897461,4484.230957,4381.794922,4578.846191,4392.05127,4548.846191,4497.94873,4394.615234,4542.05127,4521.666504,2995,1,24,256,21099,,,,0,4,4,4,4,4,4,4,4,4,4,4,4,4,4,4,4,4,4,4,4,4,4,4,4,4,4,4,4,4,4,4,4,100,,,,,,,,,,,,,,,,,,,,,,,,,,,,,,,,,,,,,,,,,,,,,,,,,,,,,,,,,,,,,,,,,,,,,,,,,,,,,,,,,,,,,,,,,,,,,,,,,,,,,,,,,,,,,,,,,,,,,,,,,,,,,,,,,,,,,,,,,,,,,,,,,,,,,,,,,,,,,,,,,,,,,,,,,,,,,,,,,,,,,,,,,,,,,,,,,,,,,,,,,,,,,,
1764665406.697115,23432,0,4384.102539,4401.410156,4514.358887,4524.743652,4391.410156,4509.743652,4529.615234,4384.871582,4560.769043,4396.153809,4508.974121,4514.102539,4568.717773,4380.256348,4383.333496,4504.743652,4537.94873,4533.333496,4507.436035,4384.487305,4382.179688,4561.538574,4520.384766,4494.615234,4393.461426,4584.358887,4402.94873,4559.230957,4505.641113,4405.512695,4552.179688,4534.102539,2882,1,24,512,21107,,,,0,4,4,4,4,4,4,4,4,4,4,4,4,4,4,4,4,4,4,4,4,4,4,4,4,4,4,4,4,4,4,4,4,100,,,,,,,,,,,,,,,,,,,,,,,,,,,,,,,,,,,,,,,,,,,,,,,,,,,,,,,,,,,,,,,,,,,,,,,,,,,,,,,,,,,,,,,,,,,,,,,,,,,,,,,,,,,,,,,,,,,,,,,,,,,,,,,,,,,,,,,,,,,,,,,,,,,,,,,,,,,,,,,,,,,,,,,,,,,,,,,,,,,,,,,,,,,,,,,,,,,,,,,,,,,,,,
1764665406.701020,23433,0,4390.769043,4406.922852,4519.102539,4528.717773,4397.307617,4513.333496,4534.743652,4388.846191,4567.179688,4396.666504,4511.025879,4520.641113,4572.692383,4381.282227,4380.897461,4505.512695,4545.641113,4536.410156,4511.025879,4384.871582,4386.025879,4566.282227,4524.615234,4502.179688,4401.410156,4586.666504,4407.436035,4564.102539,4510.641113,4409.743652,4555,4536.666504,2727,1,24,512,21107,,,,0,4,4,4,4,4,4,4,4,4,4,4,4,4,4,4,4,4,4,4,4,4,4,4,4,4,4,4,4,4,4,4,4,100,,,,,,,,,,,,,,,,,,,,,,,,,,,,,,,,,,,38626,0,0.020681,-0.696899,-0.716858,-0.004272,0.996704,0.033207,0.033207,18.166666,0.5,53.833332,,,,,,,,,,,,,,,,,,,,,,,,,,,,,,,,,,,,,,,,,,,,,,,,,,,,,,,,,,,,,,,,,,,,,,,,,,,,,,,,,,,,,,,,,,,,,,,,,,,,,,,,,,,,,,,,,,,,,,,,,,,,,,,,,,,,,,,,,,,,,,,,,,,,,,,,,,,,,,,,
1764665406.704926,23434,0,4388.589844,4404.743652,4514.743652,4523.461426,4394.871582,4511.410156,4531.922852,4385.256348,4563.461426,4387.563965,4507.307617,4519.102539,4570.128418,4377.692383,4373.974121,4500.512695,4546.282227,4531.282227,4508.846191,4379.743652,4382.692383,4564.871582,4522.179688,4502.179688,4398.846191,4583.846191,4403.333496,4561.666504,4510.128418,4405.384766,4549.102539,4529.743652,1878,1,24,512,21114,,,,0,4,4,4,4,4,4,4,4,4,4,4,4,4,4,4,4,4,4,4,4,4,4,4,4,4,4,4,4,4,4,4,4,100,,,,,,,,,,,,,,,,,,,,,,,,,,,,,,,,,,,,,,,,,,,,,,,,,,,,,,,,,,,,,,,,,,,,,,,,,,,,,,,,,,,,,,,,,,,,,,,,,,,,,,,,,,,,,,,,,,,,,,,,,,,,,,,,,,,,,,,,,,,,,,,,,,,,,,,,,,,,,,,,,,,,,,,,,,,,,,,,,,,,,,,,,,,,,,,,,,,,,,,,,,,,,,
1764665406.708832,23435,0,4381.922852,4398.717773,4506.538574,4513.846191,4388.846191,4508.333496,4525.769043,4377.436035,4553.461426,4373.846191,4502.94873,4512.692383,4563.589844,4372.563965,4367.307617,4493.077148,4541.025879,4520.769043,4502.436035,4372.307617,4374.615234,4559.871582,4516.794922,4496.153809,4386.922852,4578.589844,4395.384766,4556.410156,4505.897461,4397.436035,4539.743652,4520.897461,2704,1,24,512,21114,,,,0,4,4,4,4,4,4,4,4,4,4,4,4,4,4,4,4,4,4,4,4,4,4,4,4,4,4,4,4,4,4,4,4,100,,,,,,,,,,,,,,,,,,,,,,,,,,,,,,,,,,,,,,,,,,,,,,,,,,,,,,,,,,,,,,,,,,,,,,,,,,,,,,,,,,,,,,,,,,,,,,,,,,,,,,,,,,,,,,,,,,,,,,,,,,,,,,,,,,,,,,,,,,,,,,,,,,,,,,,,,,,,,,,,,,,,,,,,,,,,,,,,,,,,,,,,,,,,,,,,,,,,,,,,,,,,,,
1764665406.712738,23436,0,4378.333496,4395.897461,4502.307617,4508.333496,4385.897461,4508.846191,4522.94873,4372.05127,4545.769043,4364.487305,4503.333496,4508.205078,4558.461426,4369.871582,4366.153809,4488.077148,4535.512695,4511.410156,4496.922852,4368.461426,4368.589844,4556.538574,4514.358887,4490.384766,4374.743652,4576.282227,4391.538574,4554.615234,4502.692383,4394.102539,4535.128418,4519.102539,2501,1,24,768,21122,,,,0,4,4,4,4,4,4,4,4,4,4,4,4,4,4,4,4,4,4,4,4,4,4,4,4,4,4,4,4,4,4,4,4,100,,,,,,,,,,,,,,,,,,,,,,,,,,,,,,,,,,,,,,,,,,,,,,,,,,,,,,,,,,,,,,,,,,,,,,,,,,,,,,,,,,,,,,,,,,,,,,,,,,,,,,,,,,,,,,,,,,,,,,,,,,,,,,,,,,,,,,,,,,,,,,,,,,,,,,,,,,,,,,,,,,,,,,,,,,,,,,,,,,,,,,,,,,,,,,,,,,,,,,,,,,,,,,
1764665406.716643,23437,0,4382.436035,4400.512695,4506.153809,4512.05127,4389.615234,4514.230957,4526.538574,4373.846191,4546.538574,4366.282227,4509.230957,4509.743652,4558.717773,4371.666504,4372.05127,4488.333496,4534.871582,4509.615234,4497.563965,4371.538574,4370.769043,4559.358887,4518.589844,4490.384766,4372.94873,4580.641113,4396.410156,4559.871582,4504.358887,4399.358887,4539.871582,4527.05127,2219,1,24,768,21122,,,,0,4,4,4,4,4,4,4,4,4,4,4,4,4,4,4,4,4,4,4,4,4,4,4,4,4,4,4,4,4,4,4,4,100,,,,,,,,,,,,,,,,,,,,,,,,,,,,,,,,,,,38627,0,0.020693,-0.696899,-0.716858,-0.004211,0.998657,0.031254,0.043462,17.833334,1.5,53.666668,,,,,,,,,,,,,,,,,,,,,,,,,,,,,,,,,,,,,,,,,,,,,,,,,,,,,,,,,,,,,,,,,,,,,,,,,,,,,,,,,,,,,,,,,,,,,,,,,,,,,,,,,,,,,,,,,,,,,,,,,,,,,,,,,,,,,,,,,,,,,,,,,,,,,,,,,,,,,,,,
1764665406.720549,23438,0,4391.538574,4410,4515,4522.436035,4397.436035,4521.282227,4534.102539,4381.538574,4554.358887,4378.846191,4516.153809,4515.512695,4563.077148,4376.025879,4380.384766,4493.205078,4539.487305,4516.666504,4505.512695,4380.256348,4381.025879,4567.307617,4527.436035,4496.794922,4385,4589.615234,4407.820313,4569.615234,4510.384766,4410.384766,4550.512695,4539.102539,2720,1,24,1024,21130,,,,0,4,4,4,4,4,4,4,4,4,4,4,4,4,4,4,4,4,4,4,4,4,4,4,4,4,4,4,4,4,4,4,4,100,,,,,,,,,,,,,,,,,,,,,,,,,,,,,,,,,,,,,,,,,,,,,,,,,,,,,,,,,,,,,,,,,,,,,,,,,,,,,,,,,,,,,,,,,,,,,,,,,,,,,,,,,,,,,,,,,,,,,,,,,,,,,,,,,,,,,,,,,,,,,,,,,,,,,,,,,,,,,,,,,,,,,,,,,,,,,,,,,,,,,,,,,,,,,,,,,,,,,,,,,,,,,,
1764665406.724455,23439,0,4397.563965,4416.666504,4521.025879,4530.897461,4402.94873,4524.230957,4538.846191,4388.077148,4561.410156,4392.820313,4517.692383,4518.974121,4566.025879,4378.717773,4384.230957,4498.333496,4544.743652,4527.179688,4515.641113,4388.205078,4392.436035,4573.974121,4533.717773,4503.717773,4403.589844,4596.153809,4417.179688,4576.410156,4515.769043,4418.589844,4558.717773,4545.641113,2498,1,24,1024,21130,,,,0,4,4,4,4,4,4,4,4,4,4,4,4,4,4,4,4,4,4,4,4,4,4,4,4,4,4,4,4,4,4,4,4,100,,,,,,,,,,,,,,,,,,,,,,,,,,,,,,,,,,,,,,,,,,,,,,,,,,,,,,,,,,,,,,,,,,,,,,,,,,,,,,,,,,,,,,,,,,,,,,,,,,,,,,,,,,,,,,,,,,,,,,,,,,,,,,,,,,,,,,,,,,,,,,,,,,,,,,,,,,,,,,,,,,,,,,,,,,,,,,,,,,,,,,,,,,,,,,,,,,,,,,,,,,,,,,
1764665406.728361,23440,0,4393.333496,4413.589844,4518.589844,4529.487305,4400.512695,4519.743652,4535.384766,4385.897461,4560,4397.307617,4510.512695,4514.358887,4561.538574,4376.282227,4379.615234,4498.974121,4543.974121,4533.333496,4520.128418,4389.615234,4396.282227,4572.563965,4531.025879,4504.358887,4416.666504,4594.871582,4416.538574,4574.102539,4515.256348,4417.563965,4557.179688,4540.897461,2873,1,24,1280,21138,,,,0,4,4,4,4,4,4,4,4,4,4,4,4,4,4,4,4,4,4,4,4,4,4,4,4,4,4,4,4,4,4,4,4,100,,,,,,,,,,,,,,,,,,,,,,,,,,,,,,,,,,,,,,,,,,,,,,,,,,,,,,,,,,,,,,,,,,,,,,,,,,,,,,,,,,,,,,,,,,,,,,,,,,,,,,,,,,,,,,,,,,,,,,,,,,,,,,,,,,,,,,,,,,,,,,,,,,,,,,,,,,,,,,,,,,,,,,,,,,,,,,,,,,,,,,,,,,,,,,,,,,,,,,,,,,,,,,
1764665406.732266,23441,0,4380.512695,4401.922852,4509.102539,4518.205078,4390.769043,4510.128418,4524.615234,4375,4549.743652,4388.333496,4497.94873,4502.179688,4549.871582,4369.230957,4369.487305,4494.230957,4535.128418,4531.025879,4515.641113,4383.717773,4389.871582,4562.692383,4519.230957,4497.307617,4417.05127,4586.666504,4405.769043,4563.717773,4508.589844,4408.461426,4546.794922,4528.205078,2926,1,24,1280,21138,,,,0,4,4,4,4,4,4,4,4,4,4,4,4,4,4,4,4,4,4,4,4,4,4,4,4,4,4,4,4,4,4,4,4,100,,,,,,,,,,,,,,,,,,,,,,,,,,,,,,,,,,,38628,0,0.020693,-0.696899,-0.716858,-0.004211,0.987425,0.027835,0.040044,18.5,0.833333,53,,,,,,,,,,,,,,,,,,,,,,,,,,,,,,,,,,,,,,,,,,,,,,,,,,,,,,,,,,,,,,,,,,,,,,,,,,,,,,,,,,,,,,,,,,,,,,,,,,,,,,,,,,,,,,,,,,,,,,,,,,,,,,,,,,,,,,,,,,,,,,,,,,,,,,,,,,,,,,,,
1764665406.736172,23442,0,4367.692383,4390.128418,4500.512695,4504.871582,4381.153809,4502.563965,4513.974121,4362.820313,4538.077148,4372.94873,4487.307617,4490.256348,4537.94873,4362.820313,4361.666504,4488.333496,4523.077148,4523.846191,4506.410156,4376.794922,4378.974121,4551.025879,4505.769043,4487.692383,4408.974121,4579.230957,4393.333496,4552.563965,4500.769043,4399.102539,4536.153809,4517.563965,1767,1,24,1536,21146,,,,0,4,4,4,4,4,4,4,4,4,4,4,4,4,4,4,4,4,4,4,4,4,4,4,4,4,4,4,4,4,4,4,4,100,,,,,,,,,,,,,,,,,,,,,,,,,,,,,,,,,,,,,,,,,,,,,,,,,,,,,,,,,,,,,,,,,,,,,,,,,,,,,,,,,,,,,,,,,,,,,,,,,,,,,,,,,,,,,,,,,,,,,,,,,,,,,,,,,,,,,,,,,,,,,,,,,,,,,,,,,,,,,,,,,,,,,,,,,,,,,,,,,,,,,,,,,,,,,,,,,,,,,,,,,,,,,,
1764665406.740078,23443,0,4364.102539,4386.538574,4499.487305,4498.846191,4378.846191,4501.922852,4511.794922,4358.717773,4534.230957,4363.205078,4484.487305,4485.641113,4533.846191,4362.05127,4362.05127,4486.410156,4515.256348,4518.461426,4500.128418,4375.641113,4372.307617,4545.384766,4498.717773,4482.563965,4401.922852,4579.487305,4388.846191,4548.077148,4497.820313,4397.436035,4533.717773,4516.666504,2947,1,24,1536,21146,,,,0,4,4,4,4,4,4,4,4,4,4,4,4,4,4,4,4,4,4,4,4,4,4,4,4,4,4,4,4,4,4,4,4,100,,,,,,,,,,,,,,,,,,,,,,,,,,,,,,,,,,,,,,,,,,,,,,,,,,,,,,,,,,,,,,,,,,,,,,,,,,,,,,,,,,,,,,,,,,,,,,,,,,,,,,,,,,,,,,,,,,,,,,,,,,,,,,,,,,,,,,,,,,,,,,,,,,,,,,,,,,,,,,,,,,,,,,,,,,,,,,,,,,,,,,,,,,,,,,,,,,,,,,,,,,,,,,
1764665406.743984,23444,0,4370.384766,4391.922852,4505.769043,4502.307617,4384.358887,4507.179688,4518.589844,4363.974121,4540.128418,4365,4488.717773,4488.589844,4539.102539,4367.179688,4370.256348,4489.871582,4515.128418,4518.589844,4500.769043,4382.307617,4373.974121,4548.205078,4500.256348,4484.487305,4401.794922,4587.436035,4394.615234,4551.410156,4501.153809,4403.461426,4540.256348,4525.128418,2537,1,24,1792,21153,,,,0,4,4,4,4,4,4,4,4,4,4,4,4,4,4,4,4,4,4,4,4,4,4,4,4,4,4,4,4,4,4,4,4,100,,,,,,,,,,,,,,,,,,,,,,,,,,,,,,,,,,,,,,,,,,,,,,,,,,,,,,,,,,,,,,,,,,,,,,,,,,,,,,,,,,,,,,,,,,,,,,,,,,,,,,,,,,,,,,,,,,,,,,,,,,,,,,,,,,,,,,,,,,,,,,,,,,,,,,,,,,,,,,,,,,,,,,,,,,,,,,,,,,,,,,,,,,,,,,,,,,,,,,,,,,,,,,
1764665406.747890,23445,0,4379.871582,4398.974121,4512.179688,4510,4391.410156,4511.794922,4527.436035,4372.179688,4549.871582,4373.205078,4493.589844,4492.820313,4547.820313,4374.102539,4379.487305,4495.512695,4520.128418,4522.179688,4506.153809,4391.922852,4381.025879,4554.743652,4505.769043,4489.230957,4406.410156,4596.538574,4403.846191,4557.179688,4506.794922,4410.128418,4548.717773,4534.871582,2824,1,24,1792,21153,,,,0,4,4,4,4,4,4,4,4,4,4,4,4,4,4,4,4,4,4,4,4,4,4,4,4,4,4,4,4,4,4,4,4,100,,,,,,,,,,,,,,,,,,,,,,,,,,,,,,,,,,,38629,0,0.020621,-0.696838,-0.716919,-0.004272,0.987425,0.027835,0.040044,18.166666,0.5,52.666668,,,,,,,,,,,,,,,,,,,,,,,,,,,,,,,,,,,,,,,,,,,,,,,,,,,,,,,,,,,,,,,,,,,,,,,,,,,,,,,,,,,,,,,,,,,,,,,,,,,,,,,,,,,,,,,,,,,,,,,,,,,,,,,,,,,,,,,,,,,,,,,,,,,,,,,,,,,,,,,,
1764665406.751795,23446,0,4384.230957,4399.743652,4511.794922,4513.846191,4393.077148,4510.384766,4529.871582,4375.128418,4554.743652,4377.692383,4493.589844,4492.563965,4551.922852,4377.820313,4383.205078,4499.358887,4524.487305,4525.128418,4510.512695,4397.820313,4387.179688,4558.846191,4509.102539,4491.794922,4408.846191,4599.743652,4407.820313,4559.230957,4509.102539,4410.512695,4551.538574,4537.307617,2927,1,24,2048,21161,,,,0,4,4,4,4,4,4,4,4,4,4,4,4,4,4,4,4,4,4,4,4,4,4,4,4,4,4,4,4,4,4,4,4,100,,,,,,,,,,,,,,,,,,,,,,,,,,,,,,,,,,,,,,,,,,,,,,,,,,,,,,,,,,,,,,,,,,,,,,,,,,,,,,,,,,,,,,,,,,,,,,,,,,,,,,,,,,,,,,,,,,,,,,,,,,,,,,,,,,,,,,,,,,,,,,,,,,,,,,,,,,,,,,,,,,,,,,,,,,,,,,,,,,,,,,,,,,,,,,,,,,,,,,,,,,,,,,
1764665406.755701,23447,0,4380.641113,4392.436035,4503.717773,4509.871582,4387.692383,4504.102539,4523.717773,4370.256348,4550.641113,4373.077148,4488.846191,4487.820313,4548.974121,4377.179688,4379.871582,4500.256348,4525,4525.641113,4511.025879,4397.05127,4388.461426,4557.94873,4508.077148,4489.871582,4404.743652,4595.128418,4403.205078,4555.641113,4505.897461,4404.230957,4546.794922,4530,2841,1,24,2048,21161,,,,0,4,4,4,4,4,4,4,4,4,4,4,4,4,4,4,4,4,4,4,4,4,4,4,4,4,4,4,4,4,4,4,4,100,,,,,,,,,,,,,,,,,,,,,,,,,,,,,,,,,,,,,,,,,,,,,,,,,,,,,,,,,,,,,,,,,,,,,,,,,,,,,,,,,,,,,,,,,,,,,,,,,,,,,,,,,,,,,,,,,,,,,,,,,,,,,,,,,,,,,,,,,,,,,,,,,,,,,,,,,,,,,,,,,,,,,,,,,,,,,,,,,,,,,,,,,,,,,,,,,,,,,,,,,,,,,,
1764665406.759607,23448,0,4372.692383,4381.794922,4493.205078,4500.128418,4379.102539,4497.820313,4513.589844,4362.05127,4540.256348,4363.333496,4483.461426,4482.692383,4542.563965,4373.717773,4373.589844,4498.846191,4522.692383,4525.128418,4508.589844,4390.897461,4385.769043,4553.205078,4504.102539,4485.641113,4395.512695,4587.05127,4393.205078,4549.102539,4499.487305,4396.153809,4538.205078,4517.179688,2758,1,24,2304,21169,,,,0,4,4,4,4,4,4,4,4,4,4,4,4,4,4,4,4,4,4,4,4,4,4,4,4,4,4,4,4,4,4,4,4,100,,,,,,,,,,,,,,,,,,,,,,,,,,,,,,,,,,,,,,,,,,,,,,,,,,,,,,,,,,,,,,,,,,,,,,,,,,,,,,,,,,,,,,,,,,,,,,,,,,,,,,,,,,,,,,,,,,,,,,,,,,,,,,,,,,,,,,,,,,,,,,,,,,,,,,,,,,,,,,,,,,,,,,,,,,,,,,,,,,,,,,,,,,,,,,,,,,,,,,,,,,,,,,
1764665406.763513,23449,0,4365.128418,4374.487305,4486.282227,4490.384766,4372.05127,4496.153809,4505.897461,4356.025879,4529.487305,4355.897461,4481.538574,4480.641113,4538.077148,4370.128418,4369.487305,4496.025879,4519.487305,4525.256348,4505.384766,4383.461426,4381.922852,4547.436035,4499.743652,4481.282227,4386.794922,4580.256348,4383.461426,4543.333496,4493.974121,4391.538574,4531.153809,4505.769043,2825,1,24,2304,21169,,,,0,4,4,4,4,4,4,4,4,4,4,4,4,4,4,4,4,4,4,4,4,4,4,4,4,4,4,4,4,4,4,4,4,100,,,,,,,,,,,,,,,,,,,,,,,,,,,,,,,,,,,38630,0,0.020562,-0.696777,-0.71698,-0.004272,0.989379,0.028324,0.027835,20,1.5,54.166668,,,,,,,,,,,,,,,,,,,,,,,,,,,,,,,,,,,,,,,,,,,,,,,,,,,,,,,,,,,,,,,,,,,,,,,,,,,,,,,,,,,,,,,,,,,,,,,,,,,,,,,,,,,,,,,,,,,,,,,,,,,,,,,,,,,,,,,,,,,,,,,,,,,,,,,,,,,,,,,,
1764665406.767418,23450,0,4361.282227,4373.846191,4485.256348,4485.512695,4368.974121,4499.358887,4504.358887,4355.512695,4523.461426,4356.025879,4483.333496,4481.666504,4537.94873,4368.205078,4369.871582,4492.307617,4516.922852,4525,4501.794922,4377.820313,4378.974121,4542.563965,4497.05127,4477.94873,4382.94873,4577.05127,4378.205078,4539.743652,4492.179688,4391.282227,4528.205078,4500.897461,1939,1,24,2560,21177,,,,0,4,4,4,4,4,4,4,4,4,4,4,4,4,4,4,4,4,4,4,4,4,4,4,4,4,4,4,4,4,4,4,4,100,,,,,,,,,,,,,,,,,,,,,,,,,,,,,,,,,,,,,,,,,,,,,,,1.413271,3.265784,1.591529,0.805844,1.138218,1.882367,3.756466,2.023054,1.205688,1.306803,2.302559,3.683627,1.566627,1.39339,1.437933,0.943308,1.776113,1.329683,1.163659,1.267637,1.826738,2.709346,1.809074,0.995368,1.250362,2.558712,2.393349,1.272174,0.891047,1.016124,1.370069,2.310515,1.114448,0.929663,1.263519,0.653261,1.847108,1.542899,1.386043,1.376293,0.521227,0.885684,0.985653,1.11851,1.321978,0.532552,1.397872,1.317886,1.16509,1.750383,1.182487,1.514032,0.841118,0.519265,0.747076,1.419544,3.125547,1.299138,0.775419,1.117733,1.134716,2.088274,0.987221,0.563006,0.927904,0.560453,0.739947,0.407689,0.392451,0.751965,0.928088,1.551695,0.40968,0.515174,1.011837,0.500459,0.996992,0.20687,0.378451,0.644952,1.921641,4.013951,1.913192,1.08747,1.288558,1.506166,2.702822,1.073089,1.05191,1.120864,0.582197,2.022772,0.806016,0.872832,0.698107,0.936585,1.883792,0.726877,0.926587,1.088452,1.41601,3.218976,0.937825,1.16513,1.060111,1.997513,4.224683,1.45119,1.09279,1.280792,1.584913,2.424461,1.669121,0.712457,1.121511,2.344921,3.269635,1.718577,1.222258,1.430854,2.222392,3.682742,5.02876,1.81264,1.640254,1.347879,2.846029,1.089864,1.003738,0.960054,1.892803,3.488255,1.84693,1.367482,1.495022,2.253182,3.312746,1.913034,1.31015,1.377392,0.798158,1.597746,1.123687,0.533894,0.533712,2.352865,2.978463,1.625339,1.205139,1.353433,1.575695,3.624746,1.65586,1.202316,1.448398,1.412991,3.39337,1.630821,1.219138,1.388668
1764665406.771324,23451,0,4362.179688,4379.102539,4488.333496,4487.307617,4370,4504.615234,4508.846191,4359.230957,4523.846191,4362.820313,4487.179688,4484.230957,4541.538574,4368.717773,4373.589844,4489.102539,4516.153809,4522.692383,4497.436035,4375.769043,4377.179688,4539.743652,4496.794922,4475.641113,4384.358887,4577.05127,4378.205078,4537.94873,4493.974121,4393.717773,4529.615234,4503.846191,2640,1,24,2560,21177,,,,0,4,4,4,4,4,4,4,4,4,4,4,4,4,4,4,4,4,4,4,4,4,4,4,4,4,4,4,4,4,4,4,4,100,,,,,,,,,,,,,,,,,,,,,,,,,,,,,,,,,,,,,,,,,,,,,,,,,,,,,,,,,,,,,,,,,,,,,,,,,,,,,,,,,,,,,,,,,,,,,,,,,,,,,,,,,,,,,,,,,,,,,,,,,,,,,,,,,,,,,,,,,,,,,,,,,,,,,,,,,,,,,,,,,,,,,,,,,,,,,,,,,,,,,,,,,,,,,,,,,,,,,,,,,,,,,,
1764665406.775230,23452,0,4366.922852,4386.794922,4491.794922,4493.974121,4373.589844,4508.846191,4516.025879,4364.358887,4529.743652,4371.794922,4490.641113,4487.692383,4547.436035,4371.922852,4377.563965,4488.974121,4518.205078,4519.102539,4493.974121,4376.922852,4376.153809,4539.615234,4499.487305,4475,4388.205078,4579.102539,4381.538574,4537.692383,4497.307617,4396.410156,4533.077148,4511.282227,2696,1,24,2560,21185,,,,0,4,4,4,4,4,4,4,4,4,4,4,4,4,4,4,4,4,4,4,4,4,4,4,4,4,4,4,4,4,4,4,4,100,,,,,,,,,,,,,,,,,,,,,,,,,,,,,,,,,,,,,,,,,,,,,,,,,,,,,,,,,,,,,,,,,,,,,,,,,,,,,,,,,,,,,,,,,,,,,,,,,,,,,,,,,,,,,,,,,,,,,,,,,,,,,,,,,,,,,,,,,,,,,,,,,,,,,,,,,,,,,,,,,,,,,,,,,,,,,,,,,,,,,,,,,,,,,,,,,,,,,,,,,,,,,,
1764665406.779136,23453,0,4374.102539,4392.692383,4493.333496,4501.666504,4378.077148,4511.025879,4522.307617,4368.333496,4537.563965,4378.077148,4492.563965,4492.820313,4554.358887,4377.05127,4380.384766,4492.94873,4523.077148,4517.05127,4494.230957,4380,4376.153809,4542.179688,4504.615234,4476.410156,4390.384766,4582.307617,4385.384766,4539.615234,4500.128418,4398.077148,4536.153809,4517.820313,2533,1,24,2560,21185,,,,0,4,4,4,4,4,4,4,4,4,4,4,4,4,4,4,4,4,4,4,4,4,4,4,4,4,4,4,4,4,4,4,4,100,,,,,,,,,,,,,,,,,,,,,,,,,,,,,,,,,,,38631,0,0.018377,-0.696838,-0.71698,-0.004272,0.989379,0.028324,0.027835,19.166666,0.666667,54.166668,,,,,,,,,,,,,,,,,,,,,,,,,,,,,,,,,,,,,,,,,,,,,,,,,,,,,,,,,,,,,,,,,,,,,,,,,,,,,,,,,,,,,,,,,,,,,,,,,,,,,,,,,,,,,,,,,,,,,,,,,,,,,,,,,,,,,,,,,,,,,,,,,,,,,,,,,,,,,,,,
1764665406.783042,23454,0,4380.769043,4394.615234,4492.692383,4506.666504,4381.282227,4511.410156,4524.871582,4370.384766,4544.102539,4379.230957,4492.563965,4499.358887,4560.769043,4382.179688,4381.794922,4499.615234,4529.871582,4519.743652,4499.358887,4382.820313,4377.563965,4546.794922,4510.769043,4478.589844,4388.846191,4585.128418,4386.922852,4543.717773,4501.538574,4398.461426,4536.922852,4519.615234,2660,1,24,2561,21193,,,,0,4,4,4,4,4,4,4,4,4,4,4,4,4,4,4,4,4,4,4,4,4,4,4,4,4,4,4,4,4,4,4,4,100,,,,,,,,,,,,,,,,,,,,,,,,,,,,,,,,,,,,,,,,,,,,,,,,,,,,,,,,,,,,,,,,,,,,,,,,,,,,,,,,,,,,,,,,,,,,,,,,,,,,,,,,,,,,,,,,,,,,,,,,,,,,,,,,,,,,,,,,,,,,,,,,,,,,,,,,,,,,,,,,,,,,,,,,,,,,,,,,,,,,,,,,,,,,,,,,,,,,,,,,,,,,,,
1764665406.786947,23455,0,4384.743652,4392.94873,4491.153809,4507.820313,4381.922852,4510.128418,4523.461426,4371.025879,4547.820313,4376.922852,4491.410156,4505.384766,4565.128418,4385.128418,4382.179688,4505.641113,4537.436035,4526.922852,4506.794922,4383.589844,4380.256348,4552.820313,4515,4479.871582,4384.615234,4586.153809,4385.384766,4548.333496,4501.666504,4397.436035,4534.487305,4516.666504,2825,1,24,2561,21193,,,,0,4,4,4,4,4,4,4,4,4,4,4,4,4,4,4,4,4,4,4,4,4,4,4,4,4,4,4,4,4,4,4,4,100,,,,,,,,,,,,,,,,,,,,,,,,,,,,,,,,,,,,,,,,,,,,,,,,,,,,,,,,,,,,,,,,,,,,,,,,,,,,,,,,,,,,,,,,,,,,,,,,,,,,,,,,,,,,,,,,,,,,,,,,,,,,,,,,,,,,,,,,,,,,,,,,,,,,,,,,,,,,,,,,,,,,,,,,,,,,,,,,,,,,,,,,,,,,,,,,,,,,,,,,,,,,,,
1764665406.790853,23456,0,4385.128418,4390.641113,4490.128418,4506.922852,4380.769043,4508.077148,4521.025879,4371.666504,4549.743652,4375,4490.641113,4509.615234,4567.05127,4385.512695,4382.307617,4508.846191,4544.615234,4535.641113,4512.179688,4382.05127,4382.94873,4558.717773,4516.153809,4479.487305,4381.153809,4584.743652,4383.333496,4551.922852,4501.410156,4395.769043,4530.384766,4512.436035,2766,1,24,2562,21200,,,,0,4,4,4,4,4,4,4,4,4,4,4,4,4,4,4,4,4,4,4,4,4,4,4,4,4,4,4,4,4,4,4,4,100,,,,,,,,,,,,,,,,,,,,,,,,,,,,,,,,,,,,,,,,,,,,,,,,,,,,,,,,,,,,,,,,,,,,,,,,,,,,,,,,,,,,,,,,,,,,,,,,,,,,,,,,,,,,,,,,,,,,,,,,,,,,,,,,,,,,,,,,,,,,,,,,,,,,,,,,,,,,,,,,,,,,,,,,,,,,,,,,,,,,,,,,,,,,,,,,,,,,,,,,,,,,,,
1764665406.794759,23457,0,4383.333496,4389.743652,4490.769043,4506.025879,4379.871582,4506.282227,4521.410156,4372.820313,4551.794922,4375.641113,4490.641113,4511.282227,4567.436035,4384.358887,4382.179688,4509.102539,4550.384766,4541.538574,4512.94873,4378.717773,4383.846191,4562.820313,4515.512695,4478.974121,4380.641113,4582.05127,4383.589844,4553.589844,4502.05127,4393.974121,4527.05127,4510.256348,2922,1,24,2562,21200,,,,0,4,4,4,4,4,4,4,4,4,4,4,4,4,4,4,4,4,4,4,4,4,4,4,4,4,4,4,4,4,4,4,4,100,,,,,,,,,,,,,,,,,,,,,,,,,,,,,,,,,,,38632,0,0.018363,-0.696838,-0.71698,-0.004333,0.990355,0.020022,0.040044,18.333334,1.166667,55.333332,,,,,,,,,,,,,,,,,,,,,,,,,,,,,,,,,,,,,,,,,,,,,,,,,,,,,,,,,,,,,,,,,,,,,,,,,,,,,,,,,,,,,,,,,,,,,,,,,,,,,,,,,,,,,,,,,,,,,,,,,,,,,,,,,,,,,,,,,,,,,,,,,,,,,,,,,,,,,,,,
1764665406.798665,23458,0,4381.666504,4390.897461,4492.563965,4506.538574,4380.512695,4506.410156,4525.897461,4373.589844,4554.230957,4377.307617,4490.512695,4510.512695,4566.153809,4382.94873,4381.538574,4507.692383,4553.846191,4541.410156,4509.615234,4374.743652,4381.666504,4563.974121,4515.384766,4479.615234,4382.179688,4579.615234,4386.794922,4553.461426,4503.461426,4392.820313,4526.666504,4511.025879,2593,1,24,2562,21208,,,,0,4,4,4,4,4,4,4,4,4,4,4,4,4,4,4,4,4,4,4,4,4,4,4,4,4,4,4,4,4,4,4,4,100,,,,,,,,,,,,,,,,,,,,,,,,,,,,,,,,,,,,,,,,,,,,,,,,,,,,,,,,,,,,,,,,,,,,,,,,,,,,,,,,,,,,,,,,,,,,,,,,,,,,,,,,,,,,,,,,,,,,,,,,,,,,,,,,,,,,,,,,,,,,,,,,,,,,,,,,,,,,,,,,,,,,,,,,,,,,,,,,,,,,,,,,,,,,,,,,,,,,,,,,,,,,,,
1764665406.802570,23459,0,4382.179688,4392.692383,4493.974121,4507.820313,4382.05127,4509.615234,4532.436035,4373.333496,4555.641113,4376.666504,4490.128418,4508.461426,4563.589844,4381.922852,4380,4506.410156,4554.615234,4535.769043,4505.256348,4371.538574,4377.692383,4562.563965,4517.436035,4481.922852,4382.94873,4578.717773,4391.025879,4553.205078,4505.769043,4393.205078,4529.487305,4512.563965,2858,1,24,2562,21208,,,,0,4,4,4,4,4,4,4,4,4,4,4,4,4,4,4,4,4,4,4,4,4,4,4,4,4,4,4,4,4,4,4,4,100,,,,,,,,,,,,,,,,,,,,,,,,,,,,,,,,,,,,,,,,,,,,,,,,,,,,,,,,,,,,,,,,,,,,,,,,,,,,,,,,,,,,,,,,,,,,,,,,,,,,,,,,,,,,,,,,,,,,,,,,,,,,,,,,,,,,,,,,,,,,,,,,,,,,,,,,,,,,,,,,,,,,,,,,,,,,,,,,,,,,,,,,,,,,,,,,,,,,,,,,,,,,,,
1764665406.806476,23460,0,4385.384766,4394.230957,4494.102539,4508.974121,4383.333496,4515.641113,4538.077148,4372.94873,4554.743652,4372.94873,4489.615234,4506.922852,4561.282227,4381.153809,4377.692383,4505.769043,4553.205078,4528.846191,4503.333496,4370.128418,4374.743652,4561.410156,4522.05127,4485.769043,4382.179688,4580.384766,4394.743652,4554.230957,4508.589844,4396.153809,4534.358887,4513.077148,2755,1,24,2048,21216,,,,0,4,4,4,4,4,4,4,4,4,4,4,4,4,4,4,4,4,4,4,4,4,4,4,4,4,4,4,4,4,4,4,4,100,,,,,,,,,,,,,,,,,,,,,,,,,,,,,,,,,,,,,,,,,,,,,,,,,,,,,,,,,,,,,,,,,,,,,,,,,,,,,,,,,,,,,,,,,,,,,,,,,,,,,,,,,,,,,,,,,,,,,,,,,,,,,,,,,,,,,,,,,,,,,,,,,,,,,,,,,,,,,,,,,,,,,,,,,,,,,,,,,,,,,,,,,,,,,,,,,,,,,,,,,,,,,,
1764665406.810382,23461,0,4389.871582,4395.256348,4493.461426,4508.974121,4383.717773,4521.922852,4540.641113,4373.589844,4551.410156,4368.974121,4489.487305,4506.922852,4560.384766,4380.384766,4375.384766,4505.256348,4550.641113,4524.871582,4505.769043,4371.538574,4375.897461,4562.692383,4527.436035,4490.256348,4381.538574,4583.846191,4397.436035,4557.307617,4511.282227,4401.282227,4538.333496,4511.794922,2789,1,24,2048,21216,,,,0,4,4,4,4,4,4,4,4,4,4,4,4,4,4,4,4,4,4,4,4,4,4,4,4,4,4,4,4,4,4,4,4,100,,,,,,,,,,,,,,,,,,,,,,,,,,,,,,,,,,,38633,0,0.020549,-0.696777,-0.71698,-0.004333,0.99182,0.028324,0.033696,18.333334,1.166667,55.333332,,,,,,,,,,,,,,,,,,,,,,,,,,,,,,,,,,,,,,,,,,,,,,,,,,,,,,,,,,,,,,,,,,,,,,,,,,,,,,,,,,,,,,,,,,,,,,,,,,,,,,,,,,,,,,,,,,,,,,,,,,,,,,,,,,,,,,,,,,,,,,,,,,,,,,,,,,,,,,,,
1764665406.814288,23462,0,4392.179688,4394.358887,4492.563965,4507.307617,4383.077148,4524.615234,4539.871582,4374.871582,4546.153809,4367.563965,4489.615234,4507.563965,4560.384766,4379.358887,4373.205078,4503.333496,4547.05127,4525,4509.487305,4374.743652,4380.769043,4565.512695,4530,4493.333496,4383.205078,4586.538574,4398.846191,4560.641113,4512.94873,4405.897461,4539.358887,4509.102539,2798,1,24,768,21224,,,,0,4,4,4,4,4,4,4,4,4,4,4,4,4,4,4,4,4,4,4,4,4,4,4,4,4,4,4,4,4,4,4,4,100,,,,,,,,,,,,,,,,,,,,,,,,,,,,,,,,,,,,,,,,,,,,,,,,,,,,,,,,,,,,,,,,,,,,,,,,,,,,,,,,,,,,,,,,,,,,,,,,,,,,,,,,,,,,,,,,,,,,,,,,,,,,,,,,,,,,,,,,,,,,,,,,,,,,,,,,,,,,,,,,,,,,,,,,,,,,,,,,,,,,,,,,,,,,,,,,,,,,,,,,,,,,,,
1764665406.818194,23463,0,4389.743652,4391.153809,4491.538574,4504.871582,4381.410156,4521.025879,4536.410156,4374.743652,4540.769043,4369.358887,4489.230957,4506.922852,4559.230957,4377.820313,4371.282227,4499.102539,4542.94873,4526.025879,4509.871582,4378.333496,4386.538574,4566.666504,4526.794922,4493.589844,4388.333496,4586.153809,4398.717773,4562.05127,4512.05127,4406.794922,4536.922852,4506.153809,2981,1,24,768,21224,,,,0,4,4,4,4,4,4,4,4,4,4,4,4,4,4,4,4,4,4,4,4,4,4,4,4,4,4,4,4,4,4,4,4,100,,,,,,,,,,,,,,,,,,,,,,,,,,,,,,,,,,,,,,,,,,,,,,,,,,,,,,,,,,,,,,,,,,,,,,,,,,,,,,,,,,,,,,,,,,,,,,,,,,,,,,,,,,,,,,,,,,,,,,,,,,,,,,,,,,,,,,,,,,,,,,,,,,,,,,,,,,,,,,,,,,,,,,,,,,,,,,,,,,,,,,,,,,,,,,,,,,,,,,,,,,,,,,
1764665406.822099,23464,0,4384.358887,4386.922852,4490.128418,4503.589844,4379.615234,4513.333496,4532.692383,4372.820313,4538.333496,4373.846191,4489.487305,4504.743652,4556.410156,4376.794922,4371.153809,4493.717773,4539.230957,4525.512695,4505.384766,4382.05127,4390.641113,4564.871582,4519.871582,4492.307617,4396.666504,4583.846191,4397.179688,4561.410156,4509.487305,4403.846191,4533.589844,4504.358887,2864,1,24,768,21232,,,,0,4,4,4,4,4,4,4,4,4,4,4,4,4,4,4,4,4,4,4,4,4,4,4,4,4,4,4,4,4,4,4,4,100,,,,,,,,,,,,,,,,,,,,,,,,,,,,,,,,,,,,,,,,,,,,,,,,,,,,,,,,,,,,,,,,,,,,,,,,,,,,,,,,,,,,,,,,,,,,,,,,,,,,,,,,,,,,,,,,,,,,,,,,,,,,,,,,,,,,,,,,,,,,,,,,,,,,,,,,,,,,,,,,,,,,,,,,,,,,,,,,,,,,,,,,,,,,,,,,,,,,,,,,,,,,,,
1764665406.826005,23465,0,4380.641113,4385.256348,4489.230957,4505,4379.871582,4507.307617,4531.538574,4371.538574,4541.410156,4380.641113,4492.05127,4503.077148,4554.615234,4377.436035,4375.384766,4491.025879,4537.692383,4524.102539,4499.615234,4387.436035,4393.077148,4562.179688,4514.743652,4492.820313,4407.05127,4583.589844,4396.538574,4561.666504,4507.179688,4400.512695,4533.333496,4505.256348,2714,1,24,768,21232,,,,0,4,4,4,4,4,4,4,4,4,4,4,4,4,4,4,4,4,4,4,4,4,4,4,4,4,4,4,4,4,4,4,4,100,,,,,,,,,,,,,,,,,,,,,,,,,,,,,,,,,,,38634,0,0.020523,-0.696777,-0.71698,-0.004456,0.988402,0.028812,0.031742,18.333334,1.5,55,,,,,,,,,,,,,,,,,,,,,,,,,,,,,,,,,,,,,,,,,,,,,,,,,,,,,,,,,,,,,,,,,,,,,,,,,,,,,,,,,,,,,,,,,,,,,,,,,,,,,,,,,,,,,,,,,,,,,,,,,,,,,,,,,,,,,,,,,,,,,,,,,,,,,,,,,,,,,,,,
1764665406.829911,23466,0,4382.05127,4387.94873,4490,4508.077148,4382.692383,4507.820313,4534.102539,4372.436035,4548.846191,4388.974121,4496.922852,4503.974121,4556.410156,4379.487305,4383.717773,4493.974121,4538.846191,4524.743652,4498.077148,4394.743652,4395.256348,4561.538574,4515.769043,4496.666504,4416.153809,4587.820313,4398.205078,4564.743652,4507.05127,4400.512695,4536.794922,4508.205078,1871,1,24,1024,21239,,,,0,4,4,4,4,4,4,4,4,4,4,4,4,4,4,4,4,4,4,4,4,4,4,4,4,4,4,4,4,4,4,4,4,100,,,,,,,,,,,,,,,,,,,,,,,,,,,,,,,,,,,,,,,,,,,,,,,,,,,,,,,,,,,,,,,,,,,,,,,,,,,,,,,,,,,,,,,,,,,,,,,,,,,,,,,,,,,,,,,,,,,,,,,,,,,,,,,,,,,,,,,,,,,,,,,,,,,,,,,,,,,,,,,,,,,,,,,,,,,,,,,,,,,,,,,,,,,,,,,,,,,,,,,,,,,,,,
1764665406.833817,23467,0,4386.794922,4392.563965,4491.794922,4509.743652,4385.641113,4514.230957,4537.820313,4374.102539,4555.512695,4395.641113,4501.666504,4506.282227,4561.025879,4381.153809,4392.436035,4501.410156,4541.025879,4528.589844,4502.179688,4401.794922,4397.307617,4562.94873,4521.538574,4501.666504,4419.615234,4595,4401.025879,4569.102539,4508.717773,4403.717773,4541.025879,4511.410156,2686,1,24,1024,21239,,,,0,4,4,4,4,4,4,4,4,4,4,4,4,4,4,4,4,4,4,4,4,4,4,4,4,4,4,4,4,4,4,4,4,100,,,,,,,,,,,,,,,,,,,,,,,,,,,,,,,,,,,,,,,,,,,,,,,,,,,,,,,,,,,,,,,,,,,,,,,,,,,,,,,,,,,,,,,,,,,,,,,,,,,,,,,,,,,,,,,,,,,,,,,,,,,,,,,,,,,,,,,,,,,,,,,,,,,,,,,,,,,,,,,,,,,,,,,,,,,,,,,,,,,,,,,,,,,,,,,,,,,,,,,,,,,,,,
1764665406.837722,23468,0,4390,4395.128418,4493.717773,4507.94873,4386.153809,4520.769043,4538.205078,4373.846191,4556.794922,4396.538574,4503.589844,4507.307617,4564.615234,4380.641113,4396.153809,4508.717773,4541.282227,4533.974121,4508.461426,4405,4398.333496,4563.974121,4527.179688,4504.230957,4415.897461,4600.641113,4402.692383,4571.666504,4510.512695,4407.436035,4542.563965,4512.820313,2481,1,24,1280,21247,,,,0,4,4,4,4,4,4,4,4,4,4,4,4,4,4,4,4,4,4,4,4,4,4,4,4,4,4,4,4,4,4,4,4,100,,,,,,,,,,,,,,,,,,,,,,,,,,,,,,,,,,,,,,,,,,,,,,,,,,,,,,,,,,,,,,,,,,,,,,,,,,,,,,,,,,,,,,,,,,,,,,,,,,,,,,,,,,,,,,,,,,,,,,,,,,,,,,,,,,,,,,,,,,,,,,,,,,,,,,,,,,,,,,,,,,,,,,,,,,,,,,,,,,,,,,,,,,,,,,,,,,,,,,,,,,,,,,
1764665406.841628,23469,0,4388.846191,4394.487305,4494.487305,4504.230957,4383.974121,4522.05127,4533.846191,4371.153809,4552.179688,4390.384766,4502.307617,4506.410156,4563.589844,4378.589844,4393.077148,4511.538574,4539.102539,4537.820313,4512.436035,4403.205078,4397.563965,4563.333496,4528.333496,4502.692383,4407.692383,4601.025879,4402.05127,4570.769043,4510.641113,4408.589844,4540.897461,4512.436035,2202,1,24,1280,21247,,,,0,4,4,4,4,4,4,4,4,4,4,4,4,4,4,4,4,4,4,4,4,4,4,4,4,4,4,4,4,4,4,4,4,100,,,,,,,,,,,,,,,,,,,,,,,,,,,,,,,,,,,38635,0,0.020536,-0.696777,-0.71698,-0.004395,1.001099,0.025882,0.02344,19.333334,0.5,53.833332,,,,,,,,,,,,,,,,,,,,,,,,,,,,,,,,,,,,,,,,,,,,,,,,,,,,,,,,,,,,,,,,,,,,,,,,,,,,,,,,,,,,,,,,,,,,,,,,,,,,,,,,,,,,,,,,,,,,,,,,,,,,,,,,,,,,,,,,,,,,,,,,,,,,,,,,,,,,,,,,
1764665406.845534,23470,0,4384.615234,4392.307617,4494.102539,4501.410156,4380.897461,4517.05127,4527.563965,4368.077148,4545.769043,4380.512695,4499.487305,4505.128418,4558.333496,4377.179688,4386.282227,4509.487305,4535.897461,4538.205078,4512.820313,4398.589844,4395.384766,4561.410156,4524.230957,4498.589844,4400.128418,4596.538574,4399.743652,4567.94873,4508.589844,4406.153809,4538.461426,4511.282227,2699,1,24,1536,21255,,,,0,4,4,4,4,4,4,4,4,4,4,4,4,4,4,4,4,4,4,4,4,4,4,4,4,4,4,4,4,4,4,4,4,100,,,,,,,,,,,,,,,,,,,,,,,,,,,,,,,,,,,,,,,,,,,,,,,,,,,,,,,,,,,,,,,,,,,,,,,,,,,,,,,,,,,,,,,,,,,,,,,,,,,,,,,,,,,,,,,,,,,,,,,,,,,,,,,,,,,,,,,,,,,,,,,,,,,,,,,,,,,,,,,,,,,,,,,,,,,,,,,,,,,,,,,,,,,,,,,,,,,,,,,,,,,,,,
1764665406.849440,23471,0,4380.256348,4390.769043,4492.94873,4500.897461,4378.717773,4509.487305,4522.820313,4366.794922,4542.05127,4372.820313,4496.282227,4505.256348,4552.563965,4378.077148,4381.282227,4505.769043,4533.974121,4535.897461,4511.025879,4394.743652,4393.205078,4560.128418,4516.794922,4494.358887,4397.05127,4590.384766,4397.307617,4565.384766,4505.384766,4401.538574,4536.922852,4509.871582,2484,1,24,1536,21255,,,,0,4,4,4,4,4,4,4,4,4,4,4,4,4,4,4,4,4,4,4,4,4,4,4,4,4,4,4,4,4,4,4,4,100,,,,,,,,,,,,,,,,,,,,,,,,,,,,,,,,,,,,,,,,,,,,,,,,,,,,,,,,,,,,,,,,,,,,,,,,,,,,,,,,,,,,,,,,,,,,,,,,,,,,,,,,,,,,,,,,,,,,,,,,,,,,,,,,,,,,,,,,,,,,,,,,,,,,,,,,,,,,,,,,,,,,,,,,,,,,,,,,,,,,,,,,,,,,,,,,,,,,,,,,,,,,,,
1764665406.853345,23472,0,4377.820313,4390.897461,4491.410156,4501.922852,4378.077148,4504.230957,4521.153809,4367.307617,4542.436035,4371.282227,4493.205078,4506.410156,4550.512695,4381.025879,4382.436035,4504.230957,4534.230957,4533.589844,4510,4393.461426,4392.692383,4560.641113,4509.358887,4491.538574,4398.589844,4586.282227,4395.384766,4563.974121,4502.692383,4397.307617,4536.282227,4508.333496,2853,1,24,1792,21263,,,,0,4,4,4,4,4,4,4,4,4,4,4,4,4,4,4,4,4,4,4,4,4,4,4,4,4,4,4,4,4,4,4,4,100,,,,,,,,,,,,,,,,,,,,,,,,,,,,,,,,,,,,,,,,,,,,,,,,,,,,,,,,,,,,,,,,,,,,,,,,,,,,,,,,,,,,,,,,,,,,,,,,,,,,,,,,,,,,,,,,,,,,,,,,,,,,,,,,,,,,,,,,,,,,,,,,,,,,,,,,,,,,,,,,,,,,,,,,,,,,,,,,,,,,,,,,,,,,,,,,,,,,,,,,,,,,,,
1764665406.857251,23473,0,4377.563965,4391.538574,4490.256348,4502.179688,4378.333496,4503.846191,4521.025879,4367.05127,4545.128418,4374.743652,4489.615234,4506.025879,4553.077148,4384.487305,4389.358887,4505.897461,4536.410156,4534.230957,4511.153809,4394.615234,4393.846191,4563.077148,4505.384766,4490.769043,4402.820313,4585.384766,4393.846191,4563.333496,4501.666504,4395.384766,4535.384766,4507.179688,2909,1,24,1792,21263,,,,0,4,4,4,4,4,4,4,4,4,4,4,4,4,4,4,4,4,4,4,4,4,4,4,4,4,4,4,4,4,4,4,4,100,,,,,,,,,,,,,,,,,,,,,,,,,,,,,,,,,,,38636,0,0.018281,-0.696777,-0.717041,-0.004395,0.996215,0.028324,0.031254,17.166666,1.5,54.166668,,,,,,,,,,,,,,,,,,,,,,,,,,,,,,,,,,,,,,,,,,,,,,,,,,,,,,,,,,,,,,,,,,,,,,,,,,,,,,,,,,,,,,,,,,,,,,,,,,,,,,,,,,,,,,,,,,,,,,,,,,,,,,,,,,,,,,,,,,,,,,,,,,,,,,,,,,,,,,,,
1764665406.861157,23474,0,4378.077148,4390.512695,4489.487305,4500.256348,4378.717773,4506.794922,4520,4364.487305,4546.794922,4378.333496,4485.897461,4502.563965,4557.436035,4386.282227,4397.179688,4508.846191,4538.461426,4538.077148,4513.974121,4396.153809,4395.256348,4565.769043,4505.512695,4491.410156,4405.897461,4585.641113,4391.666504,4561.922852,4501.794922,4395.128418,4533.077148,4507.05127,1756,1,24,2048,21271,,,,0,4,4,4,4,4,4,4,4,4,4,4,4,4,4,4,4,4,4,4,4,4,4,4,4,4,4,4,4,4,4,4,4,100,,,,,,,,,,,,,,,,,,,,,,,,,,,,,,,,,,,,,,,,,,,,,,,,,,,,,,,,,,,,,,,,,,,,,,,,,,,,,,,,,,,,,,,,,,,,,,,,,,,,,,,,,,,,,,,,,,,,,,,,,,,,,,,,,,,,,,,,,,,,,,,,,,,,,,,,,,,,,,,,,,,,,,,,,,,,,,,,,,,,,,,,,,,,,,,,,,,,,,,,,,,,,,
1764665406.865063,23475,0,4377.307617,4386.538574,4488.974121,4496.153809,4378.205078,4509.102539,4517.307617,4359.487305,4544.743652,4376.794922,4482.179688,4496.282227,4559.487305,4384.871582,4399.102539,4510.384766,4538.461426,4542.436035,4516.025879,4395.256348,4394.871582,4565.897461,4507.307617,4491.922852,4404.358887,4584.230957,4387.94873,4558.717773,4501.538574,4394.487305,4529.487305,4507.05127,2929,1,24,2048,21271,,,,0,4,4,4,4,4,4,4,4,4,4,4,4,4,4,4,4,4,4,4,4,4,4,4,4,4,4,4,4,4,4,4,4,100,,,,,,,,,,,,,,,,,,,,,,,,,,,,,,,,,,,,,,,,,,,,,,,,,,,,,,,,,,,,,,,,,,,,,,,,,,,,,,,,,,,,,,,,,,,,,,,,,,,,,,,,,,,,,,,,,,,,,,,,,,,,,,,,,,,,,,,,,,,,,,,,,,,,,,,,,,,,,,,,,,,,,,,,,,,,,,,,,,,,,,,,,,,,,,,,,,,,,,,,,,,,,,
1764665406.868969,23476,0,4374.487305,4380.512695,4488.205078,4491.282227,4376.410156,4508.077148,4513.717773,4353.717773,4538.846191,4368.461426,4479.230957,4489.743652,4557.307617,4380.769043,4392.692383,4509.487305,4536.025879,4544.102539,4515,4391.153809,4391.922852,4561.666504,4507.436035,4491.410156,4396.666504,4580.512695,4383.589844,4554.615234,4499.871582,4391.538574,4525,4506.025879,2522,1,24,2304,21278,,,,0,4,4,4,4,4,4,4,4,4,4,4,4,4,4,4,4,4,4,4,4,4,4,4,4,4,4,4,4,4,4,4,4,100,,,,,,,,,,,,,,,,,,,,,,,,,,,,,,,,,,,,,,,,,,,,,,,,,,,,,,,,,,,,,,,,,,,,,,,,,,,,,,,,,,,,,,,,,,,,,,,,,,,,,,,,,,,,,,,,,,,,,,,,,,,,,,,,,,,,,,,,,,,,,,,,,,,,,,,,,,,,,,,,,,,,,,,,,,,,,,,,,,,,,,,,,,,,,,,,,,,,,,,,,,,,,,
1764665406.872874,23477,0,4371.153809,4375.897461,4487.563965,4487.820313,4374.487305,4505,4512.05127,4350.128418,4532.05127,4356.794922,4478.205078,4486.282227,4553.077148,4376.794922,4382.05127,4507.179688,4532.820313,4542.436035,4511.538574,4385.384766,4387.692383,4554.743652,4505.128418,4489.615234,4385.769043,4576.666504,4380.769043,4551.794922,4497.692383,4387.692383,4520.897461,4504.230957,2807,1,24,2304,21278,,,,0,4,4,4,4,4,4,4,4,4,4,4,4,4,4,4,4,4,4,4,4,4,4,4,4,4,4,4,4,4,4,4,4,100,,,,,,,,,,,,,,,,,,,,,,,,,,,,,,,,,,,38637,0,0.018338,-0.696777,-0.717041,-0.00415,1.011354,0.024905,0.047857,17.833334,2.333333,55.333332,,,,,,,,,,,,,,,,,,,,,,,,,,,,,,,,,,,,,,,,,,,,,,,,,,,,,,,,,,,,,,,,,,,,,,,,,,,,,,,,,,,,,,,,,,,,,,,,,,,,,,,,,,,,,,,,,,,,,,,,,,,,,,,,,,,,,,,,,,,,,,,,,,,,,,,,,,,,,,,,
1764665406.876780,23478,0,4370.897461,4376.410156,4487.563965,4487.563965,4374.615234,4503.846191,4514.871582,4350.897461,4528.846191,4349.102539,4480.769043,4488.974121,4550.897461,4376.025879,4374.871582,4505.512695,4531.794922,4539.615234,4507.94873,4381.666504,4385.256348,4549.871582,4502.820313,4487.820313,4377.05127,4575.641113,4381.538574,4552.563965,4497.307617,4385.769043,4518.974121,4503.333496,2906,1,24,2560,21286,,,,0,4,4,4,4,4,4,4,4,4,4,4,4,4,4,4,4,4,4,4,4,4,4,4,4,4,4,4,4,4,4,4,4,100,,,,,,,,,,,,,,,,,,,,,,,,,,,,,,,,,,,,,,,,,,,,,,,,,,,,,,,,,,,,,,,,,,,,,,,,,,,,,,,,,,,,,,,,,,,,,,,,,,,,,,,,,,,,,,,,,,,,,,,,,,,,,,,,,,,,,,,,,,,,,,,,,,,,,,,,,,,,,,,,,,,,,,,,,,,,,,,,,,,,,,,,,,,,,,,,,,,,,,,,,,,,,,
1764665406.880686,23479,0,4376.282227,4382.94873,4488.333496,4490.384766,4378.077148,4507.307617,4522.436035,4355.897461,4531.666504,4351.410156,4487.692383,4498.461426,4554.102539,4380.128418,4376.025879,4506.025879,4535.256348,4538.333496,4506.282227,4381.922852,4386.410156,4551.025879,4503.589844,4487.307617,4375.512695,4577.94873,4386.025879,4556.282227,4500.897461,4387.94873,4520.128418,4504.871582,2823,1,24,2560,21286,,,,0,4,4,4,4,4,4,4,4,4,4,4,4,4,4,4,4,4,4,4,4,4,4,4,4,4,4,4,4,4,4,4,4,100,,,,,,,,,,,,,,,,,,,,,,,,,,,,,,,,,,,,,,,,,,,,,,,,,,,,,,,,,,,,,,,,,,,,,,,,,,,,,,,,,,,,,,,,,,,,,,,,,,,,,,,,,,,,,,,,,,,,,,,,,,,,,,,,,,,,,,,,,,,,,,,,,,,,,,,,,,,,,,,,,,,,,,,,,,,,,,,,,,,,,,,,,,,,,,,,,,,,,,,,,,,,,,
1764665406.884592,23480,0,4385.769043,4392.692383,4489.871582,4495.384766,4384.230957,4514.743652,4531.922852,4363.461426,4539.102539,4364.102539,4497.692383,4511.666504,4561.794922,4387.563965,4384.102539,4508.333496,4542.692383,4539.487305,4506.794922,4385.128418,4390.512695,4558.077148,4509.102539,4488.717773,4381.666504,4581.025879,4392.05127,4560.769043,4507.692383,4394.230957,4523.461426,4507.820313,2728,1,24,2560,21294,,,,0,4,4,4,4,4,4,4,4,4,4,4,4,4,4,4,4,4,4,4,4,4,4,4,4,4,4,4,4,4,4,4,4,100,,,,,,,,,,,,,,,,,,,,,,,,,,,,,,,,,,,,,,,,,,,,,,,,,,,,,,,,,,,,,,,,,,,,,,,,,,,,,,,,,,,,,,,,,,,,,,,,,,,,,,,,,,,,,,,,,,,,,,,,,,,,,,,,,,,,,,,,,,,,,,,,,,,,,,,,,,,,,,,,,,,,,,,,,,,,,,,,,,,,,,,,,,,,,,,,,,,,,,,,,,,,,,
1764665406.888497,23481,0,4394.871582,4401.025879,4491.922852,4500.769043,4390.512695,4522.307617,4539.743652,4370.769043,4547.05127,4381.025879,4506.538574,4522.563965,4570.384766,4395,4392.692383,4510.769043,4551.410156,4542.307617,4508.333496,4387.94873,4394.871582,4566.922852,4517.179688,4491.922852,4392.436035,4582.820313,4396.410156,4563.333496,4514.615234,4402.179688,4526.794922,4510.512695,2802,1,24,2560,21294,,,,0,4,4,4,4,4,4,4,4,4,4,4,4,4,4,4,4,4,4,4,4,4,4,4,4,4,4,4,4,4,4,4,4,100,,,,,,,,,,,,,,,,,,,,,,,,,,,,,,,,,,,38638,0,0.018296,-0.696777,-0.717041,-0.004333,0.999145,0.019045,0.046881,19.166666,2.333333,54.5,,,,,,,,,,,,,,,,,,,,,,,,,,,,,,,,,,,,,,,,,,,,,,,,,,,,,,,,,,,,,,,,,,,,,,,,,,,,,,,,,,,,,,,,,,,,,,,,,,,,,,,,,,,,,,,,,,,,,,,,,,,,,,,,,,,,,,,,,,,,,,,,,,,,,,,,,,,,,,,,
1764665406.892403,23482,0,4399.743652,4404.871582,4494.102539,4505.256348,4394.102539,4526.410156,4543.333496,4375.769043,4551.025879,4393.846191,4510.512695,4526.410156,4575.256348,4398.974121,4395.897461,4511.666504,4557.94873,4544.743652,4509.102539,4387.179688,4396.153809,4572.563965,4523.717773,4495.256348,4401.922852,4582.179688,4397.05127,4563.077148,4518.461426,4408.717773,4528.333496,4511.282227,1918,1,24,1792,21302,,,,0,4,4,4,4,4,4,4,4,4,4,4,4,4,4,4,4,4,4,4,4,4,4,4,4,4,4,4,4,4,4,4,4,100,,,,,,,,,,,,,,,,,,,,,,,,,,,,,,,,,,,,,,,,,,,,,,,1.533193,4.178245,1.289789,0.821381,1.177686,1.818146,4.818064,1.7663,1.183558,1.301499,1.860056,4.10258,1.346022,1.41053,1.452958,0.720422,2.052617,1.12665,1.216378,1.267966,1.828411,3.348317,1.526502,0.959362,1.211346,2.310119,3.351832,1.054141,0.844364,1.006188,1.400799,3.206407,0.970751,0.943628,1.274274,0.611988,2.432898,1.505806,1.391245,1.353902,0.527089,1.159558,0.993729,1.153919,1.333691,0.589919,1.89308,1.171709,1.245645,1.719981,1.044699,1.875551,0.680232,0.516098,0.726911,1.539543,4.436156,1.124062,0.817812,1.087665,1.250971,3.149503,0.943469,0.542952,0.942499,0.580551,0.975445,0.388302,0.416821,0.716093,0.951948,1.669786,0.444333,0.589394,0.968606,0.495105,1.341487,0.182896,0.395346,0.676088,1.884456,5.73074,1.568831,1.12101,1.29521,1.401952,3.164868,0.979136,0.961011,1.094935,0.496938,2.252118,0.715051,0.803384,0.707347,0.905409,2.043146,0.658359,0.916749,1.083596,1.311938,3.915963,0.795795,1.062823,1.079129,1.793926,5.508095,1.284799,1.021876,1.285569,1.762499,3.389887,1.312371,0.66406,1.147987,2.400919,4.243171,1.533329,1.155318,1.394693,2.031613,4.727679,4.396559,1.845164,1.577872,1.462983,3.333082,0.967552,0.94349,0.945146,1.970009,4.255813,1.552455,1.270374,1.507801,2.386369,4.404538,1.61042,1.239291,1.404476,0.831927,1.997555,1.010959,0.551399,0.536977,2.577928,3.609531,1.395012,1.154318,1.336577,1.787633,4.205545,1.347647,1.153108,1.438996,1.49968,3.901089,1.449811,1.258781,1.381558
1764665406.896309,23483,0,4399.615234,4403.846191,4495.256348,4507.820313,4393.461426,4526.025879,4542.436035,4377.820313,4549.871582,4397.692383,4508.333496,4522.179688,4574.743652,4398.205078,4391.666504,4509.743652,4559.487305,4544.358887,4508.077148,4381.922852,4392.692383,4572.94873,4525.769043,4496.666504,4405.641113,4579.615234,4394.230957,4560.769043,4518.205078,4410.641113,4527.307617,4509.615234,2616,1,24,1792,21302,,,,0,4,4,4,4,4,4,4,4,4,4,4,4,4,4,4,4,4,4,4,4,4,4,4,4,4,4,4,4,4,4,4,4,100,,,,,,,,,,,,,,,,,,,,,,,,,,,,,,,,,,,,,,,,,,,,,,,,,,,,,,,,,,,,,,,,,,,,,,,,,,,,,,,,,,,,,,,,,,,,,,,,,,,,,,,,,,,,,,,,,,,,,,,,,,,,,,,,,,,,,,,,,,,,,,,,,,,,,,,,,,,,,,,,,,,,,,,,,,,,,,,,,,,,,,,,,,,,,,,,,,,,,,,,,,,,,,
1764665406.900215,23484,0,4397.05127,4400.641113,4495.128418,4508.205078,4389.487305,4523.205078,4539.102539,4377.307617,4546.153809,4394.743652,4502.307617,4513.717773,4570.897461,4394.102539,4383.461426,4505.769043,4556.666504,4539.871582,4506.025879,4374.358887,4385.769043,4569.871582,4523.974121,4495.641113,4402.563965,4576.666504,4390.256348,4558.461426,4515.641113,4407.820313,4524.743652,4506.538574,2676,1,24,1024,21310,,,,0,4,4,4,4,4,4,4,4,4,4,4,4,4,4,4,4,4,4,4,4,4,4,4,4,4,4,4,4,4,4,4,4,100,,,,,,,,,,,,,,,,,,,,,,,,,,,,,,,,,,,,,,,,,,,,,,,,,,,,,,,,,,,,,,,,,,,,,,,,,,,,,,,,,,,,,,,,,,,,,,,,,,,,,,,,,,,,,,,,,,,,,,,,,,,,,,,,,,,,,,,,,,,,,,,,,,,,,,,,,,,,,,,,,,,,,,,,,,,,,,,,,,,,,,,,,,,,,,,,,,,,,,,,,,,,,,
1764665406.904121,23485,0,4395.256348,4398.205078,4494.230957,4507.563965,4385.128418,4521.153809,4536.538574,4375.512695,4543.846191,4390.256348,4496.666504,4507.820313,4567.436035,4390.384766,4377.179688,4501.794922,4553.205078,4532.94873,4504.487305,4368.333496,4379.358887,4566.794922,4522.05127,4493.461426,4395.641113,4574.230957,4388.077148,4558.077148,4513.077148,4402.820313,4522.307617,4503.846191,2513,1,24,1024,21310,,,,0,4,4,4,4,4,4,4,4,4,4,4,4,4,4,4,4,4,4,4,4,4,4,4,4,4,4,4,4,4,4,4,4,100,,,,,,,,,,,,,,,,,,,,,,,,,,,,,,,,,,,38639,0,0.020562,-0.696777,-0.71698,-0.004272,0.999145,0.019045,0.046881,19,2.166667,54.333332,,,,,,,,,,,,,,,,,,,,,,,,,,,,,,,,,,,,,,,,,,,,,,,,,,,,,,,,,,,,,,,,,,,,,,,,,,,,,,,,,,,,,,,,,,,,,,,,,,,,,,,,,,,,,,,,,,,,,,,,,,,,,,,,,,,,,,,,,,,,,,,,,,,,,,,,,,,,,,,,
1764665406.908026,23486,0,4395.384766,4398.077148,4493.974121,4507.05127,4383.461426,4521.666504,4537.05127,4373.589844,4545.384766,4388.077148,4494.487305,4508.717773,4566.666504,4389.871582,4376.666504,4499.487305,4552.94873,4527.563965,4505.128418,4367.307617,4377.820313,4567.05127,4523.077148,4492.692383,4389.615234,4573.717773,4388.974121,4560.769043,4512.05127,4399.102539,4521.410156,4503.333496,2643,1,24,768,21318,,,,0,4,4,4,4,4,4,4,4,4,4,4,4,4,4,4,4,4,4,4,4,4,4,4,4,4,4,4,4,4,4,4,4,100,,,,,,,,,,,,,,,,,,,,,,,,,,,,,,,,,,,,,,,,,,,,,,,,,,,,,,,,,,,,,,,,,,,,,,,,,,,,,,,,,,,,,,,,,,,,,,,,,,,,,,,,,,,,,,,,,,,,,,,,,,,,,,,,,,,,,,,,,,,,,,,,,,,,,,,,,,,,,,,,,,,,,,,,,,,,,,,,,,,,,,,,,,,,,,,,,,,,,,,,,,,,,,
1764665406.911932,23487,0,4397.05127,4400.641113,4495.641113,4508.333496,4385.769043,4524.358887,4540.641113,4373.077148,4550,4389.230957,4496.922852,4516.025879,4568.717773,4392.820313,4381.025879,4499.615234,4557.179688,4527.692383,4508.717773,4371.666504,4382.692383,4571.922852,4527.692383,4496.025879,4388.717773,4575.384766,4392.563965,4566.025879,4512.820313,4399.743652,4523.205078,4506.282227,2804,1,24,768,21318,,,,0,4,4,4,4,4,4,4,4,4,4,4,4,4,4,4,4,4,4,4,4,4,4,4,4,4,4,4,4,4,4,4,4,100,,,,,,,,,,,,,,,,,,,,,,,,,,,,,,,,,,,,,,,,,,,,,,,,,,,,,,,,,,,,,,,,,,,,,,,,,,,,,,,,,,,,,,,,,,,,,,,,,,,,,,,,,,,,,,,,,,,,,,,,,,,,,,,,,,,,,,,,,,,,,,,,,,,,,,,,,,,,,,,,,,,,,,,,,,,,,,,,,,,,,,,,,,,,,,,,,,,,,,,,,,,,,,
1764665406.915838,23488,0,4399.230957,4404.487305,4499.358887,4511.153809,4390.769043,4527.692383,4545.512695,4374.615234,4555,4392.179688,4502.692383,4524.358887,4571.794922,4396.410156,4385.512695,4501.922852,4563.717773,4534.230957,4514.871582,4379.487305,4392.307617,4579.487305,4533.461426,4503.974121,4393.974121,4578.974121,4397.179688,4572.94873,4515,4404.743652,4527.436035,4512.307617,2740,1,24,1024,21325,,,,0,4,4,4,4,4,4,4,4,4,4,4,4,4,4,4,4,4,4,4,4,4,4,4,4,4,4,4,4,4,4,4,4,100,,,,,,,,,,,,,,,,,,,,,,,,,,,,,,,,,,,,,,,,,,,,,,,,,,,,,,,,,,,,,,,,,,,,,,,,,,,,,,,,,,,,,,,,,,,,,,,,,,,,,,,,,,,,,,,,,,,,,,,,,,,,,,,,,,,,,,,,,,,,,,,,,,,,,,,,,,,,,,,,,,,,,,,,,,,,,,,,,,,,,,,,,,,,,,,,,,,,,,,,,,,,,,
1764665406.919744,23489,0,4400.512695,4407.436035,4503.846191,4514.487305,4395.128418,4529.871582,4549.230957,4377.94873,4557.820313,4395.641113,4508.589844,4528.077148,4573.974121,4397.820313,4386.666504,4505.128418,4568.333496,4543.846191,4521.282227,4387.563965,4402.436035,4586.282227,4536.922852,4513.717773,4403.077148,4583.205078,4401.538574,4579.358887,4517.563965,4411.666504,4533.333496,4518.974121,2890,1,24,1024,21325,,,,0,4,4,4,4,4,4,4,4,4,4,4,4,4,4,4,4,4,4,4,4,4,4,4,4,4,4,4,4,4,4,4,4,100,,,,,,,,,,,,,,,,,,,,,,,,,,,,,,,,,,,38640,0,0.020599,-0.696777,-0.71698,-0.004089,1.000122,0.021487,0.030277,17.5,0.666667,55,,,,,,,,,,,,,,,,,,,,,,,,,,,,,,,,,,,,,,,,,,,,,,,,,,,,,,,,,,,,,,,,,,,,,,,,,,,,,,,,,,,,,,,,,,,,,,,,,,,,,,,,,,,,,,,,,,,,,,,,,,,,,,,,,,,,,,,,,,,,,,,,,,,,,,,,,,,,,,,,
1764665406.923649,23490,0,4399.871582,4407.563965,4507.563965,4517.05127,4396.538574,4530.256348,4550.256348,4381.410156,4558.077148,4398.717773,4511.794922,4525.384766,4574.102539,4396.153809,4384.230957,4507.94873,4568.717773,4551.282227,4525.128418,4392.94873,4408.846191,4588.846191,4536.410156,4521.410156,4411.922852,4586.794922,4404.358887,4582.94873,4518.846191,4416.666504,4539.102539,4523.461426,2569,1,24,1280,21333,,,,0,4,4,4,4,4,4,4,4,4,4,4,4,4,4,4,4,4,4,4,4,4,4,4,4,4,4,4,4,4,4,4,4,100,,,,,,,,,,,,,,,,,,,,,,,,,,,,,,,,,,,,,,,,,,,,,,,,,,,,,,,,,,,,,,,,,,,,,,,,,,,,,,,,,,,,,,,,,,,,,,,,,,,,,,,,,,,,,,,,,,,,,,,,,,,,,,,,,,,,,,,,,,,,,,,,,,,,,,,,,,,,,,,,,,,,,,,,,,,,,,,,,,,,,,,,,,,,,,,,,,,,,,,,,,,,,,
1764665406.927555,23491,0,4397.179688,4404.743652,4510.256348,4518.846191,4395.512695,4529.358887,4548.717773,4383.717773,4557.692383,4401.282227,4510.769043,4519.615234,4572.692383,4393.589844,4381.922852,4509.615234,4565.256348,4553.589844,4524.871582,4394.871582,4410.641113,4586.922852,4533.333496,4524.743652,4416.410156,4589.230957,4405.769043,4582.05127,4518.333496,4417.692383,4542.94873,4524.743652,2831,1,24,1280,21333,,,,0,4,4,4,4,4,4,4,4,4,4,4,4,4,4,4,4,4,4,4,4,4,4,4,4,4,4,4,4,4,4,4,4,100,,,,,,,,,,,,,,,,,,,,,,,,,,,,,,,,,,,,,,,,,,,,,,,,,,,,,,,,,,,,,,,,,,,,,,,,,,,,,,,,,,,,,,,,,,,,,,,,,,,,,,,,,,,,,,,,,,,,,,,,,,,,,,,,,,,,,,,,,,,,,,,,,,,,,,,,,,,,,,,,,,,,,,,,,,,,,,,,,,,,,,,,,,,,,,,,,,,,,,,,,,,,,,
1764665406.931461,23492,0,4393.205078,4400.256348,4512.436035,4520,4393.717773,4526.922852,4545.897461,4384.743652,4559.358887,4402.307617,4506.794922,4514.230957,4570,4393.077148,4383.461426,4509.743652,4559.871582,4551.025879,4521.410156,4394.615234,4408.846191,4582.307617,4530.128418,4523.974121,4414.871582,4590.384766,4405.512695,4577.307617,4516.282227,4414.743652,4543.846191,4522.820313,2729,1,24,1536,21341,,,,0,4,4,4,4,4,4,4,4,4,4,4,4,4,4,4,4,4,4,4,4,4,4,4,4,4,4,4,4,4,4,4,4,100,,,,,,,,,,,,,,,,,,,,,,,,,,,,,,,,,,,,,,,,,,,,,,,,,,,,,,,,,,,,,,,,,,,,,,,,,,,,,,,,,,,,,,,,,,,,,,,,,,,,,,,,,,,,,,,,,,,,,,,,,,,,,,,,,,,,,,,,,,,,,,,,,,,,,,,,,,,,,,,,,,,,,,,,,,,,,,,,,,,,,,,,,,,,,,,,,,,,,,,,,,,,,,
1764665406.935367,23493,0,4388.461426,4395,4513.077148,4519.230957,4391.538574,4521.794922,4541.922852,4383.846191,4562.307617,4399.487305,4501.025879,4509.871582,4565.897461,4395.256348,4388.589844,4507.563965,4553.333496,4545.384766,4516.153809,4392.94873,4404.615234,4576.666504,4526.794922,4519.358887,4408.205078,4589.743652,4403.077148,4569.871582,4512.307617,4407.94873,4540.897461,4518.205078,2763,1,24,1536,21341,,,,0,4,4,4,4,4,4,4,4,4,4,4,4,4,4,4,4,4,4,4,4,4,4,4,4,4,4,4,4,4,4,4,4,100,,,,,,,,,,,,,,,,,,,,,,,,,,,,,,,,,,,38641,0,0.020587,-0.696777,-0.71698,-0.00415,1.005982,0.032719,0.056159,17.5,0.666667,55,,,,,,,,,,,,,,,,,,,,,,,,,,,,,,,,,,,,,,,,,,,,,,,,,,,,,,,,,,,,,,,,,,,,,,,,,,,,,,,,,,,,,,,,,,,,,,,,,,,,,,,,,,,,,,,,,,,,,,,,,,,,,,,,,,,,,,,,,,,,,,,,,,,,,,,,,,,,,,,,
1764665406.939272,23494,0,4381.538574,4388.077148,4509.615234,4514.230957,4386.666504,4512.692383,4535.641113,4379.358887,4562.563965,4390.769043,4493.974121,4503.333496,4558.974121,4396.666504,4392.436035,4502.692383,4544.102539,4537.307617,4509.102539,4389.487305,4397.94873,4569.102539,4519.743652,4510.769043,4398.333496,4586.410156,4396.794922,4559.487305,4505.641113,4397.05127,4532.563965,4510.512695,2774,1,24,1792,21349,,,,0,4,4,4,4,4,4,4,4,4,4,4,4,4,4,4,4,4,4,4,4,4,4,4,4,4,4,4,4,4,4,4,4,100,,,,,,,,,,,,,,,,,,,,,,,,,,,,,,,,,,,,,,,,,,,,,,,,,,,,,,,,,,,,,,,,,,,,,,,,,,,,,,,,,,,,,,,,,,,,,,,,,,,,,,,,,,,,,,,,,,,,,,,,,,,,,,,,,,,,,,,,,,,,,,,,,,,,,,,,,,,,,,,,,,,,,,,,,,,,,,,,,,,,,,,,,,,,,,,,,,,,,,,,,,,,,,
1764665406.943178,23495,0,4371.410156,4378.589844,4500.256348,4504.358887,4376.922852,4500.641113,4525.128418,4369.743652,4555.897461,4376.922852,4485.769043,4492.307617,4549.230957,4392.94873,4389.871582,4495.512695,4530.897461,4527.692383,4500.512695,4383.333496,4388.461426,4557.94873,4506.410156,4498.461426,4388.333496,4580.256348,4386.538574,4546.153809,4496.922852,4382.94873,4519.358887,4500.256348,2956,1,24,1792,21349,,,,0,4,4,4,4,4,4,4,4,4,4,4,4,4,4,4,4,4,4,4,4,4,4,4,4,4,4,4,4,4,4,4,4,100,,,,,,,,,,,,,,,,,,,,,,,,,,,,,,,,,,,,,,,,,,,,,,,,,,,,,,,,,,,,,,,,,,,,,,,,,,,,,,,,,,,,,,,,,,,,,,,,,,,,,,,,,,,,,,,,,,,,,,,,,,,,,,,,,,,,,,,,,,,,,,,,,,,,,,,,,,,,,,,,,,,,,,,,,,,,,,,,,,,,,,,,,,,,,,,,,,,,,,,,,,,,,,
1764665406.947084,23496,0,4359.487305,4368.461426,4487.179688,4493.333496,4364.871582,4489.615234,4512.307617,4357.692383,4543.205078,4362.692383,4478.717773,4479.743652,4538.974121,4383.974121,4380.897461,4488.717773,4516.538574,4518.974121,4492.05127,4375.769043,4378.333496,4544.871582,4490.641113,4485.384766,4381.025879,4573.461426,4375.128418,4532.94873,4488.589844,4369.743652,4505.384766,4490.128418,2836,1,24,2048,21357,,,,0,4,4,4,4,4,4,4,4,4,4,4,4,4,4,4,4,4,4,4,4,4,4,4,4,4,4,4,4,4,4,4,4,100,,,,,,,,,,,,,,,,,,,,,,,,,,,,,,,,,,,,,,,,,,,,,,,,,,,,,,,,,,,,,,,,,,,,,,,,,,,,,,,,,,,,,,,,,,,,,,,,,,,,,,,,,,,,,,,,,,,,,,,,,,,,,,,,,,,,,,,,,,,,,,,,,,,,,,,,,,,,,,,,,,,,,,,,,,,,,,,,,,,,,,,,,,,,,,,,,,,,,,,,,,,,,,
1764665406.950990,23497,0,4351.538574,4361.410156,4476.666504,4487.692383,4356.666504,4484.615234,4502.692383,4349.230957,4531.538574,4355.512695,4476.153809,4472.436035,4533.205078,4374.871582,4372.436035,4485.769043,4507.179688,4515.641113,4488.333496,4371.282227,4372.05127,4535.641113,4480.897461,4477.563965,4378.077148,4570,4367.94873,4525.256348,4484.358887,4363.205078,4497.94873,4484.871582,2689,1,24,2048,21357,,,,0,4,4,4,4,4,4,4,4,4,4,4,4,4,4,4,4,4,4,4,4,4,4,4,4,4,4,4,4,4,4,4,4,100,,,,,,,,,,,,,,,,,,,,,,,,,,,,,,,,,,,38642,0,0.02051,-0.696777,-0.71698,-0.004517,0.98596,0.023929,0.035161,19,0.166667,54.333332,,,,,,,,,,,,,,,,,,,,,,,,,,,,,,,,,,,,,,,,,,,,,,,,,,,,,,,,,,,,,,,,,,,,,,,,,,,,,,,,,,,,,,,,,,,,,,,,,,,,,,,,,,,,,,,,,,,,,,,,,,,,,,,,,,,,,,,,,,,,,,,,,,,,,,,,,,,,,,,,
1764665406.954896,23498,0,4352.436035,4361.282227,4475.128418,4491.410156,4357.563965,4487.94873,4502.307617,4350.384766,4529.487305,4359.743652,4480.384766,4476.025879,4535.769043,4372.179688,4372.05127,4489.230957,4508.461426,4521.538574,4493.589844,4374.230957,4373.974121,4535.769043,4483.717773,4479.230957,4380,4572.307617,4369.615234,4527.05127,4486.153809,4366.538574,4501.538574,4487.692383,1849,1,24,2304,21364,,,,0,4,4,4,4,4,4,4,4,4,4,4,4,4,4,4,4,4,4,4,4,4,4,4,4,4,4,4,4,4,4,4,4,100,,,,,,,,,,,,,,,,,,,,,,,,,,,,,,,,,,,,,,,,,,,,,,,,,,,,,,,,,,,,,,,,,,,,,,,,,,,,,,,,,,,,,,,,,,,,,,,,,,,,,,,,,,,,,,,,,,,,,,,,,,,,,,,,,,,,,,,,,,,,,,,,,,,,,,,,,,,,,,,,,,,,,,,,,,,,,,,,,,,,,,,,,,,,,,,,,,,,,,,,,,,,,,
1764665406.958801,23499,0,4361.666504,4368.333496,4483.846191,4502.179688,4367.179688,4497.563965,4512.05127,4361.282227,4538.974121,4373.205078,4490.256348,4489.487305,4547.05127,4378.589844,4382.307617,4498.333496,4519.871582,4535.384766,4506.025879,4384.358887,4383.717773,4545.128418,4497.307617,4489.743652,4385.384766,4579.230957,4379.615234,4537.307617,4493.077148,4377.692383,4514.102539,4496.922852,2671,1,24,2304,21364,,,,0,4,4,4,4,4,4,4,4,4,4,4,4,4,4,4,4,4,4,4,4,4,4,4,4,4,4,4,4,4,4,4,4,100,,,,,,,,,,,,,,,,,,,,,,,,,,,,,,,,,,,,,,,,,,,,,,,,,,,,,,,,,,,,,,,,,,,,,,,,,,,,,,,,,,,,,,,,,,,,,,,,,,,,,,,,,,,,,,,,,,,,,,,,,,,,,,,,,,,,,,,,,,,,,,,,,,,,,,,,,,,,,,,,,,,,,,,,,,,,,,,,,,,,,,,,,,,,,,,,,,,,,,,,,,,,,,
1764665406.962707,23500,0,4373.333496,4378.717773,4498.077148,4512.94873,4379.487305,4508.205078,4526.410156,4375.384766,4553.846191,4388.461426,4501.025879,4504.743652,4562.436035,4390,4397.563965,4509.102539,4534.615234,4550.256348,4518.846191,4396.153809,4395.384766,4557.692383,4512.820313,4502.563965,4392.179688,4587.05127,4392.563965,4550.512695,4501.282227,4390.256348,4528.077148,4506.922852,2461,1,24,2560,21372,,,,0,4,4,4,4,4,4,4,4,4,4,4,4,4,4,4,4,4,4,4,4,4,4,4,4,4,4,4,4,4,4,4,4,100,,,,,,,,,,,,,,,,,,,,,,,,,,,,,,,,,,,,,,,,,,,,,,,,,,,,,,,,,,,,,,,,,,,,,,,,,,,,,,,,,,,,,,,,,,,,,,,,,,,,,,,,,,,,,,,,,,,,,,,,,,,,,,,,,,,,,,,,,,,,,,,,,,,,,,,,,,,,,,,,,,,,,,,,,,,,,,,,,,,,,,,,,,,,,,,,,,,,,,,,,,,,,,
1764665406.966613,23501,0,4381.025879,4386.794922,4509.743652,4517.563965,4387.563965,4515,4537.436035,4384.743652,4564.615234,4398.205078,4507.307617,4513.461426,4575.384766,4398.974121,4408.846191,4515.897461,4544.230957,4557.692383,4523.846191,4402.179688,4401.922852,4565.897461,4520.512695,4510.128418,4398.461426,4591.922852,4401.025879,4560.128418,4507.05127,4398.333496,4535.641113,4512.307617,2186,1,24,2560,21372,,,,0,4,4,4,4,4,4,4,4,4,4,4,4,4,4,4,4,4,4,4,4,4,4,4,4,4,4,4,4,4,4,4,4,100,,,,,,,,,,,,,,,,,,,,,,,,,,,,,,,,,,,38643,0,0.020482,-0.696777,-0.71698,-0.004639,0.982542,0.02637,0.02637,19,-1.666667,52.166668,,,,,,,,,,,,,,,,,,,,,,,,,,,,,,,,,,,,,,,,,,,,,,,,,,,,,,,,,,,,,,,,,,,,,,,,,,,,,,,,,,,,,,,,,,,,,,,,,,,,,,,,,,,,,,,,,,,,,,,,,,,,,,,,,,,,,,,,,,,,,,,,,,,,,,,,,,,,,,,,
1764665406.970519,23502,0,4382.820313,4389.871582,4513.077148,4515,4389.230957,4516.666504,4540.512695,4385.769043,4566.666504,4399.871582,4507.563965,4513.077148,4580.769043,4400.641113,4410.384766,4515.641113,4545,4553.589844,4518.717773,4399.230957,4400,4565.897461,4518.077148,4508.717773,4403.333496,4592.179688,4401.538574,4562.436035,4509.230957,4399.743652,4535,4511.538574,2681,1,24,2560,21380,,,,0,4,4,4,4,4,4,4,4,4,4,4,4,4,4,4,4,4,4,4,4,4,4,4,4,4,4,4,4,4,4,4,4,100,,,,,,,,,,,,,,,,,,,,,,,,,,,,,,,,,,,,,,,,,,,,,,,,,,,,,,,,,,,,,,,,,,,,,,,,,,,,,,,,,,,,,,,,,,,,,,,,,,,,,,,,,,,,,,,,,,,,,,,,,,,,,,,,,,,,,,,,,,,,,,,,,,,,,,,,,,,,,,,,,,,,,,,,,,,,,,,,,,,,,,,,,,,,,,,,,,,,,,,,,,,,,,
1764665406.974424,23503,0,4381.538574,4389.102539,4508.589844,4510.128418,4387.436035,4515.769043,4537.692383,4381.538574,4562.179688,4396.922852,4504.358887,4508.717773,4578.077148,4395.769043,4403.846191,4510.384766,4539.743652,4541.410156,4508.205078,4390.641113,4393.077148,4560.128418,4511.282227,4501.282227,4407.307617,4589.615234,4396.794922,4559.743652,4509.102539,4397.436035,4530.512695,4508.205078,2466,1,24,2560,21380,,,,0,4,4,4,4,4,4,4,4,4,4,4,4,4,4,4,4,4,4,4,4,4,4,4,4,4,4,4,4,4,4,4,4,100,,,,,,,,,,,,,,,,,,,,,,,,,,,,,,,,,,,,,,,,,,,,,,,,,,,,,,,,,,,,,,,,,,,,,,,,,,,,,,,,,,,,,,,,,,,,,,,,,,,,,,,,,,,,,,,,,,,,,,,,,,,,,,,,,,,,,,,,,,,,,,,,,,,,,,,,,,,,,,,,,,,,,,,,,,,,,,,,,,,,,,,,,,,,,,,,,,,,,,,,,,,,,,
1764665406.978330,23504,0,4382.179688,4389.102539,4502.436035,4510.128418,4388.077148,4516.666504,4534.871582,4378.717773,4558.461426,4394.487305,4502.05127,4508.077148,4572.563965,4390,4396.922852,4505.256348,4536.282227,4530.512695,4500.897461,4383.333496,4388.077148,4555.769043,4508.974121,4495.897461,4411.025879,4587.94873,4393.461426,4557.820313,4509.230957,4396.922852,4528.589844,4507.436035,2835,1,24,2561,21388,,,,0,4,4,4,4,4,4,4,4,4,4,4,4,4,4,4,4,4,4,4,4,4,4,4,4,4,4,4,4,4,4,4,4,100,,,,,,,,,,,,,,,,,,,,,,,,,,,,,,,,,,,,,,,,,,,,,,,,,,,,,,,,,,,,,,,,,,,,,,,,,,,,,,,,,,,,,,,,,,,,,,,,,,,,,,,,,,,,,,,,,,,,,,,,,,,,,,,,,,,,,,,,,,,,,,,,,,,,,,,,,,,,,,,,,,,,,,,,,,,,,,,,,,,,,,,,,,,,,,,,,,,,,,,,,,,,,,
1764665406.982236,23505,0,4387.307617,4392.563965,4501.025879,4517.563965,4394.102539,4521.282227,4536.922852,4381.282227,4560.769043,4395.256348,4502.563965,4515,4570.128418,4389.102539,4395.641113,4505,4540.128418,4529.102539,4502.820313,4382.692383,4390,4558.461426,4515.769043,4498.461426,4414.487305,4590.256348,4396.282227,4561.410156,4511.538574,4401.538574,4532.179688,4511.666504,2891,1,24,2561,21388,,,,0,4,4,4,4,4,4,4,4,4,4,4,4,4,4,4,4,4,4,4,4,4,4,4,4,4,4,4,4,4,4,4,4,100,,,,,,,,,,,,,,,,,,,,,,,,,,,,,,,,,,,38644,0,0.020496,-0.696777,-0.71698,-0.004578,0.993774,0.026859,0.030765,18.666666,0.666667,52.5,,,,,,,,,,,,,,,,,,,,,,,,,,,,,,,,,,,,,,,,,,,,,,,,,,,,,,,,,,,,,,,,,,,,,,,,,,,,,,,,,,,,,,,,,,,,,,,,,,,,,,,,,,,,,,,,,,,,,,,,,,,,,,,,,,,,,,,,,,,,,,,,,,,,,,,,,,,,,,,,
1764665406.986142,23506,0,4394.871582,4398.077148,4505.512695,4527.820313,4402.692383,4526.922852,4543.461426,4387.692383,4567.820313,4397.05127,4503.717773,4526.410156,4572.692383,4392.820313,4399.743652,4509.230957,4550.769043,4538.077148,4512.563965,4387.692383,4397.436035,4567.436035,4527.820313,4507.94873,4416.153809,4595.512695,4404.102539,4569.615234,4515.512695,4408.846191,4538.461426,4518.333496,1744,1,24,2562,21396,,,,0,4,4,4,4,4,4,4,4,4,4,4,4,4,4,4,4,4,4,4,4,4,4,4,4,4,4,4,4,4,4,4,4,100,,,,,,,,,,,,,,,,,,,,,,,,,,,,,,,,,,,,,,,,,,,,,,,,,,,,,,,,,,,,,,,,,,,,,,,,,,,,,,,,,,,,,,,,,,,,,,,,,,,,,,,,,,,,,,,,,,,,,,,,,,,,,,,,,,,,,,,,,,,,,,,,,,,,,,,,,,,,,,,,,,,,,,,,,,,,,,,,,,,,,,,,,,,,,,,,,,,,,,,,,,,,,,
1764665406.990048,23507,0,4399.871582,4400.769043,4510.897461,4532.820313,4407.307617,4529.102539,4548.717773,4391.922852,4572.820313,4395.256348,4501.666504,4533.974121,4576.666504,4395.897461,4402.692383,4513.461426,4560.769043,4549.358887,4522.307617,4391.922852,4403.717773,4576.153809,4536.025879,4516.794922,4414.102539,4598.589844,4409.743652,4576.153809,4518.717773,4412.692383,4541.538574,4521.538574,2912,1,24,2562,21396,,,,0,4,4,4,4,4,4,4,4,4,4,4,4,4,4,4,4,4,4,4,4,4,4,4,4,4,4,4,4,4,4,4,4,100,,,,,,,,,,,,,,,,,,,,,,,,,,,,,,,,,,,,,,,,,,,,,,,,,,,,,,,,,,,,,,,,,,,,,,,,,,,,,,,,,,,,,,,,,,,,,,,,,,,,,,,,,,,,,,,,,,,,,,,,,,,,,,,,,,,,,,,,,,,,,,,,,,,,,,,,,,,,,,,,,,,,,,,,,,,,,,,,,,,,,,,,,,,,,,,,,,,,,,,,,,,,,,
1764665406.993953,23508,0,4397.94873,4397.436035,4511.794922,4528.461426,4403.333496,4525,4547.307617,4389.230957,4569.615234,4387.94873,4494.615234,4531.410156,4576.282227,4393.589844,4398.717773,4512.436035,4563.205078,4553.077148,4523.846191,4389.487305,4403.077148,4577.94873,4534.358887,4517.820313,4408.077148,4595.641113,4407.563965,4575.384766,4518.077148,4409.871582,4538.077148,4517.692383,2508,1,24,2048,21403,,,,0,4,4,4,4,4,4,4,4,4,4,4,4,4,4,4,4,4,4,4,4,4,4,4,4,4,4,4,4,4,4,4,4,100,,,,,,,,,,,,,,,,,,,,,,,,,,,,,,,,,,,,,,,,,,,,,,,,,,,,,,,,,,,,,,,,,,,,,,,,,,,,,,,,,,,,,,,,,,,,,,,,,,,,,,,,,,,,,,,,,,,,,,,,,,,,,,,,,,,,,,,,,,,,,,,,,,,,,,,,,,,,,,,,,,,,,,,,,,,,,,,,,,,,,,,,,,,,,,,,,,,,,,,,,,,,,,
1764665406.997859,23509,0,4390.512695,4390.512695,4506.794922,4518.717773,4393.461426,4517.05127,4539.743652,4381.153809,4559.358887,4378.333496,4485.769043,4519.743652,4569.230957,4385.769043,4388.589844,4505.641113,4557.436035,4545.256348,4515.641113,4379.743652,4395.384766,4572.179688,4524.487305,4510.384766,4401.025879,4588.205078,4398.846191,4567.820313,4514.102539,4403.077148,4530.512695,4509.358887,2793,1,24,2048,21403,,,,0,4,4,4,4,4,4,4,4,4,4,4,4,4,4,4,4,4,4,4,4,4,4,4,4,4,4,4,4,4,4,4,4,100,,,,,,,,,,,,,,,,,,,,,,,,,,,,,,,,,,,38645,0,0.020482,-0.696777,-0.71698,-0.004639,1.001099,0.022464,0.043462,19.333334,0.5,54.666668,,,,,,,,,,,,,,,,,,,,,,,,,,,,,,,,,,,,,,,,,,,,,,,,,,,,,,,,,,,,,,,,,,,,,,,,,,,,,,,,,,,,,,,,,,,,,,,,,,,,,,,,,,,,,,,,,,,,,,,,,,,,,,,,,,,,,,,,,,,,,,,,,,,,,,,,,,,,,,,,
1764665407.001765,23510,0,4383.461426,4385.897461,4500.384766,4511.282227,4385,4510.769043,4531.794922,4373.846191,4549.615234,4373.077148,4480.384766,4507.436035,4559.743652,4377.820313,4379.102539,4497.307617,4549.487305,4532.179688,4503.974121,4369.358887,4387.436035,4564.743652,4515,4501.538574,4397.307617,4582.05127,4390.641113,4559.615234,4510.641113,4398.846191,4525.512695,4503.846191,2895,1,24,1280,21411,,,,0,4,4,4,4,4,4,4,4,4,4,4,4,4,4,4,4,4,4,4,4,4,4,4,4,4,4,4,4,4,4,4,4,100,,,,,,,,,,,,,,,,,,,,,,,,,,,,,,,,,,,,,,,,,,,,,,,,,,,,,,,,,,,,,,,,,,,,,,,,,,,,,,,,,,,,,,,,,,,,,,,,,,,,,,,,,,,,,,,,,,,,,,,,,,,,,,,,,,,,,,,,,,,,,,,,,,,,,,,,,,,,,,,,,,,,,,,,,,,,,,,,,,,,,,,,,,,,,,,,,,,,,,,,,,,,,,
1764665407.005671,23511,0,4383.077148,4388.077148,4498.589844,4511.794922,4383.974121,4510.641113,4529.743652,4372.820313,4547.692383,4376.410156,4482.05127,4503.461426,4555.128418,4375.897461,4376.538574,4493.333496,4546.922852,4524.487305,4498.461426,4366.153809,4386.538574,4563.077148,4514.743652,4499.358887,4399.487305,4582.436035,4389.743652,4557.436035,4511.410156,4401.922852,4528.333496,4506.794922,2812,1,24,1280,21411,,,,0,4,4,4,4,4,4,4,4,4,4,4,4,4,4,4,4,4,4,4,4,4,4,4,4,4,4,4,4,4,4,4,4,100,,,,,,,,,,,,,,,,,,,,,,,,,,,,,,,,,,,,,,,,,,,,,,,,,,,,,,,,,,,,,,,,,,,,,,,,,,,,,,,,,,,,,,,,,,,,,,,,,,,,,,,,,,,,,,,,,,,,,,,,,,,,,,,,,,,,,,,,,,,,,,,,,,,,,,,,,,,,,,,,,,,,,,,,,,,,,,,,,,,,,,,,,,,,,,,,,,,,,,,,,,,,,,
1764665407.009576,23512,0,4390.128418,4396.153809,4503.589844,4518.717773,4390.128418,4516.282227,4535.384766,4378.461426,4554.487305,4387.436035,4489.358887,4510.512695,4560,4381.794922,4382.436035,4496.410156,4552.692383,4528.846191,4504.102539,4372.94873,4395.128418,4570.769043,4525.384766,4507.05127,4406.922852,4589.487305,4397.307617,4563.589844,4516.922852,4411.153809,4538.333496,4517.05127,2721,1,24,1024,21419,,,,0,4,4,4,4,4,4,4,4,4,4,4,4,4,4,4,4,4,4,4,4,4,4,4,4,4,4,4,4,4,4,4,4,100,,,,,,,,,,,,,,,,,,,,,,,,,,,,,,,,,,,,,,,,,,,,,,,,,,,,,,,,,,,,,,,,,,,,,,,,,,,,,,,,,,,,,,,,,,,,,,,,,,,,,,,,,,,,,,,,,,,,,,,,,,,,,,,,,,,,,,,,,,,,,,,,,,,,,,,,,,,,,,,,,,,,,,,,,,,,,,,,,,,,,,,,,,,,,,,,,,,,,,,,,,,,,,
1764665407.013482,23513,0,4400.128418,4405.128418,4512.692383,4526.282227,4398.461426,4523.205078,4545,4386.153809,4564.230957,4400.512695,4497.563965,4523.974121,4571.922852,4392.307617,4392.436035,4503.717773,4563.846191,4543.333496,4518.205078,4385.384766,4409.358887,4584.743652,4540.769043,4520.512695,4416.410156,4598.717773,4408.205078,4574.230957,4523.974121,4420.769043,4548.846191,4527.692383,2790,1,24,1024,21419,,,,0,4,4,4,4,4,4,4,4,4,4,4,4,4,4,4,4,4,4,4,4,4,4,4,4,4,4,4,4,4,4,4,4,100,,,,,,,,,,,,,,,,,,,,,,,,,,,,,,,,,,,38646,0,0.018257,-0.696838,-0.71698,-0.004761,1.001099,0.022464,0.043462,20,0,54.166668,,,,,,,,,,,,,,,,,,,,,,,,,,,,,,,,,,,,,,,,,,,,,,,,,,,,,,,,,,,,,,,,,,,,,,,,,,,,,,,,,,,,,,,,,,,,,,,,,,,,,,,,,,,,,,,,,,,,,,,,,,,,,,,,,,,,,,,,,,,,,,,,,,,,,,,,,,,,,,,,
1764665407.017388,23514,0,4406.922852,4410.512695,4520.641113,4529.230957,4403.333496,4527.05127,4552.692383,4390.769043,4569.743652,4408.846191,4501.282227,4535.256348,4583.205078,4401.025879,4400,4510.512695,4574.358887,4559.102539,4532.307617,4396.025879,4422.307617,4598.333496,4551.794922,4532.563965,4425,4604.871582,4415.641113,4583.461426,4528.589844,4425.256348,4552.820313,4532.179688,1910,1,24,256,21427,,,,0,4,4,4,4,4,4,4,4,4,4,4,4,4,4,4,4,4,4,4,4,4,4,4,4,4,4,4,4,4,4,4,4,100,,,,,,,,,,,,,,,,,,,,,,,,,,,,,,,,,,,,,,,,,,,,,,,1.650172,5.226828,1.000063,0.85529,1.19371,1.799052,5.857407,1.466778,1.180803,1.282975,1.458095,4.456151,1.116655,1.468309,1.478795,0.553164,2.360269,0.930578,1.307488,1.27942,1.817869,4.03031,1.277489,0.922193,1.184522,1.953857,4.54067,0.872799,0.810253,0.98472,1.354058,4.264503,0.826047,0.97724,1.287158,0.599352,3.12085,1.397008,1.399516,1.335702,0.610891,1.501595,0.989372,1.21253,1.327096,0.674269,2.39696,1.039047,1.353103,1.720018,0.884581,2.330564,0.546177,0.544723,0.71178,1.781879,6.070679,0.923547,0.900888,1.062341,1.358431,4.3656,0.854064,0.562917,0.950105,0.635162,1.248773,0.351046,0.471083,0.679162,0.938705,1.611813,0.477768,0.705675,0.945526,0.535053,1.684373,0.183939,0.435316,0.69651,2.006937,7.683086,1.228422,1.149058,1.300313,1.381984,3.426034,0.868482,0.916811,1.065887,0.482627,2.311667,0.643046,0.726316,0.718564,0.921367,2.013477,0.57523,0.917055,1.082958,1.235551,4.416167,0.713476,0.960667,1.070921,1.595104,6.898637,1.087286,0.978184,1.266292,1.967769,4.585674,0.989952,0.665605,1.153774,2.408592,5.209144,1.341252,1.107255,1.32559,1.890808,5.646993,3.697994,1.81299,1.555041,1.582599,3.634809,0.842735,0.89718,0.922798,2.062857,4.959834,1.270112,1.188618,1.497041,2.574204,5.642437,1.32899,1.181121,1.393936,0.874563,2.427886,0.860607,0.582008,0.537178,2.712116,4.230567,1.15582,1.111287,1.315709,1.985359,4.657984,1.069375,1.129689,1.421083,1.578007,4.345009,1.240381,1.313373,1.37247
1764665407.021294,23515,0,4407.563965,4411.282227,4524.230957,4527.436035,4403.461426,4527.179688,4554.743652,4390.512695,4568.461426,4408.974121,4499.102539,4538.974121,4587.05127,4403.205078,4401.025879,4513.205078,4578.974121,4567.692383,4538.974121,4400.256348,4428.333496,4605.128418,4552.820313,4537.563965,4430.256348,4605.384766,4415.897461,4587.05127,4528.717773,4423.846191,4548.461426,4529.487305,2606,1,24,256,21427,,,,0,4,4,4,4,4,4,4,4,4,4,4,4,4,4,4,4,4,4,4,4,4,4,4,4,4,4,4,4,4,4,4,4,100,,,,,,,,,,,,,,,,,,,,,,,,,,,,,,,,,,,,,,,,,,,,,,,,,,,,,,,,,,,,,,,,,,,,,,,,,,,,,,,,,,,,,,,,,,,,,,,,,,,,,,,,,,,,,,,,,,,,,,,,,,,,,,,,,,,,,,,,,,,,,,,,,,,,,,,,,,,,,,,,,,,,,,,,,,,,,,,,,,,,,,,,,,,,,,,,,,,,,,,,,,,,,,
1764665407.025199,23516,0,4404.871582,4409.615234,4523.589844,4524.358887,4401.794922,4526.025879,4551.922852,4388.333496,4563.974121,4403.077148,4493.717773,4535,4582.820313,4398.974121,4396.538574,4511.666504,4576.538574,4566.794922,4536.922852,4399.358887,4426.666504,4603.717773,4545.769043,4535.384766,4431.666504,4602.436035,4411.666504,4585.641113,4526.025879,4420.256348,4540.897461,4524.615234,2664,1,24,512,21435,,,,0,4,4,4,4,4,4,4,4,4,4,4,4,4,4,4,4,4,4,4,4,4,4,4,4,4,4,4,4,4,4,4,4,100,,,,,,,,,,,,,,,,,,,,,,,,,,,,,,,,,,,,,,,,,,,,,,,,,,,,,,,,,,,,,,,,,,,,,,,,,,,,,,,,,,,,,,,,,,,,,,,,,,,,,,,,,,,,,,,,,,,,,,,,,,,,,,,,,,,,,,,,,,,,,,,,,,,,,,,,,,,,,,,,,,,,,,,,,,,,,,,,,,,,,,,,,,,,,,,,,,,,,,,,,,,,,,
1764665407.029105,23517,0,4403.461426,4408.846191,4521.666504,4524.230957,4402.307617,4526.666504,4548.717773,4388.717773,4561.794922,4397.436035,4489.102539,4528.461426,4575.384766,4393.333496,4391.794922,4509.230957,4570.641113,4560.897461,4530.128418,4398.077148,4421.025879,4597.307617,4537.179688,4530.769043,4429.743652,4600.641113,4408.974121,4582.563965,4523.974121,4419.230957,4538.077148,4524.487305,2504,1,24,512,21435,,,,0,4,4,4,4,4,4,4,4,4,4,4,4,4,4,4,4,4,4,4,4,4,4,4,4,4,4,4,4,4,4,4,4,100,,,,,,,,,,,,,,,,,,,,,,,,,,,,,,,,,,,38647,0,0.018225,-0.696838,-0.71698,-0.004883,0.993774,0.020022,0.033696,17.166666,0.333333,53.666668,,,,,,,,,,,,,,,,,,,,,,,,,,,,,,,,,,,,,,,,,,,,,,,,,,,,,,,,,,,,,,,,,,,,,,,,,,,,,,,,,,,,,,,,,,,,,,,,,,,,,,,,,,,,,,,,,,,,,,,,,,,,,,,,,,,,,,,,,,,,,,,,,,,,,,,,,,,,,,,,
1764665407.033011,23518,0,4406.153809,4410.897461,4521.794922,4527.94873,4406.410156,4530.769043,4549.358887,4393.077148,4564.358887,4397.179688,4488.205078,4524.487305,4571.025879,4391.410156,4392.307617,4509.615234,4566.025879,4556.410156,4524.230957,4399.743652,4416.666504,4591.282227,4532.692383,4528.333496,4426.410156,4603.589844,4412.179688,4581.153809,4525.128418,4422.563965,4543.717773,4531.153809,2633,1,24,256,21443,,,,0,4,4,4,4,4,4,4,4,4,4,4,4,4,4,4,4,4,4,4,4,4,4,4,4,4,4,4,4,4,4,4,4,100,,,,,,,,,,,,,,,,,,,,,,,,,,,,,,,,,,,,,,,,,,,,,,,,,,,,,,,,,,,,,,,,,,,,,,,,,,,,,,,,,,,,,,,,,,,,,,,,,,,,,,,,,,,,,,,,,,,,,,,,,,,,,,,,,,,,,,,,,,,,,,,,,,,,,,,,,,,,,,,,,,,,,,,,,,,,,,,,,,,,,,,,,,,,,,,,,,,,,,,,,,,,,,
1764665407.036917,23519,0,4410.641113,4414.358887,4524.358887,4532.436035,4411.794922,4535.769043,4554.102539,4398.077148,4568.717773,4402.179688,4489.743652,4524.615234,4571.922852,4394.487305,4397.94873,4512.94873,4564.102539,4555.769043,4521.794922,4403.205078,4415.256348,4588.461426,4532.820313,4528.333496,4422.436035,4610,4419.743652,4581.538574,4528.333496,4427.820313,4553.846191,4540.384766,2797,1,24,256,21443,,,,0,4,4,4,4,4,4,4,4,4,4,4,4,4,4,4,4,4,4,4,4,4,4,4,4,4,4,4,4,4,4,4,4,100,,,,,,,,,,,,,,,,,,,,,,,,,,,,,,,,,,,,,,,,,,,,,,,,,,,,,,,,,,,,,,,,,,,,,,,,,,,,,,,,,,,,,,,,,,,,,,,,,,,,,,,,,,,,,,,,,,,,,,,,,,,,,,,,,,,,,,,,,,,,,,,,,,,,,,,,,,,,,,,,,,,,,,,,,,,,,,,,,,,,,,,,,,,,,,,,,,,,,,,,,,,,,,
1764665407.040823,23520,0,4411.922852,4415.641113,4526.922852,4533.717773,4414.615234,4537.307617,4558.589844,4398.974121,4570.128418,4406.794922,4490.128418,4525.641113,4573.974121,4398.846191,4404.102539,4515.641113,4562.307617,4555.769043,4521.025879,4403.846191,4414.358887,4586.794922,4533.205078,4526.794922,4418.205078,4614.615234,4425.256348,4581.282227,4530,4430.641113,4559.871582,4544.487305,2737,1,24,512,21450,,,,0,4,4,4,4,4,4,4,4,4,4,4,4,4,4,4,4,4,4,4,4,4,4,4,4,4,4,4,4,4,4,4,4,100,,,,,,,,,,,,,,,,,,,,,,,,,,,,,,,,,,,,,,,,,,,,,,,,,,,,,,,,,,,,,,,,,,,,,,,,,,,,,,,,,,,,,,,,,,,,,,,,,,,,,,,,,,,,,,,,,,,,,,,,,,,,,,,,,,,,,,,,,,,,,,,,,,,,,,,,,,,,,,,,,,,,,,,,,,,,,,,,,,,,,,,,,,,,,,,,,,,,,,,,,,,,,,
1764665407.044728,23521,0,4406.666504,4412.05127,4526.153809,4530,4412.05127,4533.333496,4557.563965,4393.205078,4566.282227,4405.897461,4486.410156,4523.461426,4571.666504,4400.256348,4405.897461,4513.589844,4556.153809,4551.666504,4518.461426,4398.461426,4410.641113,4582.820313,4528.974121,4519.871582,4414.230957,4612.820313,4423.077148,4577.563965,4527.05127,4427.563965,4556.282227,4540.128418,2887,1,24,512,21450,,,,0,4,4,4,4,4,4,4,4,4,4,4,4,4,4,4,4,4,4,4,4,4,4,4,4,4,4,4,4,4,4,4,4,100,,,,,,,,,,,,,,,,,,,,,,,,,,,,,,,,,,,38648,0,0.02035,-0.696777,-0.71698,-0.005188,0.989867,0.027347,0.034184,18.666666,-0.333333,54.5,,,,,,,,,,,,,,,,,,,,,,,,,,,,,,,,,,,,,,,,,,,,,,,,,,,,,,,,,,,,,,,,,,,,,,,,,,,,,,,,,,,,,,,,,,,,,,,,,,,,,,,,,,,,,,,,,,,,,,,,,,,,,,,,,,,,,,,,,,,,,,,,,,,,,,,,,,,,,,,,
1764665407.048634,23522,0,4395.897461,4404.102539,4521.282227,4523.589844,4405.256348,4525.384766,4548.974121,4383.205078,4559.102539,4398.077148,4480.128418,4516.538574,4563.461426,4396.922852,4401.666504,4506.410156,4543.974121,4542.692383,4512.94873,4388.461426,4403.333496,4574.102539,4519.358887,4507.94873,4412.05127,4604.230957,4413.077148,4569.615234,4520.128418,4419.743652,4544.743652,4530.256348,2570,1,24,768,21458,,,,0,4,4,4,4,4,4,4,4,4,4,4,4,4,4,4,4,4,4,4,4,4,4,4,4,4,4,4,4,4,4,4,4,100,,,,,,,,,,,,,,,,,,,,,,,,,,,,,,,,,,,,,,,,,,,,,,,,,,,,,,,,,,,,,,,,,,,,,,,,,,,,,,,,,,,,,,,,,,,,,,,,,,,,,,,,,,,,,,,,,,,,,,,,,,,,,,,,,,,,,,,,,,,,,,,,,,,,,,,,,,,,,,,,,,,,,,,,,,,,,,,,,,,,,,,,,,,,,,,,,,,,,,,,,,,,,,
1764665407.052540,23523,0,4384.358887,4395.769043,4513.846191,4517.94873,4397.563965,4518.205078,4535.769043,4373.717773,4552.05127,4387.436035,4474.743652,4507.820313,4553.205078,4391.410156,4394.358887,4498.205078,4529.358887,4532.179688,4505.641113,4378.846191,4394.615234,4562.436035,4508.333496,4496.153809,4411.538574,4593.077148,4400.128418,4559.615234,4512.820313,4410.769043,4532.436035,4520.641113,2829,1,24,768,21458,,,,0,4,4,4,4,4,4,4,4,4,4,4,4,4,4,4,4,4,4,4,4,4,4,4,4,4,4,4,4,4,4,4,4,100,,,,,,,,,,,,,,,,,,,,,,,,,,,,,,,,,,,,,,,,,,,,,,,,,,,,,,,,,,,,,,,,,,,,,,,,,,,,,,,,,,,,,,,,,,,,,,,,,,,,,,,,,,,,,,,,,,,,,,,,,,,,,,,,,,,,,,,,,,,,,,,,,,,,,,,,,,,,,,,,,,,,,,,,,,,,,,,,,,,,,,,,,,,,,,,,,,,,,,,,,,,,,,
1764665407.056446,23524,0,4376.922852,4390.128418,4506.538574,4515.384766,4392.179688,4515.384766,4524.102539,4369.102539,4547.820313,4380.384766,4473.077148,4502.05127,4547.436035,4387.692383,4388.461426,4494.230957,4518.333496,4525.641113,4499.358887,4373.974121,4388.461426,4551.666504,4501.153809,4489.743652,4410.512695,4584.743652,4390,4551.282227,4509.102539,4404.358887,4525.384766,4515.256348,2726,1,24,1024,21466,,,,0,4,4,4,4,4,4,4,4,4,4,4,4,4,4,4,4,4,4,4,4,4,4,4,4,4,4,4,4,4,4,4,4,100,,,,,,,,,,,,,,,,,,,,,,,,,,,,,,,,,,,,,,,,,,,,,,,,,,,,,,,,,,,,,,,,,,,,,,,,,,,,,,,,,,,,,,,,,,,,,,,,,,,,,,,,,,,,,,,,,,,,,,,,,,,,,,,,,,,,,,,,,,,,,,,,,,,,,,,,,,,,,,,,,,,,,,,,,,,,,,,,,,,,,,,,,,,,,,,,,,,,,,,,,,,,,,
1764665407.060351,23525,0,4375.512695,4388.461426,4502.436035,4516.282227,4391.153809,4517.563965,4519.615234,4370.897461,4548.333496,4380.769043,4476.025879,4501.410156,4549.615234,4388.077148,4387.692383,4496.922852,4516.153809,4525.641113,4496.666504,4375.384766,4386.922852,4545.769043,4500.256348,4490.256348,4406.282227,4582.563965,4386.153809,4547.307617,4510.256348,4401.794922,4525.256348,4514.102539,2762,1,24,1024,21466,,,,0,4,4,4,4,4,4,4,4,4,4,4,4,4,4,4,4,4,4,4,4,4,4,4,4,4,4,4,4,4,4,4,4,100,,,,,,,,,,,,,,,,,,,,,,,,,,,,,,,,,,,38649,0,0.020319,-0.696777,-0.71698,-0.00531,0.991332,0.030277,0.037602,20,1.5,54.5,,,,,,,,,,,,,,,,,,,,,,,,,,,,,,,,,,,,,,,,,,,,,,,,,,,,,,,,,,,,,,,,,,,,,,,,,,,,,,,,,,,,,,,,,,,,,,,,,,,,,,,,,,,,,,,,,,,,,,,,,,,,,,,,,,,,,,,,,,,,,,,,,,,,,,,,,,,,,,,,
1764665407.064257,23526,0,4378.461426,4390.128418,4503.077148,4519.615234,4394.358887,4522.307617,4524.102539,4377.563965,4553.333496,4387.820313,4482.179688,4504.743652,4558.589844,4392.179688,4392.307617,4504.102539,4522.94873,4531.410156,4498.589844,4380.769043,4389.871582,4546.153809,4504.615234,4495.512695,4398.974121,4586.282227,4388.846191,4548.333496,4514.102539,4402.179688,4529.487305,4515.384766,2769,1,24,1280,21474,,,,0,4,4,4,4,4,4,4,4,4,4,4,4,4,4,4,4,4,4,4,4,4,4,4,4,4,4,4,4,4,4,4,4,100,,,,,,,,,,,,,,,,,,,,,,,,,,,,,,,,,,,,,,,,,,,,,,,,,,,,,,,,,,,,,,,,,,,,,,,,,,,,,,,,,,,,,,,,,,,,,,,,,,,,,,,,,,,,,,,,,,,,,,,,,,,,,,,,,,,,,,,,,,,,,,,,,,,,,,,,,,,,,,,,,,,,,,,,,,,,,,,,,,,,,,,,,,,,,,,,,,,,,,,,,,,,,,
1764665407.068163,23527,0,4382.692383,4393.205078,4507.692383,4523.717773,4399.615234,4526.025879,4532.94873,4385.384766,4560,4396.538574,4489.102539,4508.717773,4569.358887,4396.666504,4399.230957,4511.153809,4533.461426,4539.230957,4503.846191,4386.538574,4394.487305,4551.410156,4510.641113,4501.282227,4392.05127,4592.179688,4395,4552.563965,4517.307617,4403.589844,4533.333496,4516.794922,2954,1,24,1280,21474,,,,0,4,4,4,4,4,4,4,4,4,4,4,4,4,4,4,4,4,4,4,4,4,4,4,4,4,4,4,4,4,4,4,4,100,,,,,,,,,,,,,,,,,,,,,,,,,,,,,,,,,,,,,,,,,,,,,,,,,,,,,,,,,,,,,,,,,,,,,,,,,,,,,,,,,,,,,,,,,,,,,,,,,,,,,,,,,,,,,,,,,,,,,,,,,,,,,,,,,,,,,,,,,,,,,,,,,,,,,,,,,,,,,,,,,,,,,,,,,,,,,,,,,,,,,,,,,,,,,,,,,,,,,,,,,,,,,,
1764665407.072069,23528,0,4384.615234,4394.743652,4512.436035,4526.666504,4403.974121,4525.897461,4539.102539,4389.487305,4564.487305,4401.282227,4493.717773,4510.384766,4576.282227,4398.333496,4403.333496,4514.358887,4541.410156,4545.128418,4510.128418,4388.974121,4397.307617,4557.820313,4514.230957,4503.589844,4388.205078,4595.641113,4400.384766,4556.794922,4516.794922,4403.589844,4532.820313,4516.282227,2839,1,24,1536,21482,,,,0,4,4,4,4,4,4,4,4,4,4,4,4,4,4,4,4,4,4,4,4,4,4,4,4,4,4,4,4,4,4,4,4,100,,,,,,,,,,,,,,,,,,,,,,,,,,,,,,,,,,,,,,,,,,,,,,,,,,,,,,,,,,,,,,,,,,,,,,,,,,,,,,,,,,,,,,,,,,,,,,,,,,,,,,,,,,,,,,,,,,,,,,,,,,,,,,,,,,,,,,,,,,,,,,,,,,,,,,,,,,,,,,,,,,,,,,,,,,,,,,,,,,,,,,,,,,,,,,,,,,,,,,,,,,,,,,
1764665407.075975,23529,0,4382.820313,4392.563965,4512.563965,4525.897461,4404.102539,4521.025879,4537.563965,4387.563965,4563.461426,4399.358887,4493.589844,4508.717773,4576.538574,4395.769043,4401.282227,4512.436035,4543.077148,4546.922852,4514.102539,4386.410156,4396.153809,4561.666504,4513.974121,4501.025879,4387.94873,4593.846191,4400.641113,4557.692383,4512.563965,4401.025879,4527.307617,4512.563965,2690,1,24,1536,21482,,,,0,4,4,4,4,4,4,4,4,4,4,4,4,4,4,4,4,4,4,4,4,4,4,4,4,4,4,4,4,4,4,4,4,100,,,,,,,,,,,,,,,,,,,,,,,,,,,,,,,,,,,38650,0,0.018072,-0.696777,-0.717041,-0.005188,1.008912,0.033207,0.041509,20,1.5,54.5,,,,,,,,,,,,,,,,,,,,,,,,,,,,,,,,,,,,,,,,,,,,,,,,,,,,,,,,,,,,,,,,,,,,,,,,,,,,,,,,,,,,,,,,,,,,,,,,,,,,,,,,,,,,,,,,,,,,,,,,,,,,,,,,,,,,,,,,,,,,,,,,,,,,,,,,,,,,,,,,
1764665407.079880,23530,0,4378.846191,4386.410156,4506.538574,4521.153809,4399.102539,4513.589844,4529.871582,4380.769043,4556.538574,4392.307617,4488.974121,4505.512695,4571.538574,4390.897461,4393.974121,4507.563965,4540.256348,4545.384766,4514.358887,4380.384766,4392.05127,4561.538574,4510.897461,4495.128418,4389.230957,4587.307617,4394.102539,4554.615234,4506.666504,4396.410156,4518.846191,4505.897461,1850,1,24,1792,21489,,,,0,4,4,4,4,4,4,4,4,4,4,4,4,4,4,4,4,4,4,4,4,4,4,4,4,4,4,4,4,4,4,4,4,100,,,,,,,,,,,,,,,,,,,,,,,,,,,,,,,,,,,,,,,,,,,,,,,,,,,,,,,,,,,,,,,,,,,,,,,,,,,,,,,,,,,,,,,,,,,,,,,,,,,,,,,,,,,,,,,,,,,,,,,,,,,,,,,,,,,,,,,,,,,,,,,,,,,,,,,,,,,,,,,,,,,,,,,,,,,,,,,,,,,,,,,,,,,,,,,,,,,,,,,,,,,,,,
1764665407.083786,23531,0,4376.153809,4379.102539,4498.205078,4515.512695,4391.666504,4507.692383,4521.922852,4374.230957,4547.179688,4385.641113,4482.692383,4503.333496,4565.897461,4387.179688,4386.410156,4503.461426,4537.94873,4542.563965,4512.179688,4374.487305,4388.974121,4559.487305,4508.717773,4490.256348,4390.512695,4579.358887,4383.974121,4549.871582,4502.563965,4391.922852,4511.666504,4498.846191,2674,1,24,1792,21489,,,,0,4,4,4,4,4,4,4,4,4,4,4,4,4,4,4,4,4,4,4,4,4,4,4,4,4,4,4,4,4,4,4,4,100,,,,,,,,,,,,,,,,,,,,,,,,,,,,,,,,,,,,,,,,,,,,,,,,,,,,,,,,,,,,,,,,,,,,,,,,,,,,,,,,,,,,,,,,,,,,,,,,,,,,,,,,,,,,,,,,,,,,,,,,,,,,,,,,,,,,,,,,,,,,,,,,,,,,,,,,,,,,,,,,,,,,,,,,,,,,,,,,,,,,,,,,,,,,,,,,,,,,,,,,,,,,,,
1764665407.087692,23532,0,4377.436035,4375.384766,4494.358887,4513.974121,4387.563965,4506.922852,4519.487305,4372.692383,4541.410156,4384.487305,4478.974121,4504.487305,4564.615234,4387.179688,4383.589844,4502.436035,4540.641113,4540.641113,4510,4372.307617,4390.769043,4559.358887,4510.897461,4490.256348,4391.794922,4574.615234,4376.666504,4548.205078,4502.05127,4389.743652,4508.461426,4495,2467,1,24,2048,21497,,,,0,4,4,4,4,4,4,4,4,4,4,4,4,4,4,4,4,4,4,4,4,4,4,4,4,4,4,4,4,4,4,4,4,100,,,,,,,,,,,,,,,,,,,,,,,,,,,,,,,,,,,,,,,,,,,,,,,,,,,,,,,,,,,,,,,,,,,,,,,,,,,,,,,,,,,,,,,,,,,,,,,,,,,,,,,,,,,,,,,,,,,,,,,,,,,,,,,,,,,,,,,,,,,,,,,,,,,,,,,,,,,,,,,,,,,,,,,,,,,,,,,,,,,,,,,,,,,,,,,,,,,,,,,,,,,,,,
1764665407.091598,23533,0,4382.94873,4377.179688,4499.102539,4518.461426,4390,4511.153809,4524.615234,4377.436035,4544.230957,4390,4479.743652,4508.974121,4568.846191,4390.512695,4385.641113,4503.974121,4549.230957,4540.512695,4510,4375,4397.179688,4563.205078,4517.692383,4496.025879,4393.205078,4575,4376.794922,4551.538574,4505.128418,4390.641113,4509.871582,4496.538574,2189,1,24,2048,21497,,,,0,4,4,4,4,4,4,4,4,4,4,4,4,4,4,4,4,4,4,4,4,4,4,4,4,4,4,4,4,4,4,4,4,100,,,,,,,,,,,,,,,,,,,,,,,,,,,,,,,,,,,38651,0,0.018072,-0.696777,-0.717041,-0.005188,1.020144,0.028812,0.033696,20.833334,0,55.333332,,,,,,,,,,,,,,,,,,,,,,,,,,,,,,,,,,,,,,,,,,,,,,,,,,,,,,,,,,,,,,,,,,,,,,,,,,,,,,,,,,,,,,,,,,,,,,,,,,,,,,,,,,,,,,,,,,,,,,,,,,,,,,,,,,,,,,,,,,,,,,,,,,,,,,,,,,,,,,,,
1764665407.095503,23534,0,4390,4383.205078,4510.256348,4527.307617,4397.820313,4517.436035,4533.846191,4385.256348,4555.128418,4398.717773,4483.461426,4514.230957,4575.512695,4394.102539,4388.077148,4505.512695,4559.743652,4541.666504,4511.922852,4380.384766,4404.743652,4569.615234,4526.025879,4504.487305,4393.589844,4579.230957,4383.717773,4557.94873,4509.230957,4393.589844,4513.846191,4503.077148,2686,1,24,2304,21505,,,,0,4,4,4,4,4,4,4,4,4,4,4,4,4,4,4,4,4,4,4,4,4,4,4,4,4,4,4,4,4,4,4,4,100,,,,,,,,,,,,,,,,,,,,,,,,,,,,,,,,,,,,,,,,,,,,,,,,,,,,,,,,,,,,,,,,,,,,,,,,,,,,,,,,,,,,,,,,,,,,,,,,,,,,,,,,,,,,,,,,,,,,,,,,,,,,,,,,,,,,,,,,,,,,,,,,,,,,,,,,,,,,,,,,,,,,,,,,,,,,,,,,,,,,,,,,,,,,,,,,,,,,,,,,,,,,,,
1764665407.099409,23535,0,4395.128418,4389.487305,4521.666504,4536.153809,4406.410156,4522.05127,4541.922852,4392.179688,4568.589844,4405.641113,4487.436035,4517.563965,4580.256348,4395.512695,4387.436035,4505.384766,4566.922852,4543.717773,4514.487305,4385.512695,4408.974121,4575.384766,4532.563965,4511.666504,4392.436035,4584.358887,4393.205078,4563.461426,4512.05127,4397.563965,4518.461426,4511.538574,2471,1,24,2304,21505,,,,0,4,4,4,4,4,4,4,4,4,4,4,4,4,4,4,4,4,4,4,4,4,4,4,4,4,4,4,4,4,4,4,4,100,,,,,,,,,,,,,,,,,,,,,,,,,,,,,,,,,,,,,,,,,,,,,,,,,,,,,,,,,,,,,,,,,,,,,,,,,,,,,,,,,,,,,,,,,,,,,,,,,,,,,,,,,,,,,,,,,,,,,,,,,,,,,,,,,,,,,,,,,,,,,,,,,,,,,,,,,,,,,,,,,,,,,,,,,,,,,,,,,,,,,,,,,,,,,,,,,,,,,,,,,,,,,,
1764665407.103315,23536,0,4397.563965,4394.102539,4528.461426,4542.436035,4412.307617,4523.717773,4546.538574,4396.794922,4578.461426,4409.230957,4490.512695,4519.102539,4581.794922,4395.384766,4384.102539,4504.358887,4569.102539,4546.794922,4516.794922,4388.461426,4409.487305,4579.358887,4536.410156,4516.153809,4390.897461,4588.974121,4401.153809,4566.538574,4513.717773,4402.179688,4523.461426,4518.846191,2840,1,24,1280,21513,,,,0,4,4,4,4,4,4,4,4,4,4,4,4,4,4,4,4,4,4,4,4,4,4,4,4,4,4,4,4,4,4,4,4,100,,,,,,,,,,,,,,,,,,,,,,,,,,,,,,,,,,,,,,,,,,,,,,,,,,,,,,,,,,,,,,,,,,,,,,,,,,,,,,,,,,,,,,,,,,,,,,,,,,,,,,,,,,,,,,,,,,,,,,,,,,,,,,,,,,,,,,,,,,,,,,,,,,,,,,,,,,,,,,,,,,,,,,,,,,,,,,,,,,,,,,,,,,,,,,,,,,,,,,,,,,,,,,
1764665407.107221,23537,0,4399.487305,4397.563965,4531.025879,4546.666504,4415.897461,4525.128418,4549.102539,4400.384766,4583.333496,4411.153809,4493.333496,4520.769043,4581.922852,4396.282227,4382.436035,4505.256348,4568.846191,4551.410156,4519.358887,4390.256348,4409.102539,4583.077148,4539.615234,4519.358887,4393.589844,4593.974121,4406.666504,4569.230957,4516.282227,4408.846191,4529.871582,4523.974121,2899,1,24,1280,21513,,,,0,4,4,4,4,4,4,4,4,4,4,4,4,4,4,4,4,4,4,4,4,4,4,4,4,4,4,4,4,4,4,4,4,100,,,,,,,,,,,,,,,,,,,,,,,,,,,,,,,,,,,38652,0,0.018054,-0.696777,-0.717041,-0.005249,0.999634,0.025394,0.041997,20,0.666667,54.166668,,,,,,,,,,,,,,,,,,,,,,,,,,,,,,,,,,,,,,,,,,,,,,,,,,,,,,,,,,,,,,,,,,,,,,,,,,,,,,,,,,,,,,,,,,,,,,,,,,,,,,,,,,,,,,,,,,,,,,,,,,,,,,,,,,,,,,,,,,,,,,,,,,,,,,,,,,,,,,,,
1764665407.111126,23538,0,4403.589844,4402.307617,4532.94873,4550.897461,4419.358887,4529.102539,4552.436035,4405.256348,4586.282227,4413.846191,4496.666504,4524.871582,4583.589844,4399.743652,4385.384766,4510,4570.512695,4557.05127,4522.563965,4393.461426,4411.794922,4588.077148,4544.615234,4523.974121,4403.974121,4600.512695,4411.666504,4574.615234,4521.538574,4418.077148,4538.333496,4527.692383,1744,1,24,256,21521,,,,0,4,4,4,4,4,4,4,4,4,4,4,4,4,4,4,4,4,4,4,4,4,4,4,4,4,4,4,4,4,4,4,4,100,,,,,,,,,,,,,,,,,,,,,,,,,,,,,,,,,,,,,,,,,,,,,,,,,,,,,,,,,,,,,,,,,,,,,,,,,,,,,,,,,,,,,,,,,,,,,,,,,,,,,,,,,,,,,,,,,,,,,,,,,,,,,,,,,,,,,,,,,,,,,,,,,,,,,,,,,,,,,,,,,,,,,,,,,,,,,,,,,,,,,,,,,,,,,,,,,,,,,,,,,,,,,,
1764665407.115032,23539,0,4410,4408.846191,4536.922852,4555.641113,4423.589844,4535.897461,4557.563965,4410.897461,4589.615234,4416.794922,4499.615234,4530.769043,4587.820313,4404.230957,4391.538574,4516.666504,4575.641113,4561.666504,4526.282227,4399.102539,4417.94873,4593.846191,4551.410156,4530.512695,4420,4607.820313,4416.794922,4582.820313,4528.077148,4427.820313,4546.666504,4530.641113,2917,1,24,256,21521,,,,0,4,4,4,4,4,4,4,4,4,4,4,4,4,4,4,4,4,4,4,4,4,4,4,4,4,4,4,4,4,4,4,4,100,,,,,,,,,,,,,,,,,,,,,,,,,,,,,,,,,,,,,,,,,,,,,,,,,,,,,,,,,,,,,,,,,,,,,,,,,,,,,,,,,,,,,,,,,,,,,,,,,,,,,,,,,,,,,,,,,,,,,,,,,,,,,,,,,,,,,,,,,,,,,,,,,,,,,,,,,,,,,,,,,,,,,,,,,,,,,,,,,,,,,,,,,,,,,,,,,,,,,,,,,,,,,,
1764665407.118938,23540,0,4414.871582,4413.974121,4540.641113,4557.436035,4426.153809,4541.666504,4561.282227,4413.974121,4591.410156,4416.153809,4499.102539,4534.358887,4591.666504,4406.025879,4395.897461,4521.153809,4580.256348,4562.94873,4528.974121,4404.487305,4423.461426,4596.794922,4555.512695,4535.384766,4433.077148,4611.666504,4419.615234,4589.230957,4532.307617,4432.692383,4550.769043,4531.794922,2511,1,24,256,21528,,,,0,4,4,4,4,4,4,4,4,4,4,4,4,4,4,4,4,4,4,4,4,4,4,4,4,4,4,4,4,4,4,4,4,100,,,,,,,,,,,,,,,,,,,,,,,,,,,,,,,,,,,,,,,,,,,,,,,,,,,,,,,,,,,,,,,,,,,,,,,,,,,,,,,,,,,,,,,,,,,,,,,,,,,,,,,,,,,,,,,,,,,,,,,,,,,,,,,,,,,,,,,,,,,,,,,,,,,,,,,,,,,,,,,,,,,,,,,,,,,,,,,,,,,,,,,,,,,,,,,,,,,,,,,,,,,,,,
1764665407.122844,23541,0,4413.205078,4412.307617,4538.205078,4552.05127,4422.179688,4541.153809,4558.205078,4410,4586.538574,4407.94873,4493.077148,4530.897461,4590.897461,4402.179688,4393.974121,4519.871582,4577.94873,4559.487305,4527.94873,4405,4422.692383,4592.94873,4551.922852,4534.102539,4433.333496,4607.94873,4416.025879,4587.436035,4530,4427.692383,4546.794922,4528.077148,2797,1,24,256,21528,,,,0,4,4,4,4,4,4,4,4,4,4,4,4,4,4,4,4,4,4,4,4,4,4,4,4,4,4,4,4,4,4,4,4,100,,,,,,,,,,,,,,,,,,,,,,,,,,,,,,,,,,,38653,0,0.018037,-0.696777,-0.717041,-0.00531,1.010866,0.028324,0.026859,18.333334,0.666667,56.166668,,,,,,,,,,,,,,,,,,,,,,,,,,,,,,,,,,,,,,,,,,,,,,,,,,,,,,,,,,,,,,,,,,,,,,,,,,,,,,,,,,,,,,,,,,,,,,,,,,,,,,,,,,,,,,,,,,,,,,,,,,,,,,,,,,,,,,,,,,,,,,,,,,,,,,,,,,,,,,,,
1764665407.126650,23542,0,4403.717773,4402.307617,4526.794922,4538.589844,4410.128418,4532.820313,4547.307617,4398.333496,4573.205078,4393.717773,4483.205078,4520.128418,4583.205078,4393.589844,4385,4512.692383,4566.025879,4551.410156,4522.307617,4399.102539,4413.077148,4582.179688,4539.743652,4525,4418.717773,4596.922852,4404.743652,4575.384766,4520.897461,4413.077148,4535.641113,4518.461426,2904,1,24,512,21536,,,,0,4,4,4,4,4,4,4,4,4,4,4,4,4,4,4,4,4,4,4,4,4,4,4,4,4,4,4,4,4,4,4,4,100,,,,,,,,,,,,,,,,,,,,,,,,,,,,,,,,,,,,,,,,,,,,,,,,,,,,,,,,,,,,,,,,,,,,,,,,,,,,,,,,,,,,,,,,,,,,,,,,,,,,,,,,,,,,,,,,,,,,,,,,,,,,,,,,,,,,,,,,,,,,,,,,,,,,,,,,,,,,,,,,,,,,,,,,,,,,,,,,,,,,,,,,,,,,,,,,,,,,,,,,,,,,,,
1764665407.130556,23543,0,4391.666504,4389.102539,4510.641113,4523.077148,4395.128418,4521.153809,4534.358887,4384.487305,4557.179688,4381.025879,4475.256348,4508.077148,4571.794922,4384.871582,4374.358887,4503.717773,4549.358887,4542.05127,4514.230957,4390.256348,4398.846191,4569.615234,4524.487305,4512.307617,4398.205078,4584.358887,4390.641113,4558.846191,4509.743652,4397.05127,4522.94873,4507.05127,2819,1,24,512,21536,,,,0,4,4,4,4,4,4,4,4,4,4,4,4,4,4,4,4,4,4,4,4,4,4,4,4,4,4,4,4,4,4,4,4,100,,,,,,,,,,,,,,,,,,,,,,,,,,,,,,,,,,,,,,,,,,,,,,,,,,,,,,,,,,,,,,,,,,,,,,,,,,,,,,,,,,,,,,,,,,,,,,,,,,,,,,,,,,,,,,,,,,,,,,,,,,,,,,,,,,,,,,,,,,,,,,,,,,,,,,,,,,,,,,,,,,,,,,,,,,,,,,,,,,,,,,,,,,,,,,,,,,,,,,,,,,,,,,
1764665407.134462,23544,0,4385.256348,4381.538574,4500,4515.128418,4386.538574,4513.974121,4528.589844,4377.307617,4548.717773,4378.589844,4475,4502.563965,4563.589844,4382.05127,4369.743652,4498.205078,4537.436035,4535.897461,4507.436035,4384.358887,4387.94873,4562.05127,4514.358887,4503.205078,4385.512695,4577.94873,4382.563965,4547.94873,4503.205078,4389.871582,4516.666504,4501.153809,2725,1,24,768,21544,,,,0,4,4,4,4,4,4,4,4,4,4,4,4,4,4,4,4,4,4,4,4,4,4,4,4,4,4,4,4,4,4,4,4,100,,,,,,,,,,,,,,,,,,,,,,,,,,,,,,,,,,,,,,,,,,,,,,,,,,,,,,,,,,,,,,,,,,,,,,,,,,,,,,,,,,,,,,,,,,,,,,,,,,,,,,,,,,,,,,,,,,,,,,,,,,,,,,,,,,,,,,,,,,,,,,,,,,,,,,,,,,,,,,,,,,,,,,,,,,,,,,,,,,,,,,,,,,,,,,,,,,,,,,,,,,,,,,
1764665407.138368,23545,0,4388.717773,4384.871582,4501.794922,4519.743652,4389.743652,4515.897461,4534.487305,4382.05127,4553.461426,4388.333496,4483.589844,4506.794922,4563.077148,4386.922852,4374.871582,4499.358887,4536.410156,4535.384766,4504.358887,4385.128418,4386.025879,4562.307617,4513.589844,4502.179688,4388.846191,4580.769043,4385.512695,4548.717773,4505.384766,4396.282227,4520.256348,4505.256348,2798,1,24,768,21544,,,,0,4,4,4,4,4,4,4,4,4,4,4,4,4,4,4,4,4,4,4,4,4,4,4,4,4,4,4,4,4,4,4,4,100,,,,,,,,,,,,,,,,,,,,,,,,,,,,,,,,,,,38654,0,0.018054,-0.696777,-0.717041,-0.005249,0.993285,0.030277,0.02344,20,1.5,55,,,,,,,,,,,,,,,,,,,,,,,,,,,,,,,,,,,,,,,,,,,,,,,,,,,,,,,,,,,,,,,,,,,,,,,,,,,,,,,,,,,,,,,,,,,,,,,,,,,,,,,,,,,,,,,,,,,,,,,,,,,,,,,,,,,,,,,,,,,,,,,,,,,,,,,,,,,,,,,,
1764665407.142274,23546,0,4397.820313,4395.897461,4513.846191,4533.333496,4401.538574,4523.974121,4546.922852,4395,4566.666504,4403.205078,4495.512695,4516.538574,4568.333496,4396.025879,4385.641113,4504.871582,4544.102539,4538.461426,4504.358887,4389.871582,4391.538574,4567.179688,4518.846191,4507.820313,4402.820313,4588.717773,4396.538574,4558.333496,4513.461426,4410.769043,4530,4516.025879,1912,1,24,256,21552,,,,0,4,4,4,4,4,4,4,4,4,4,4,4,4,4,4,4,4,4,4,4,4,4,4,4,4,4,4,4,4,4,4,4,100,1,100,4,4,4,4,4,4,4,4,4,4,4,4,4,4,4,4,4,4,4,4,4,4,4,4,4,4,4,4,4,4,4,4,,,,,,,,,,,,,1.7428,6.250727,0.755715,0.898995,1.166708,1.758968,6.67588,1.167035,1.186262,1.223165,1.130078,4.645788,0.893977,1.544268,1.473881,0.467759,2.651443,0.772794,1.411921,1.263272,1.749183,4.625613,1.077369,0.887505,1.141071,1.568309,5.758007,0.745754,0.789283,0.937947,1.234171,5.330597,0.690207,1.022099,1.266526,0.60825,3.787513,1.238941,1.40612,1.283622,0.740114,1.847759,0.954362,1.284106,1.285089,0.762365,2.811161,0.935748,1.458279,1.697637,0.769064,2.809378,0.471023,0.609464,0.68666,2.143356,7.781233,0.754451,1.018187,1.027208,1.397057,5.531531,0.755099,0.62181,0.933014,0.687175,1.516609,0.307393,0.55067,0.631831,0.895069,1.408571,0.504774,0.845674,0.925909,0.598821,1.946562,0.210678,0.498406,0.69444,2.204753,9.59441,0.942663,1.174403,1.2759,1.415328,3.421838,0.756471,0.9333,1.021838,0.51823,2.204407,0.583057,0.667575,0.722257,0.985179,1.842829,0.483976,0.936765,1.063771,1.217792,4.622762,0.67155,0.884115,1.027228,1.442125,8.19978,0.881819,0.976551,1.206213,2.163116,5.840224,0.73622,0.709029,1.115865,2.341479,5.992419,1.138056,1.081726,1.217432,1.823745,6.27312,2.984546,1.725203,1.542671,1.660235,3.673221,0.716563,0.869742,0.876916,2.139385,5.466237,1.018766,1.136666,1.432558,2.803181,6.830109,1.08835,1.146509,1.325339,0.901309,2.827349,0.690321,0.614988,0.524994,2.694036,4.750033,0.921201,1.080485,1.265105,2.133258,4.87001,0.84142,1.119365,1.368417,1.60444,4.593773,1.019272,1.368404,1.336586
1764665407.146180,23547,0,4404.102539,4404.871582,4525.641113,4545.128418,4411.922852,4530.256348,4555.769043,4406.025879,4577.692383,4412.179688,4501.538574,4523.717773,4572.692383,4402.436035,4393.333496,4509.743652,4551.538574,4540.769043,4504.743652,4392.563965,4397.563965,4569.743652,4522.179688,4513.333496,4414.230957,4594.487305,4406.282227,4566.794922,4520.512695,4422.05127,4537.563965,4524.230957,2606,1,24,256,21552,,,,0,4,4,4,4,4,4,4,4,4,4,4,4,4,4,4,4,4,4,4,4,4,4,4,4,4,4,4,4,4,4,4,4,100,,,,,,,,,,,,,,,,,,,,,,,,,,,,,,,,,,,,,,,,,,,,,,,,,,,,,,,,,,,,,,,,,,,,,,,,,,,,,,,,,,,,,,,,,,,,,,,,,,,,,,,,,,,,,,,,,,,,,,,,,,,,,,,,,,,,,,,,,,,,,,,,,,,,,,,,,,,,,,,,,,,,,,,,,,,,,,,,,,,,,,,,,,,,,,,,,,,,,,,,,,,,,,
1764665407.150086,23548,0,4401.410156,4403.461426,4527.563965,4545.897461,4412.179688,4528.589844,4553.974121,4406.666504,4578.846191,4408.974121,4496.794922,4522.307617,4571.153809,4401.538574,4391.666504,4509.743652,4551.025879,4539.230957,4503.717773,4388.846191,4397.692383,4565.128418,4517.692383,4512.05127,4412.94873,4592.820313,4406.282227,4566.025879,4520.512695,4421.025879,4536.410156,4522.94873,2669,1,24,512,21560,,,,0,4,4,4,4,4,4,4,4,4,4,4,4,4,4,4,4,4,4,4,4,4,4,4,4,4,4,4,4,4,4,4,4,100,,,,,,,,,,,,,,,,,,,,,,,,,,,,,,,,,,,,,,,,,,,,,,,,,,,,,,,,,,,,,,,,,,,,,,,,,,,,,,,,,,,,,,,,,,,,,,,,,,,,,,,,,,,,,,,,,,,,,,,,,,,,,,,,,,,,,,,,,,,,,,,,,,,,,,,,,,,,,,,,,,,,,,,,,,,,,,,,,,,,,,,,,,,,,,,,,,,,,,,,,,,,,,
1764665407.153992,23549,0,4390.641113,4392.05127,4518.589844,4534.615234,4401.922852,4519.487305,4543.205078,4396.538574,4571.153809,4396.538574,4484.871582,4512.436035,4564.102539,4394.358887,4382.179688,4504.615234,4541.153809,4534.358887,4501.666504,4380.641113,4391.794922,4555.384766,4507.307617,4503.205078,4400.769043,4585.256348,4395.512695,4555.384766,4513.077148,4408.077148,4527.05127,4512.94873,2505,1,24,512,21560,,,,0,4,4,4,4,4,4,4,4,4,4,4,4,4,4,4,4,4,4,4,4,4,4,4,4,4,4,4,4,4,4,4,4,100,,,,,,,,,,,,,,,,,,,,,,,,,,,,,,,,,,,38655,0,0.018072,-0.696777,-0.717041,-0.005188,1.003541,0.028812,0.029789,19.333334,1.333333,53.5,,,,,,,,,,,,,,,,,,,,,,,,,,,,,,,,,,,,,,,,,,,,,,,,,,,,,,,,,,,,,,,,,,,,,,,,,,,,,,,,,,,,,,,,,,,,,,,,,,,,,,,,,,,,,,,,,,,,,,,,,,,,,,,,,,,,,,,,,,,,,,,,,,,,,,,,,,,,,,,,
1764665407.157898,23550,0,4378.461426,4378.461426,4505.641113,4518.717773,4387.692383,4508.589844,4531.538574,4382.563965,4562.179688,4384.102539,4474.487305,4500.256348,4556.922852,4386.153809,4372.05127,4497.692383,4527.94873,4529.743652,4500.897461,4373.974121,4384.871582,4546.794922,4497.94873,4491.410156,4388.589844,4577.692383,4381.025879,4542.05127,4502.94873,4392.179688,4515.897461,4501.153809,2637,1,24,768,21568,,,,0,4,4,4,4,4,4,4,4,4,4,4,4,4,4,4,4,4,4,4,4,4,4,4,4,4,4,4,4,4,4,4,4,100,,,,,,,,,,,,,,,,,,,,,,,,,,,,,,,,,,,,,,,,,,,,,,,,,,,,,,,,,,,,,,,,,,,,,,,,,,,,,,,,,,,,,,,,,,,,,,,,,,,,,,,,,,,,,,,,,,,,,,,,,,,,,,,,,,,,,,,,,,,,,,,,,,,,,,,,,,,,,,,,,,,,,,,,,,,,,,,,,,,,,,,,,,,,,,,,,,,,,,,,,,,,,,
1764665407.161804,23551,0,4371.794922,4370.641113,4496.666504,4506.538574,4377.94873,4502.307617,4526.153809,4372.692383,4558.333496,4378.589844,4472.179688,4492.307617,4554.487305,4381.666504,4367.307617,4492.436035,4518.077148,4527.820313,4502.179688,4372.94873,4381.922852,4543.717773,4495.384766,4482.563965,4384.615234,4574.743652,4370.769043,4533.589844,4495.897461,4382.94873,4508.974121,4494.230957,2800,1,24,768,21568,,,,0,4,4,4,4,4,4,4,4,4,4,4,4,4,4,4,4,4,4,4,4,4,4,4,4,4,4,4,4,4,4,4,4,100,,,,,,,,,,,,,,,,,,,,,,,,,,,,,,,,,,,,,,,,,,,,,,,,,,,,,,,,,,,,,,,,,,,,,,,,,,,,,,,,,,,,,,,,,,,,,,,,,,,,,,,,,,,,,,,,,,,,,,,,,,,,,,,,,,,,,,,,,,,,,,,,,,,,,,,,,,,,,,,,,,,,,,,,,,,,,,,,,,,,,,,,,,,,,,,,,,,,,,,,,,,,,,
1764665407.165710,23552,0,4372.179688,4371.025879,4493.974121,4502.436035,4375.512695,4501.922852,4527.820313,4370,4560.128418,4380.512695,4477.820313,4490.897461,4556.794922,4382.05127,4369.102539,4490.256348,4515.384766,4527.692383,4503.333496,4376.666504,4383.333496,4545.641113,4499.230957,4478.717773,4387.436035,4576.282227,4368.333496,4532.05127,4494.615234,4383.333496,4507.563965,4493.205078,2748,1,24,1024,21575,,,,0,4,4,4,4,4,4,4,4,4,4,4,4,4,4,4,4,4,4,4,4,4,4,4,4,4,4,4,4,4,4,4,4,100,,,,,,,,,,,,,,,,,,,,,,,,,,,,,,,,,,,,,,,,,,,,,,,,,,,,,,,,,,,,,,,,,,,,,,,,,,,,,,,,,,,,,,,,,,,,,,,,,,,,,,,,,,,,,,,,,,,,,,,,,,,,,,,,,,,,,,,,,,,,,,,,,,,,,,,,,,,,,,,,,,,,,,,,,,,,,,,,,,,,,,,,,,,,,,,,,,,,,,,,,,,,,,
1764665407.169616,23553,0,4376.282227,4375.897461,4495.128418,4505.128418,4378.205078,4504.615234,4532.94873,4371.922852,4563.589844,4384.358887,4485.641113,4493.974121,4560,4385,4373.589844,4490.512695,4517.94873,4526.794922,4501.666504,4380.641113,4385.384766,4547.692383,4504.743652,4478.077148,4389.102539,4578.461426,4370.897461,4534.615234,4497.436035,4388.974121,4509.102539,4494.871582,2907,1,24,1024,21575,,,,0,4,4,4,4,4,4,4,4,4,4,4,4,4,4,4,4,4,4,4,4,4,4,4,4,4,4,4,4,4,4,4,4,100,,,,,,,,,,,,,,,,,,,,,,,,,,,,,,,,,,,38656,0,0.018072,-0.696777,-0.717041,-0.005188,1.003541,0.028812,0.029789,19.166666,-0.333333,53.666668,,,,,,,,,,,,,,,,,,,,,,,,,,,,,,,,,,,,,,,,,,,,,,,,,,,,,,,,,,,,,,,,,,,,,,,,,,,,,,,,,,,,,,,,,,,,,,,,,,,,,,,,,,,,,,,,,,,,,,,,,,,,,,,,,,,,,,,,,,,,,,,,,,,,,,,,,,,,,,,,
1764665407.173522,23554,0,4379.871582,4380.769043,4497.307617,4511.410156,4382.05127,4507.94873,4537.307617,4375.128418,4565.256348,4385.128418,4490.256348,4498.205078,4561.282227,4388.589844,4377.94873,4492.436035,4522.563965,4524.358887,4496.922852,4381.666504,4385.128418,4546.922852,4508.333496,4479.358887,4385,4579.102539,4374.871582,4538.333496,4501.282227,4394.487305,4511.153809,4496.410156,2583,1,24,1280,21583,,,,0,4,4,4,4,4,4,4,4,4,4,4,4,4,4,4,4,4,4,4,4,4,4,4,4,4,4,4,4,4,4,4,4,100,,,,,,,,,,,,,,,,,,,,,,,,,,,,,,,,,,,,,,,,,,,,,,,,,,,,,,,,,,,,,,,,,,,,,,,,,,,,,,,,,,,,,,,,,,,,,,,,,,,,,,,,,,,,,,,,,,,,,,,,,,,,,,,,,,,,,,,,,,,,,,,,,,,,,,,,,,,,,,,,,,,,,,,,,,,,,,,,,,,,,,,,,,,,,,,,,,,,,,,,,,,,,,
1764665407.177428,23555,0,4382.563965,4384.743652,4501.025879,4519.743652,4385.897461,4511.922852,4540.769043,4378.974121,4566.794922,4383.205078,4491.153809,4503.077148,4562.563965,4392.94873,4381.666504,4495.897461,4528.077148,4523.205078,4493.077148,4381.282227,4383.717773,4545.897461,4510.769043,4483.333496,4378.589844,4580.256348,4379.615234,4543.333496,4504.743652,4398.205078,4514.871582,4498.717773,2842,1,24,1280,21583,,,,0,4,4,4,4,4,4,4,4,4,4,4,4,4,4,4,4,4,4,4,4,4,4,4,4,4,4,4,4,4,4,4,4,100,,,,,,,,,,,,,,,,,,,,,,,,,,,,,,,,,,,,,,,,,,,,,,,,,,,,,,,,,,,,,,,,,,,,,,,,,,,,,,,,,,,,,,,,,,,,,,,,,,,,,,,,,,,,,,,,,,,,,,,,,,,,,,,,,,,,,,,,,,,,,,,,,,,,,,,,,,,,,,,,,,,,,,,,,,,,,,,,,,,,,,,,,,,,,,,,,,,,,,,,,,,,,,
1764665407.181334,23556,0,4386.794922,4389.615234,4508.205078,4529.358887,4391.153809,4518.205078,4546.153809,4384.615234,4573.077148,4383.333496,4492.307617,4509.743652,4567.436035,4399.102539,4386.666504,4501.153809,4535.769043,4527.179688,4494.871582,4383.077148,4385.641113,4549.743652,4515.641113,4491.538574,4378.717773,4585.641113,4387.179688,4551.794922,4508.077148,4402.436035,4522.692383,4505.256348,2740,1,24,1536,21591,,,,0,4,4,4,4,4,4,4,4,4,4,4,4,4,4,4,4,4,4,4,4,4,4,4,4,4,4,4,4,4,4,4,4,100,,,,,,,,,,,,,,,,,,,,,,,,,,,,,,,,,,,,,,,,,,,,,,,,,,,,,,,,,,,,,,,,,,,,,,,,,,,,,,,,,,,,,,,,,,,,,,,,,,,,,,,,,,,,,,,,,,,,,,,,,,,,,,,,,,,,,,,,,,,,,,,,,,,,,,,,,,,,,,,,,,,,,,,,,,,,,,,,,,,,,,,,,,,,,,,,,,,,,,,,,,,,,,
1764665407.185240,23557,0,4394.358887,4397.179688,4518.333496,4538.717773,4398.077148,4526.666504,4554.615234,4392.179688,4585.897461,4389.358887,4497.179688,4518.717773,4576.025879,4406.025879,4393.461426,4507.05127,4546.538574,4536.025879,4502.820313,4389.102539,4392.94873,4560.641113,4524.358887,4503.205078,4390.769043,4595.769043,4398.077148,4563.077148,4512.692383,4409.487305,4533.717773,4516.538574,2775,1,24,1536,21591,,,,0,4,4,4,4,4,4,4,4,4,4,4,4,4,4,4,4,4,4,4,4,4,4,4,4,4,4,4,4,4,4,4,4,100,,,,,,,,,,,,,,,,,,,,,,,,,,,,,,,,,,,38657,0,0.02035,-0.696777,-0.71698,-0.005188,0.99768,0.028324,0.03223,17.333334,1.666667,54.333332,,,,,,,,,,,,,,,,,,,,,,,,,,,,,,,,,,,,,,,,,,,,,,,,,,,,,,,,,,,,,,,,,,,,,,,,,,,,,,,,,,,,,,,,,,,,,,,,,,,,,,,,,,,,,,,,,,,,,,,,,,,,,,,,,,,,,,,,,,,,,,,,,,,,,,,,,,,,,,,,
1764665407.189146,23558,0,4402.692383,4405.128418,4527.179688,4544.743652,4404.743652,4533.974121,4562.94873,4399.615234,4600.384766,4399.487305,4504.871582,4526.794922,4584.743652,4410.256348,4399.358887,4511.410156,4557.563965,4545,4512.05127,4396.538574,4402.563965,4573.846191,4533.333496,4512.94873,4410.256348,4606.282227,4408.461426,4572.307617,4517.563965,4417.820313,4543.333496,4528.205078,2781,1,24,1792,21599,,,,0,4,4,4,4,4,4,4,4,4,4,4,4,4,4,4,4,4,4,4,4,4,4,4,4,4,4,4,4,4,4,4,4,100,,,,,,,,,,,,,,,,,,,,,,,,,,,,,,,,,,,,,,,,,,,,,,,,,,,,,,,,,,,,,,,,,,,,,,,,,,,,,,,,,,,,,,,,,,,,,,,,,,,,,,,,,,,,,,,,,,,,,,,,,,,,,,,,,,,,,,,,,,,,,,,,,,,,,,,,,,,,,,,,,,,,,,,,,,,,,,,,,,,,,,,,,,,,,,,,,,,,,,,,,,,,,,
