Timestamp,EEG.Counter,EEG.Interpolated,EEG.Cz,EEG.Fz,EEG.Fp1,EEG.F7,EEG.F3,EEG.FC1,EEG.C3,EEG.FC5,EEG.FT9,EEG.T7,EEG.CP5,EEG.CP1,EEG.P3,EEG.P7,EEG.PO9,EEG.O1,EEG.Pz,EEG.Oz,EEG.O2,EEG.PO10,EEG.P8,EEG.P4,EEG.CP2,EEG.CP6,EEG.T8,EEG.FT10,EEG.FC6,EEG.C4,EEG.FC2,EEG.F4,EEG.F8,EEG.Fp2,EEG.RawCq,EEG.Battery,EEG.BatteryPercent,EEG.FwBufferSize,EEG.FwClockTime,MarkerIndex,MarkerType,MarkerValueInt,EEG.MarkerHardware,CQ.Cz,CQ.Fz,CQ.Fp1,CQ.F7,CQ.F3,CQ.FC1,CQ.C3,CQ.FC5,CQ.FT9,CQ.T7,CQ.CP5,CQ.CP1,CQ.P3,CQ.P7,CQ.PO9,CQ.O1,CQ.Pz,CQ.Oz,CQ.O2,CQ.PO10,CQ.P8,CQ.P4,CQ.CP2,CQ.CP6,CQ.T8,CQ.FT10,CQ.FC6,CQ.C4,CQ.FC2,CQ.F4,CQ.F8,CQ.Fp2,CQ.Overall,EQ.SampleRateQuality,EQ.OVERALL,EQ.Cz,EQ.Fz,EQ.Fp1,EQ.F7,EQ.F3,EQ.FC1,EQ.C3,EQ.FC5,EQ.FT9,EQ.T7,EQ.CP5,EQ.CP1,EQ.P3,EQ.P7,EQ.PO9,EQ.O1,EQ.Pz,EQ.Oz,EQ.O2,EQ.PO10,EQ.P8,EQ.P4,EQ.CP2,EQ.CP6,EQ.T8,EQ.FT10,EQ.FC6,EQ.C4,EQ.FC2,EQ.F4,EQ.F8,EQ.Fp2,MOT.CounterMems,MOT.InterpolatedMems,MOT.Q0,MOT.Q1,MOT.Q2,MOT.Q3,MOT.AccX,MOT.AccY,MOT.AccZ,MOT.MagX,MOT.MagY,MOT.MagZ,POW.Cz.Theta,POW.Cz.Alpha,POW.Cz.BetaL,POW.Cz.BetaH,POW.Cz.Gamma,POW.Fz.Theta,POW.Fz.Alpha,POW.Fz.BetaL,POW.Fz.BetaH,POW.Fz.Gamma,POW.Fp1.Theta,POW.Fp1.Alpha,POW.Fp1.BetaL,POW.Fp1.BetaH,POW.Fp1.Gamma,POW.F7.Theta,POW.F7.Alpha,POW.F7.BetaL,POW.F7.BetaH,POW.F7.Gamma,POW.F3.Theta,POW.F3.Alpha,POW.F3.BetaL,POW.F3.BetaH,POW.F3.Gamma,POW.FC1.Theta,POW.FC1.Alpha,POW.FC1.BetaL,POW.FC1.BetaH,POW.FC1.Gamma,POW.C3.Theta,POW.C3.Alpha,POW.C3.BetaL,POW.C3.BetaH,POW.C3.Gamma,POW.FC5.Theta,POW.FC5.Alpha,POW.FC5.BetaL,POW.FC5.BetaH,POW.FC5.Gamma,POW.FT9.Theta,POW.FT9.Alpha,POW.FT9.BetaL,POW.FT9.BetaH,POW.FT9.Gamma,POW.T7.Theta,POW.T7.Alpha,POW.T7.BetaL,POW.T7.BetaH,POW.T7.Gamma,POW.CP5.Theta,POW.CP5.Alpha,POW.CP5.BetaL,POW.CP5.BetaH,POW.CP5.Gamma,POW.CP1.Theta,POW.CP1.Alpha,POW.CP1.BetaL,POW.CP1.BetaH,POW.CP1.Gamma,POW.P3.Theta,POW.P3.Alpha,POW.P3.BetaL,POW.P3.BetaH,POW.P3.Gamma,POW.P7.Theta,POW.P7.Alpha,POW.P7.BetaL,POW.P7.BetaH,POW.P7.Gamma,POW.PO9.Theta,POW.PO9.Alpha,POW.PO9.BetaL,POW.PO9.BetaH,POW.PO9.Gamma,POW.O1.Theta,POW.O1.Alpha,POW.O1.BetaL,POW.O1.BetaH,POW.O1.Gamma,POW.Pz.Theta,POW.Pz.Alpha,POW.Pz.BetaL,POW.Pz.BetaH,POW.Pz.Gamma,POW.Oz.Theta,POW.Oz.Alpha,POW.Oz.BetaL,POW.Oz.BetaH,POW.Oz.Gamma,POW.O2.Theta,POW.O2.Alpha,POW.O2.BetaL,POW.O2.BetaH,POW.O2.Gamma,POW.PO10.Theta,POW.PO10.Alpha,POW.PO10.BetaL,POW.PO10.BetaH,POW.PO10.Gamma,POW.P8.Theta,POW.P8.Alpha,POW.P8.BetaL,POW.P8.BetaH,POW.P8.Gamma,POW.P4.Theta,POW.P4.Alpha,POW.P4.BetaL,POW.P4.BetaH,POW.P4.Gamma,POW.CP2.Theta,POW.CP2.Alpha,POW.CP2.BetaL,POW.CP2.BetaH,POW.CP2.Gamma,POW.CP6.Theta,POW.CP6.Alpha,POW.CP6.BetaL,POW.CP6.BetaH,POW.CP6.Gamma,POW.T8.Theta,POW.T8.Alpha,POW.T8.BetaL,POW.T8.BetaH,POW.T8.Gamma,POW.FT10.Theta,POW.FT10.Alpha,POW.FT10.BetaL,POW.FT10.BetaH,POW.FT10.Gamma,POW.FC6.Theta,POW.FC6.Alpha,POW.FC6.BetaL,POW.FC6.BetaH,POW.FC6.Gamma,POW.C4.Theta,POW.C4.Alpha,POW.C4.BetaL,POW.C4.BetaH,POW.C4.Gamma,POW.FC2.Theta,POW.FC2.Alpha,POW.FC2.BetaL,POW.FC2.BetaH,POW.FC2.Gamma,POW.F4.Theta,POW.F4.Alpha,POW.F4.BetaL,POW.F4.BetaH,POW.F4.Gamma,POW.F8.Theta,POW.F8.Alpha,POW.F8.BetaL,POW.F8.BetaH,POW.F8.Gamma,POW.Fp2.Theta,POW.Fp2.Alpha,POW.Fp2.BetaL,POW.Fp2.BetaH,POW.Fp2.Gamma
1763973771.821661,38447.0,0.0,4418.205078,4436.666504,4539.871582,4542.307617,4426.025879,4533.589844,4567.563965,4414.230957,4588.205078,4396.666504,4510.128418,4545.641113,4592.820313,4405.769043,4403.077148,4505.641113,4564.615234,4543.077148,4528.077148,4405.0,4419.358887,4591.538574,4547.820313,4528.846191,4424.102539,4594.871582,4419.615234,4584.871582,4538.589844,4432.436035,4562.94873,4532.820313,2803.0,1.0,22.0,256.0,16618.0,5.0,1.0,3.0,0.0,4.0,4.0,4.0,4.0,4.0,4.0,4.0,4.0,4.0,4.0,4.0,4.0,4.0,4.0,4.0,4.0,4.0,4.0,4.0,4.0,4.0,4.0,4.0,4.0,4.0,4.0,4.0,4.0,4.0,4.0,4.0,4.0,100.0,,,,,,,,,,,,,,,,,,,,,,,,,,,,,,,,,,,,,,,,,,,,,,,,,,,,,,,,,,,,,,,,,,,,,,,,,,,,,,,,,,,,,,,,,,,,,,,,,,,,,,,,,,,,,,,,,,,,,,,,,,,,,,,,,,,,,,,,,,,,,,,,,,,,,,,,,,,,,,,,,,,,,,,,,,,,,,,,,,,,,,,,,,,,,,,,,,,,,,,,,,,,,,
1763973771.825667,38448.0,0.0,4417.307617,4435.128418,4536.025879,4544.743652,4421.410156,4531.153809,4567.94873,4411.153809,4590.256348,4398.461426,4510.0,4544.230957,4590.769043,4405.512695,4403.846191,4494.102539,4563.461426,4538.205078,4527.436035,4409.230957,4419.615234,4590.0,4547.05127,4528.717773,4423.589844,4595.0,4418.589844,4585.256348,4537.436035,4429.615234,4560.128418,4529.230957,2920.0,1.0,22.0,512.0,16626.0,,,,0.0,4.0,4.0,4.0,4.0,4.0,4.0,4.0,4.0,4.0,4.0,4.0,4.0,4.0,4.0,4.0,4.0,4.0,4.0,4.0,4.0,4.0,4.0,4.0,4.0,4.0,4.0,4.0,4.0,4.0,4.0,4.0,4.0,100.0,,,,,,,,,,,,,,,,,,,,,,,,,,,,,,,,,,,,,,,,,,,,,,,,,,,,,,,,,,,,,,,,,,,,,,,,,,,,,,,,,,,,,,,,,,,,,,,,,,,,,,,,,,,,,,,,,,,,,,,,,,,,,,,,,,,,,,,,,,,,,,,,,,,,,,,,,,,,,,,,,,,,,,,,,,,,,,,,,,,,,,,,,,,,,,,,,,,,,,,,,,,,,,
1763973771.829573,38449.0,0.0,4411.794922,4429.871582,4529.743652,4542.307617,4414.871582,4527.307617,4563.589844,4403.461426,4586.410156,4398.205078,4505.128418,4538.717773,4587.563965,4400.384766,4398.205078,4490.512695,4559.871582,4535.128418,4525.128418,4407.05127,4413.974121,4587.436035,4544.358887,4522.307617,4418.589844,4590.128418,4414.102539,4581.538574,4532.563965,4422.436035,4549.615234,4520.897461,3037.0,1.0,22.0,512.0,16626.0,,,,0.0,4.0,4.0,4.0,4.0,4.0,4.0,4.0,4.0,4.0,4.0,4.0,4.0,4.0,4.0,4.0,4.0,4.0,4.0,4.0,4.0,4.0,4.0,4.0,4.0,4.0,4.0,4.0,4.0,4.0,4.0,4.0,4.0,100.0,,,,,,,,,,,,,,,,,,,,,,,,,,,,,,,,,,,58764.0,0.0,0.659837,0.28833,0.246521,0.648621,0.981077,-0.006837,-0.071298,27.166666,-24.5,-25.166666,,,,,,,,,,,,,,,,,,,,,,,,,,,,,,,,,,,,,,,,,,,,,,,,,,,,,,,,,,,,,,,,,,,,,,,,,,,,,,,,,,,,,,,,,,,,,,,,,,,,,,,,,,,,,,,,,,,,,,,,,,,,,,,,,,,,,,,,,,,,,,,,,,,,,,,,,,,,,,,,
1763973771.833479,38450.0,0.0,4406.538574,4424.743652,4523.717773,4536.538574,4410.384766,4525.384766,4558.077148,4396.922852,4579.358887,4398.077148,4499.615234,4533.589844,4586.538574,4395.512695,4392.179688,4497.307617,4557.05127,4537.179688,4524.487305,4402.436035,4407.307617,4586.025879,4542.05127,4514.230957,4412.563965,4583.974121,4409.615234,4576.794922,4527.307617,4415.0,4539.487305,4512.820313,2824.0,1.0,22.0,768.0,16633.0,,,,0.0,4.0,4.0,4.0,4.0,4.0,4.0,4.0,4.0,4.0,4.0,4.0,4.0,4.0,4.0,4.0,4.0,4.0,4.0,4.0,4.0,4.0,4.0,4.0,4.0,4.0,4.0,4.0,4.0,4.0,4.0,4.0,4.0,100.0,,,,,,,,,,,,,,,,,,,,,,,,,,,,,,,,,,,,,,,,,,,,,,,,,,,,,,,,,,,,,,,,,,,,,,,,,,,,,,,,,,,,,,,,,,,,,,,,,,,,,,,,,,,,,,,,,,,,,,,,,,,,,,,,,,,,,,,,,,,,,,,,,,,,,,,,,,,,,,,,,,,,,,,,,,,,,,,,,,,,,,,,,,,,,,,,,,,,,,,,,,,,,,
1763973771.837385,38451.0,0.0,4404.358887,4420.897461,4519.615234,4530.128418,4409.358887,4526.025879,4554.102539,4394.358887,4572.179688,4398.846191,4496.538574,4531.025879,4588.205078,4393.846191,4388.974121,4510.0,4556.538574,4544.102539,4525.512695,4397.307617,4403.461426,4585.641113,4541.025879,4508.461426,4407.94873,4578.589844,4406.538574,4572.563965,4523.589844,4409.358887,4535.128418,4507.94873,3009.0,1.0,22.0,768.0,16633.0,,,,0.0,4.0,4.0,4.0,4.0,4.0,4.0,4.0,4.0,4.0,4.0,4.0,4.0,4.0,4.0,4.0,4.0,4.0,4.0,4.0,4.0,4.0,4.0,4.0,4.0,4.0,4.0,4.0,4.0,4.0,4.0,4.0,4.0,100.0,,,,,,,,,,,,,,,,,,,,,,,,,,,,,,,,,,,,,,,,,,,,,,,,,,,,,,,,,,,,,,,,,,,,,,,,,,,,,,,,,,,,,,,,,,,,,,,,,,,,,,,,,,,,,,,,,,,,,,,,,,,,,,,,,,,,,,,,,,,,,,,,,,,,,,,,,,,,,,,,,,,,,,,,,,,,,,,,,,,,,,,,,,,,,,,,,,,,,,,,,,,,,,
1763973771.841291,38452.0,0.0,4404.358887,4417.307617,4516.922852,4524.871582,4409.743652,4526.666504,4551.025879,4393.846191,4566.666504,4399.358887,4495.897461,4529.743652,4589.615234,4394.102539,4386.922852,4521.025879,4557.05127,4551.410156,4525.641113,4391.538574,4402.94873,4584.230957,4539.230957,4505.641113,4404.230957,4574.102539,4403.717773,4568.077148,4520.128418,4404.871582,4535.897461,4505.641113,2990.0,1.0,22.0,1024.0,16641.0,,,,0.0,4.0,4.0,4.0,4.0,4.0,4.0,4.0,4.0,4.0,4.0,4.0,4.0,4.0,4.0,4.0,4.0,4.0,4.0,4.0,4.0,4.0,4.0,4.0,4.0,4.0,4.0,4.0,4.0,4.0,4.0,4.0,4.0,100.0,,,,,,,,,,,,,,,,,,,,,,,,,,,,,,,,,,,,,,,,,,,,,,,,,,,,,,,,,,,,,,,,,,,,,,,,,,,,,,,,,,,,,,,,,,,,,,,,,,,,,,,,,,,,,,,,,,,,,,,,,,,,,,,,,,,,,,,,,,,,,,,,,,,,,,,,,,,,,,,,,,,,,,,,,,,,,,,,,,,,,,,,,,,,,,,,,,,,,,,,,,,,,,
1763973771.845197,38453.0,0.0,4403.333496,4412.436035,4514.487305,4521.922852,4408.974121,4524.743652,4547.307617,4392.692383,4563.333496,4397.563965,4495.897461,4527.179688,4587.307617,4393.589844,4383.717773,4523.846191,4555.512695,4553.974121,4522.692383,4384.871582,4403.974121,4580.0,4535.0,4504.487305,4400.384766,4570.512695,4400.128418,4562.692383,4515.897461,4400.512695,4537.692383,4504.358887,2844.0,1.0,22.0,1024.0,16641.0,,,,0.0,4.0,4.0,4.0,4.0,4.0,4.0,4.0,4.0,4.0,4.0,4.0,4.0,4.0,4.0,4.0,4.0,4.0,4.0,4.0,4.0,4.0,4.0,4.0,4.0,4.0,4.0,4.0,4.0,4.0,4.0,4.0,4.0,100.0,,,,,,,,,,,,,,,,,,,,,,,,,,,,,,,,,,,58765.0,0.0,0.659925,0.288147,0.246338,0.648682,0.981077,-0.006837,-0.071298,27.333334,-25.0,-25.833334,,,,,,,,,,,,,,,,,,,,,,,,,,,,,,,,,,,,,,,,,,,,,,,,,,,,,,,,,,,,,,,,,,,,,,,,,,,,,,,,,,,,,,,,,,,,,,,,,,,,,,,,,,,,,,,,,,,,,,,,,,,,,,,,,,,,,,,,,,,,,,,,,,,,,,,,,,,,,,,,
1763973771.849103,38454.0,0.0,4400.384766,4407.692383,4512.179688,4522.820313,4406.794922,4520.769043,4543.077148,4390.384766,4563.589844,4394.230957,4495.769043,4523.589844,4580.897461,4392.307617,4379.871582,4517.563965,4551.282227,4549.871582,4517.692383,4379.358887,4405.0,4573.846191,4529.230957,4504.358887,4397.692383,4569.743652,4396.922852,4558.077148,4511.922852,4397.692383,4538.205078,4504.358887,2977.0,1.0,22.0,1280.0,16649.0,,,,0.0,4.0,4.0,4.0,4.0,4.0,4.0,4.0,4.0,4.0,4.0,4.0,4.0,4.0,4.0,4.0,4.0,4.0,4.0,4.0,4.0,4.0,4.0,4.0,4.0,4.0,4.0,4.0,4.0,4.0,4.0,4.0,4.0,100.0,,,,,,,,,,,,,,,,,,,,,,,,,,,,,,,,,,,,,,,,,,,,,,,,,,,,,,,,,,,,,,,,,,,,,,,,,,,,,,,,,,,,,,,,,,,,,,,,,,,,,,,,,,,,,,,,,,,,,,,,,,,,,,,,,,,,,,,,,,,,,,,,,,,,,,,,,,,,,,,,,,,,,,,,,,,,,,,,,,,,,,,,,,,,,,,,,,,,,,,,,,,,,,
1763973771.853009,38455.0,0.0,4397.307617,4405.641113,4511.538574,4527.94873,4405.384766,4517.820313,4541.025879,4389.487305,4567.820313,4392.563965,4496.410156,4521.410156,4573.461426,4392.436035,4378.461426,4507.05127,4546.282227,4541.794922,4514.358887,4378.333496,4405.256348,4568.717773,4525.0,4505.512695,4397.820313,4573.717773,4396.410156,4556.538574,4510.512695,4398.461426,4538.077148,4506.922852,2935.0,1.0,22.0,1280.0,16649.0,,,,0.0,4.0,4.0,4.0,4.0,4.0,4.0,4.0,4.0,4.0,4.0,4.0,4.0,4.0,4.0,4.0,4.0,4.0,4.0,4.0,4.0,4.0,4.0,4.0,4.0,4.0,4.0,4.0,4.0,4.0,4.0,4.0,4.0,100.0,,,,,,,,,,,,,,,,,,,,,,,,,,,,,,,,,,,,,,,,,,,,,,,,,,,,,,,,,,,,,,,,,,,,,,,,,,,,,,,,,,,,,,,,,,,,,,,,,,,,,,,,,,,,,,,,,,,,,,,,,,,,,,,,,,,,,,,,,,,,,,,,,,,,,,,,,,,,,,,,,,,,,,,,,,,,,,,,,,,,,,,,,,,,,,,,,,,,,,,,,,,,,,
1763973771.856915,38456.0,0.0,4396.666504,4407.436035,4513.333496,4535.128418,4406.794922,4518.333496,4542.563965,4391.922852,4575.0,4395.128418,4498.589844,4522.563965,4568.846191,4395.128418,4380.897461,4499.871582,4543.077148,4535.128418,4515.0,4383.205078,4404.487305,4566.666504,4524.487305,4507.05127,4400.641113,4580.897461,4398.974121,4558.461426,4512.563965,4402.307617,4538.717773,4511.282227,2904.0,1.0,22.0,1536.0,16657.0,,,,0.0,4.0,4.0,4.0,4.0,4.0,4.0,4.0,4.0,4.0,4.0,4.0,4.0,4.0,4.0,4.0,4.0,4.0,4.0,4.0,4.0,4.0,4.0,4.0,4.0,4.0,4.0,4.0,4.0,4.0,4.0,4.0,4.0,100.0,,,,,,,,,,,,,,,,,,,,,,,,,,,,,,,,,,,,,,,,,,,,,,,,,,,,,,,,,,,,,,,,,,,,,,,,,,,,,,,,,,,,,,,,,,,,,,,,,,,,,,,,,,,,,,,,,,,,,,,,,,,,,,,,,,,,,,,,,,,,,,,,,,,,,,,,,,,,,,,,,,,,,,,,,,,,,,,,,,,,,,,,,,,,,,,,,,,,,,,,,,,,,,
1763973771.860821,38457.0,0.0,4398.846191,4411.153809,4516.666504,4540.512695,4410.769043,4521.282227,4546.153809,4396.794922,4581.153809,4401.922852,4501.153809,4525.897461,4569.230957,4399.615234,4385.897461,4501.025879,4542.436035,4534.102539,4518.333496,4392.05127,4402.692383,4567.05127,4526.922852,4507.179688,4403.333496,4587.179688,4402.179688,4561.794922,4516.922852,4406.538574,4539.871582,4514.871582,2834.0,1.0,22.0,1536.0,16657.0,,,,0.0,4.0,4.0,4.0,4.0,4.0,4.0,4.0,4.0,4.0,4.0,4.0,4.0,4.0,4.0,4.0,4.0,4.0,4.0,4.0,4.0,4.0,4.0,4.0,4.0,4.0,4.0,4.0,4.0,4.0,4.0,4.0,4.0,100.0,,,,,,,,,,,,,,,,,,,,,,,,,,,,,,,,,,,58766.0,0.0,0.660009,0.288025,0.246094,0.648743,1.001587,-0.020999,-0.073739,26.333334,-26.833334,-23.833334,,,,,,,,,,,,,,,,,,,,,,,,,,,,,,,,,,,,,,,,,,,,,,,,,,,,,,,,,,,,,,,,,,,,,,,,,,,,,,,,,,,,,,,,,,,,,,,,,,,,,,,,,,,,,,,,,,,,,,,,,,,,,,,,,,,,,,,,,,,,,,,,,,,,,,,,,,,,,,,,
1763973771.864727,38458.0,0.0,4401.922852,4413.717773,4518.846191,4541.410156,4414.102539,4523.205078,4548.717773,4400.0,4583.205078,4408.717773,4502.05127,4528.846191,4572.820313,4403.333496,4391.025879,4509.871582,4543.205078,4538.333496,4520.769043,4399.743652,4399.743652,4566.922852,4529.487305,4504.487305,4402.436035,4588.205078,4402.563965,4563.717773,4520.256348,4407.692383,4539.615234,4514.615234,2810.0,1.0,22.0,1792.0,16665.0,,,,0.0,4.0,4.0,4.0,4.0,4.0,4.0,4.0,4.0,4.0,4.0,4.0,4.0,4.0,4.0,4.0,4.0,4.0,4.0,4.0,4.0,4.0,4.0,4.0,4.0,4.0,4.0,4.0,4.0,4.0,4.0,4.0,4.0,100.0,,,,,,,,,,,,,,,,,,,,,,,,,,,,,,,,,,,,,,,,,,,,,,,,,,,,,,,,,,,,,,,,,,,,,,,,,,,,,,,,,,,,,,,,,,,,,,,,,,,,,,,,,,,,,,,,,,,,,,,,,,,,,,,,,,,,,,,,,,,,,,,,,,,,,,,,,,,,,,,,,,,,,,,,,,,,,,,,,,,,,,,,,,,,,,,,,,,,,,,,,,,,,,
1763973771.868633,38459.0,0.0,4403.077148,4412.820313,4516.922852,4537.179688,4413.589844,4521.794922,4547.307617,4398.205078,4579.230957,4408.717773,4499.358887,4528.717773,4576.025879,4403.974121,4393.077148,4520.256348,4543.461426,4543.717773,4519.102539,4401.282227,4395.641113,4564.102539,4528.974121,4499.230957,4396.922852,4582.692383,4398.205078,4562.307617,4519.743652,4404.230957,4536.025879,4509.743652,3018.0,1.0,22.0,1792.0,16665.0,,,,0.0,4.0,4.0,4.0,4.0,4.0,4.0,4.0,4.0,4.0,4.0,4.0,4.0,4.0,4.0,4.0,4.0,4.0,4.0,4.0,4.0,4.0,4.0,4.0,4.0,4.0,4.0,4.0,4.0,4.0,4.0,4.0,4.0,100.0,,,,,,,,,,,,,,,,,,,,,,,,,,,,,,,,,,,,,,,,,,,,,,,,,,,,,,,,,,,,,,,,,,,,,,,,,,,,,,,,,,,,,,,,,,,,,,,,,,,,,,,,,,,,,,,,,,,,,,,,,,,,,,,,,,,,,,,,,,,,,,,,,,,,,,,,,,,,,,,,,,,,,,,,,,,,,,,,,,,,,,,,,,,,,,,,,,,,,,,,,,,,,,
1763973771.872539,38460.0,0.0,4400.256348,4407.94873,4510.256348,4529.230957,4407.692383,4516.666504,4541.794922,4391.025879,4570.512695,4398.333496,4493.333496,4524.743652,4575.128418,4400.384766,4390.512695,4524.358887,4541.025879,4544.358887,4513.205078,4394.102539,4390.384766,4559.230957,4524.487305,4492.692383,4388.333496,4573.205078,4389.743652,4557.307617,4514.102539,4397.05127,4528.461426,4501.922852,2972.0,1.0,22.0,2048.0,16672.0,,,,0.0,4.0,4.0,4.0,4.0,4.0,4.0,4.0,4.0,4.0,4.0,4.0,4.0,4.0,4.0,4.0,4.0,4.0,4.0,4.0,4.0,4.0,4.0,4.0,4.0,4.0,4.0,4.0,4.0,4.0,4.0,4.0,4.0,100.0,,,,,,,,,,,,,,,,,,,,,,,,,,,,,,,,,,,,,,,,,,,,,,,,,,,,,,,,,,,,,,,,,,,,,,,,,,,,,,,,,,,,,,,,,,,,,,,,,,,,,,,,,,,,,,,,,,,,,,,,,,,,,,,,,,,,,,,,,,,,,,,,,,,,,,,,,,,,,,,,,,,,,,,,,,,,,,,,,,,,,,,,,,,,,,,,,,,,,,,,,,,,,,
1763973771.876445,38461.0,0.0,4394.743652,4401.282227,4501.538574,4520.256348,4398.461426,4510.512695,4535.512695,4381.538574,4560.256348,4380.512695,4486.282227,4518.589844,4569.615234,4394.102539,4384.743652,4518.461426,4536.410156,4538.461426,4506.666504,4381.538574,4385.897461,4555.384766,4517.94873,4487.563965,4380.769043,4564.358887,4381.153809,4550.512695,4505.512695,4389.230957,4519.230957,4494.358887,2820.0,1.0,22.0,2048.0,16672.0,,,,0.0,4.0,4.0,4.0,4.0,4.0,4.0,4.0,4.0,4.0,4.0,4.0,4.0,4.0,4.0,4.0,4.0,4.0,4.0,4.0,4.0,4.0,4.0,4.0,4.0,4.0,4.0,4.0,4.0,4.0,4.0,4.0,4.0,100.0,,,,,,,,,,,,,,,,,,,,,,,,,,,,,,,,,,,58767.0,0.0,0.659981,0.288208,0.246277,0.648621,1.008912,-0.002442,-0.061531,30.0,-26.0,-23.833334,,,,,,,,,,,,,,,,,,,,,,,,,,,,,,,,,,,,,,,,,,,,,,,,,,,,,,,,,,,,,,,,,,,,,,,,,,,,,,,,,,,,,,,,,,,,,,,,,,,,,,,,,,,,,,,,,,,,,,,,,,,,,,,,,,,,,,,,,,,,,,,,,,,,,,,,,,,,,,,,
1763973771.880351,38462.0,0.0,4390.641113,4396.538574,4495.512695,4514.358887,4390.641113,4507.563965,4532.692383,4375.769043,4552.820313,4365.384766,4481.922852,4514.487305,4563.717773,4389.487305,4380.256348,4506.922852,4532.307617,4530.641113,4505.384766,4371.410156,4385.256348,4556.794922,4513.974121,4486.794922,4378.846191,4561.282227,4377.692383,4546.153809,4498.717773,4385.641113,4513.461426,4490.512695,3006.0,1.0,22.0,2304.0,16680.0,,,,0.0,4.0,4.0,4.0,4.0,4.0,4.0,4.0,4.0,4.0,4.0,4.0,4.0,4.0,4.0,4.0,4.0,4.0,4.0,4.0,4.0,4.0,4.0,4.0,4.0,4.0,4.0,4.0,4.0,4.0,4.0,4.0,4.0,100.0,,,,,,,,,,,,,,,,,,,,,,,,,,,,,,,,,,,,,,,,,,,,,,,,,,,,,,,,,,,,,,,,,,,,,,,,,,,,,,,,,,,,,,,,,,,,,,,,,,,,,,,,,,,,,,,,,,,,,,,,,,,,,,,,,,,,,,,,,,,,,,,,,,,,,,,,,,,,,,,,,,,,,,,,,,,,,,,,,,,,,,,,,,,,,,,,,,,,,,,,,,,,,,
1763973771.884257,38463.0,0.0,4392.307617,4397.179688,4496.282227,4514.358887,4388.974121,4510.897461,4536.794922,4378.461426,4552.179688,4363.077148,4483.205078,4516.794922,4563.461426,4390.897461,4382.05127,4500.256348,4533.846191,4529.102539,4513.205078,4371.282227,4391.410156,4566.025879,4517.179688,4493.077148,4385.384766,4566.538574,4382.692383,4548.974121,4499.230957,4389.358887,4515.384766,4492.692383,2916.0,1.0,22.0,2304.0,16680.0,,,,0.0,4.0,4.0,4.0,4.0,4.0,4.0,4.0,4.0,4.0,4.0,4.0,4.0,4.0,4.0,4.0,4.0,4.0,4.0,4.0,4.0,4.0,4.0,4.0,4.0,4.0,4.0,4.0,4.0,4.0,4.0,4.0,4.0,100.0,,,,,,,,,,,,,,,,,,,,,,,,,,,,,,,,,,,,,,,,,,,,,,,,,,,,,,,,,,,,,,,,,,,,,,,,,,,,,,,,,,,,,,,,,,,,,,,,,,,,,,,,,,,,,,,,,,,,,,,,,,,,,,,,,,,,,,,,,,,,,,,,,,,,,,,,,,,,,,,,,,,,,,,,,,,,,,,,,,,,,,,,,,,,,,,,,,,,,,,,,,,,,,
1763973771.888163,38464.0,0.0,4400.512695,4403.461426,4504.102539,4520.256348,4395.128418,4519.871582,4547.179688,4389.871582,4558.717773,4376.282227,4490.0,4526.922852,4571.922852,4399.358887,4391.025879,4507.179688,4543.205078,4538.589844,4528.846191,4382.179688,4403.974121,4582.05127,4528.205078,4505.897461,4398.717773,4578.589844,4395.384766,4559.743652,4507.94873,4399.487305,4525.0,4500.512695,2817.0,1.0,22.0,2560.0,16688.0,,,,0.0,4.0,4.0,4.0,4.0,4.0,4.0,4.0,4.0,4.0,4.0,4.0,4.0,4.0,4.0,4.0,4.0,4.0,4.0,4.0,4.0,4.0,4.0,4.0,4.0,4.0,4.0,4.0,4.0,4.0,4.0,4.0,4.0,100.0,,,,,,,,,,,,,,,,,,,,,,,,,,,,,,,,,,,,,,,,,,,,,,,,,,,,,,,,,,,,,,,,,,,,,,,,,,,,,,,,,,,,,,,,,,,,,,,,,,,,,,,,,,,,,,,,,,,,,,,,,,,,,,,,,,,,,,,,,,,,,,,,,,,,,,,,,,,,,,,,,,,,,,,,,,,,,,,,,,,,,,,,,,,,,,,,,,,,,,,,,,,,,,
1763973771.892069,38465.0,0.0,4410.641113,4411.666504,4514.358887,4528.974121,4405.897461,4530.256348,4558.717773,4404.230957,4568.717773,4397.820313,4498.205078,4540.0,4585.384766,4410.897461,4401.282227,4526.410156,4557.436035,4554.871582,4544.230957,4397.692383,4417.692383,4598.589844,4541.282227,4520.0,4412.307617,4592.05127,4409.358887,4573.717773,4520.256348,4410.384766,4536.666504,4509.615234,2951.0,1.0,22.0,2560.0,16688.0,,,,0.0,4.0,4.0,4.0,4.0,4.0,4.0,4.0,4.0,4.0,4.0,4.0,4.0,4.0,4.0,4.0,4.0,4.0,4.0,4.0,4.0,4.0,4.0,4.0,4.0,4.0,4.0,4.0,4.0,4.0,4.0,4.0,4.0,100.0,,,,,,,,,,,,,,,,,,,,,,,,,,,,,,,,,,,58768.0,0.0,0.659821,0.288452,0.246582,0.64856,1.010377,-0.006348,-0.055183,27.666666,-26.666666,-24.166666,,,,,,,,,,,,,,,,,,,,,,,,,,,,,,,,,,,,,,,,,,,,,,,,,,,,,,,,,,,,,,,,,,,,,,,,,,,,,,,,,,,,,,,,,,,,,,,,,,,,,,,,,,,,,,,,,,,,,,,,,,,,,,,,,,,,,,,,,,,,,,,,,,,,,,,,,,,,,,,,
1763973771.895975,38466.0,0.0,4416.410156,4415.641113,4520.384766,4535.0,4414.871582,4535.641113,4564.487305,4412.94873,4576.025879,4415.256348,4501.538574,4548.333496,4594.615234,4417.563965,4404.615234,4545.128418,4567.94873,4566.153809,4549.487305,4407.820313,4424.615234,4607.05127,4548.333496,4527.436035,4418.589844,4599.487305,4416.666504,4582.436035,4528.717773,4415.256348,4543.077148,4514.102539,2266.0,1.0,22.0,2560.0,16696.0,,,,0.0,4.0,4.0,4.0,4.0,4.0,4.0,4.0,4.0,4.0,4.0,4.0,4.0,4.0,4.0,4.0,4.0,4.0,4.0,4.0,4.0,4.0,4.0,4.0,4.0,4.0,4.0,4.0,4.0,4.0,4.0,4.0,4.0,100.0,,,,,,,,,,,,,,,,,,,,,,,,,,,,,,,,,,,,,,,,,,,,,,,,,,,,,,,,,,,,,,,,,,,,,,,,,,,,,,,,,,,,,,,,,,,,,,,,,,,,,,,,,,,,,,,,,,,,,,,,,,,,,,,,,,,,,,,,,,,,,,,,,,,,,,,,,,,,,,,,,,,,,,,,,,,,,,,,,,,,,,,,,,,,,,,,,,,,,,,,,,,,,,
1763973771.899881,38467.0,0.0,4414.102539,4412.307617,4517.820313,4533.846191,4416.922852,4532.692383,4560.128418,4410.512695,4576.153809,4419.230957,4496.153809,4546.025879,4591.922852,4413.974121,4397.307617,4548.205078,4567.692383,4562.692383,4539.871582,4406.410156,4420.641113,4602.05127,4544.615234,4523.077148,4414.487305,4596.794922,4412.94873,4580.897461,4528.461426,4411.410156,4541.025879,4510.384766,2936.0,1.0,22.0,2560.0,16696.0,,,,0.0,4.0,4.0,4.0,4.0,4.0,4.0,4.0,4.0,4.0,4.0,4.0,4.0,4.0,4.0,4.0,4.0,4.0,4.0,4.0,4.0,4.0,4.0,4.0,4.0,4.0,4.0,4.0,4.0,4.0,4.0,4.0,4.0,100.0,,,,,,,,,,,,,,,,,,,,,,,,,,,,,,,,,,,,,,,,,,,,,,,,,,,,,,,,,,,,,,,,,,,,,,,,,,,,,,,,,,,,,,,,,,,,,,,,,,,,,,,,,,,,,,,,,,,,,,,,,,,,,,,,,,,,,,,,,,,,,,,,,,,,,,,,,,,,,,,,,,,,,,,,,,,,,,,,,,,,,,,,,,,,,,,,,,,,,,,,,,,,,,
1763973771.903787,38468.0,0.0,4406.153809,4403.461426,4508.717773,4525.897461,4411.410156,4523.717773,4548.333496,4399.102539,4569.487305,4409.743652,4484.358887,4534.230957,4577.692383,4401.410156,4383.846191,4530.0,4556.410156,4545.384766,4520.897461,4395.384766,4408.589844,4586.922852,4532.94873,4509.871582,4404.102539,4586.410156,4401.282227,4571.025879,4521.153809,4402.05127,4533.461426,4500.897461,2850.0,1.0,22.0,2560.0,16704.0,,,,0.0,4.0,4.0,4.0,4.0,4.0,4.0,4.0,4.0,4.0,4.0,4.0,4.0,4.0,4.0,4.0,4.0,4.0,4.0,4.0,4.0,4.0,4.0,4.0,4.0,4.0,4.0,4.0,4.0,4.0,4.0,4.0,4.0,100.0,,,,,,,,,,,,,,,,,,,,,,,,,,,,,,,,,,,,,,,,,,,,,,,,,,,,,,,,,,,,,,,,,,,,,,,,,,,,,,,,,,,,,,,,,,,,,,,,,,,,,,,,,,,,,,,,,,,,,,,,,,,,,,,,,,,,,,,,,,,,,,,,,,,,,,,,,,,,,,,,,,,,,,,,,,,,,,,,,,,,,,,,,,,,,,,,,,,,,,,,,,,,,,
1763973771.907693,38469.0,0.0,4399.102539,4395.512695,4500.128418,4517.05127,4402.692383,4515.256348,4537.179688,4386.922852,4561.025879,4394.230957,4473.333496,4520.512695,4561.025879,4387.179688,4373.333496,4500.512695,4541.666504,4526.025879,4504.230957,4383.205078,4396.922852,4571.282227,4521.794922,4496.666504,4395.384766,4576.025879,4390.769043,4559.743652,4512.820313,4394.102539,4526.282227,4492.307617,2396.0,1.0,22.0,2560.0,16704.0,,,,0.0,4.0,4.0,4.0,4.0,4.0,4.0,4.0,4.0,4.0,4.0,4.0,4.0,4.0,4.0,4.0,4.0,4.0,4.0,4.0,4.0,4.0,4.0,4.0,4.0,4.0,4.0,4.0,4.0,4.0,4.0,4.0,4.0,100.0,,,,,,,,,,,,,,,,,,,,,,,,,,,,,,,,,,,58769.0,0.0,0.659821,0.288452,0.246582,0.64856,0.995727,-0.003418,-0.058601,28.0,-25.166666,-24.666666,,,,,,,,,,,,,,,,,,,,,,,,,,,,,,,,,,,,,,,,,,,,,,,,,,,,,,,,,,,,,,,,,,,,,,,,,,,,,,,,,,,,,,,,,,,,,,,,,,,,,,,,,,,,,,,,,,,,,,,,,,,,,,,,,,,,,,,,,,,,,,,,,,,,,,,,,,,,,,,,
1763973771.911599,38470.0,0.0,4398.077148,4394.230957,4497.820313,4513.461426,4397.307617,4513.205078,4534.487305,4382.307617,4557.05127,4381.025879,4469.743652,4514.102539,4552.692383,4379.358887,4371.666504,4478.077148,4533.461426,4517.692383,4498.461426,4378.333496,4393.077148,4564.230957,4517.820313,4491.794922,4393.974121,4572.820313,4389.102539,4553.846191,4508.846191,4392.563965,4524.487305,4491.410156,2935.0,1.0,22.0,1792.0,16712.0,,,,0.0,4.0,4.0,4.0,4.0,4.0,4.0,4.0,4.0,4.0,4.0,4.0,4.0,4.0,4.0,4.0,4.0,4.0,4.0,4.0,4.0,4.0,4.0,4.0,4.0,4.0,4.0,4.0,4.0,4.0,4.0,4.0,4.0,100.0,,,,,,,,,,,,,,,,,,,,,,,,,,,,,,,,,,,,,,,,,,,,,,,,,,,,,,,,,,,,,,,,,,,,,,,,,,,,,,,,,,,,,,,,,,,,,,,,,,,,,,,,,,,,,,,,,,,,,,,,,,,,,,,,,,,,,,,,,,,,,,,,,,,,,,,,,,,,,,,,,,,,,,,,,,,,,,,,,,,,,,,,,,,,,,,,,,,,,,,,,,,,,,
1763973771.915505,38471.0,0.0,4404.230957,4401.282227,4503.461426,4517.94873,4398.974121,4518.846191,4541.666504,4388.333496,4560.256348,4375.384766,4475.256348,4518.974121,4557.692383,4381.538574,4378.589844,4477.05127,4537.05127,4525.0,4504.358887,4383.589844,4398.589844,4568.461426,4522.820313,4497.820313,4400.641113,4578.589844,4397.692383,4556.025879,4511.538574,4398.461426,4528.846191,4500.0,2948.0,1.0,22.0,1792.0,16712.0,,,,0.0,4.0,4.0,4.0,4.0,4.0,4.0,4.0,4.0,4.0,4.0,4.0,4.0,4.0,4.0,4.0,4.0,4.0,4.0,4.0,4.0,4.0,4.0,4.0,4.0,4.0,4.0,4.0,4.0,4.0,4.0,4.0,4.0,100.0,,,,,,,,,,,,,,,,,,,,,,,,,,,,,,,,,,,,,,,,,,,,,,,,,,,,,,,,,,,,,,,,,,,,,,,,,,,,,,,,,,,,,,,,,,,,,,,,,,,,,,,,,,,,,,,,,,,,,,,,,,,,,,,,,,,,,,,,,,,,,,,,,,,,,,,,,,,,,,,,,,,,,,,,,,,,,,,,,,,,,,,,,,,,,,,,,,,,,,,,,,,,,,
1763973771.919411,38472.0,0.0,4414.102539,4413.205078,4513.333496,4527.692383,4407.307617,4529.102539,4553.974121,4401.153809,4570.0,4378.717773,4485.769043,4532.307617,4572.436035,4391.538574,4389.102539,4498.077148,4549.871582,4542.436035,4516.666504,4394.487305,4409.615234,4580.384766,4533.461426,4510.641113,4411.538574,4589.487305,4410.897461,4564.615234,4519.102539,4408.589844,4537.05127,4514.615234,2664.0,1.0,22.0,1536.0,16719.0,,,,0.0,4.0,4.0,4.0,4.0,4.0,4.0,4.0,4.0,4.0,4.0,4.0,4.0,4.0,4.0,4.0,4.0,4.0,4.0,4.0,4.0,4.0,4.0,4.0,4.0,4.0,4.0,4.0,4.0,4.0,4.0,4.0,4.0,100.0,,,,,,,,,,,,,,,,,,,,,,,,,,,,,,,,,,,,,,,,,,,,,,,,,,,,,,,,,,,,,,,,,,,,,,,,,,,,,,,,,,,,,,,,,,,,,,,,,,,,,,,,,,,,,,,,,,,,,,,,,,,,,,,,,,,,,,,,,,,,,,,,,,,,,,,,,,,,,,,,,,,,,,,,,,,,,,,,,,,,,,,,,,,,,,,,,,,,,,,,,,,,,,
1763973771.923317,38473.0,0.0,4422.436035,4423.461426,4521.666504,4537.307617,4417.820313,4538.333496,4563.974121,4413.717773,4581.922852,4389.743652,4495.384766,4546.153809,4587.820313,4403.589844,4397.692383,4527.692383,4563.974121,4558.846191,4529.487305,4403.717773,4419.487305,4592.692383,4543.974121,4523.077148,4421.282227,4599.102539,4421.153809,4575.0,4527.179688,4418.205078,4544.871582,4527.692383,2832.0,1.0,22.0,1536.0,16719.0,,,,0.0,4.0,4.0,4.0,4.0,4.0,4.0,4.0,4.0,4.0,4.0,4.0,4.0,4.0,4.0,4.0,4.0,4.0,4.0,4.0,4.0,4.0,4.0,4.0,4.0,4.0,4.0,4.0,4.0,4.0,4.0,4.0,4.0,100.0,,,,,,,,,,,,,,,,,,,,,,,,,,,,,,,,,,,58770.0,0.0,0.659882,0.28833,0.246399,0.648621,0.996215,-0.014162,-0.058601,28.333334,-24.833334,-25.166666,,,,,,,,,,,,,,,,,,,,,,,,,,,,,,,,,,,,,,,,,,,,,,,,,,,,,,,,,,,,,,,,,,,,,,,,,,,,,,,,,,,,,,,,,,,,,,,,,,,,,,,,,,,,,,,,,,,,,,,,,,,,,,,,,,,,,,,,,,,,,,,,,,,,,,,,,,,,,,,,
1763973771.927223,38474.0,0.0,4424.230957,4426.538574,4523.077148,4541.410156,4424.487305,4541.666504,4566.153809,4419.102539,4590.384766,4403.846191,4498.846191,4552.179688,4595.641113,4410.641113,4400.512695,4547.05127,4571.282227,4564.615234,4538.205078,4405.512695,4423.461426,4599.358887,4548.717773,4528.717773,4424.743652,4602.05127,4423.205078,4580.897461,4530.897461,4422.307617,4548.205078,4531.794922,2660.0,1.0,22.0,256.0,16727.0,,,,0.0,4.0,4.0,4.0,4.0,4.0,4.0,4.0,4.0,4.0,4.0,4.0,4.0,4.0,4.0,4.0,4.0,4.0,4.0,4.0,4.0,4.0,4.0,4.0,4.0,4.0,4.0,4.0,4.0,4.0,4.0,4.0,4.0,100.0,,,,,,,,,,,,,,,,,,,,,,,,,,,,,,,,,,,,,,,,,,,,,,,,,,,,,,,,,,,,,,,,,,,,,,,,,,,,,,,,,,,,,,,,,,,,,,,,,,,,,,,,,,,,,,,,,,,,,,,,,,,,,,,,,,,,,,,,,,,,,,,,,,,,,,,,,,,,,,,,,,,,,,,,,,,,,,,,,,,,,,,,,,,,,,,,,,,,,,,,,,,,,,
1763973771.931129,38475.0,0.0,4417.563965,4420.769043,4515.769043,4537.563965,4423.589844,4537.179688,4559.487305,4415.0,4591.025879,4413.846191,4494.487305,4547.307617,4592.692383,4408.205078,4397.05127,4544.487305,4568.717773,4557.820313,4539.358887,4399.487305,4420.128418,4597.179688,4545.256348,4524.615234,4420.641113,4596.410156,4416.025879,4578.717773,4527.307617,4418.461426,4545.128418,4524.230957,2983.0,1.0,22.0,256.0,16727.0,,,,0.0,4.0,4.0,4.0,4.0,4.0,4.0,4.0,4.0,4.0,4.0,4.0,4.0,4.0,4.0,4.0,4.0,4.0,4.0,4.0,4.0,4.0,4.0,4.0,4.0,4.0,4.0,4.0,4.0,4.0,4.0,4.0,4.0,100.0,,,,,,,,,,,,,,,,,,,,,,,,,,,,,,,,,,,,,,,,,,,,,,,,,,,,,,,,,,,,,,,,,,,,,,,,,,,,,,,,,,,,,,,,,,,,,,,,,,,,,,,,,,,,,,,,,,,,,,,,,,,,,,,,,,,,,,,,,,,,,,,,,,,,,,,,,,,,,,,,,,,,,,,,,,,,,,,,,,,,,,,,,,,,,,,,,,,,,,,,,,,,,,
1763973771.935035,38476.0,0.0,4406.025879,4410.384766,4503.589844,4528.974121,4416.794922,4528.333496,4548.461426,4404.871582,4583.974121,4414.230957,4485.897461,4535.512695,4582.94873,4398.077148,4390.641113,4522.820313,4558.974121,4543.461426,4533.461426,4389.871582,4412.692383,4588.333496,4536.153809,4513.461426,4411.538574,4585.641113,4404.102539,4570.256348,4518.333496,4409.358887,4537.307617,4510.256348,2942.0,1.0,22.0,256.0,16735.0,,,,0.0,4.0,4.0,4.0,4.0,4.0,4.0,4.0,4.0,4.0,4.0,4.0,4.0,4.0,4.0,4.0,4.0,4.0,4.0,4.0,4.0,4.0,4.0,4.0,4.0,4.0,4.0,4.0,4.0,4.0,4.0,4.0,4.0,100.0,,,,,,,,,,,,,,,,,,,,,,,,,,,,,,,,,,,,,,,,,,,,,,,,,,,,,,,,,,,,,,,,,,,,,,,,,,,,,,,,,,,,,,,,,,,,,,,,,,,,,,,,,,,,,,,,,,,,,,,,,,,,,,,,,,,,,,,,,,,,,,,,,,,,,,,,,,,,,,,,,,,,,,,,,,,,,,,,,,,,,,,,,,,,,,,,,,,,,,,,,,,,,,
1763973771.938941,38477.0,0.0,4397.436035,4403.589844,4494.358887,4523.077148,4410.512695,4521.410156,4540.641113,4396.922852,4575.256348,4405.512695,4479.487305,4525.897461,4574.487305,4388.077148,4386.794922,4496.922852,4550.0,4531.025879,4524.871582,4383.333496,4406.538574,4578.974121,4528.205078,4502.563965,4403.846191,4577.179688,4395.641113,4562.307617,4510.384766,4401.922852,4530.512695,4500.769043,2798.0,1.0,22.0,256.0,16735.0,,,,0.0,4.0,4.0,4.0,4.0,4.0,4.0,4.0,4.0,4.0,4.0,4.0,4.0,4.0,4.0,4.0,4.0,4.0,4.0,4.0,4.0,4.0,4.0,4.0,4.0,4.0,4.0,4.0,4.0,4.0,4.0,4.0,4.0,100.0,,,,,,,,,,,,,,,,,,,,,,,,,,,,,,,,,,,58771.0,0.0,0.659898,0.288208,0.246338,0.648682,0.991332,-0.013674,-0.063484,28.333334,-26.333334,-26.0,,,,,,,,,,,,,,,,,,,,,,,,,,,,,,,,,,,,,,,,,,,,,,,,,,,,,,,,,,,,,,,,,,,,,,,,,,,,,,,,,,,,,,,,,,,,,,,,,,,,,,,,,,,,,,,,,,,,,,,,,,,,,,,,,,,,,,,,,,,,,,,,,,,,,,,,,,,,,,,,
1763973771.942947,38478.0,0.0,4398.205078,4406.666504,4494.358887,4525.897461,4410.897461,4521.538574,4541.153809,4397.692383,4572.307617,4394.487305,4480.0,4525.897461,4574.743652,4386.410156,4389.743652,4483.461426,4548.974121,4527.307617,4520.256348,4384.358887,4405.384766,4575.641113,4527.692383,4499.615234,4403.205078,4577.436035,4396.794922,4561.794922,4510.0,4402.94873,4530.897461,4504.358887,2746.0,1.0,22.0,512.0,16743.0,,,,0.0,4.0,4.0,4.0,4.0,4.0,4.0,4.0,4.0,4.0,4.0,4.0,4.0,4.0,4.0,4.0,4.0,4.0,4.0,4.0,4.0,4.0,4.0,4.0,4.0,4.0,4.0,4.0,4.0,4.0,4.0,4.0,4.0,100.0,,,,,,,,,,,,,,,,,,,,,,,,,,,,,,,,,,,,,,,,,,,,,,,3.753098,1.020311,0.546032,0.769051,1.067105,3.579338,1.45399,1.635738,1.074851,1.147283,3.732206,1.277817,0.592288,1.119928,1.226946,1.454364,0.907488,0.83368,0.793512,1.141691,1.675479,0.614604,0.511598,0.458452,0.83699,1.649966,0.436374,0.433357,0.470607,0.710182,1.994657,0.839377,0.804586,0.842176,1.126416,1.829636,0.6025,0.689804,0.854455,1.240497,1.814223,0.339206,0.678133,0.679576,1.038172,0.658186,0.984583,1.650899,2.650393,1.906011,1.775489,0.243147,0.651401,0.452152,1.118255,3.678829,0.859897,0.842191,0.734486,1.162707,3.02041,1.721198,2.037809,0.744603,1.345973,0.523685,0.732888,0.746594,0.51231,1.43235,1.518529,1.408487,0.790561,0.40571,1.231967,1.376914,1.405154,1.386461,1.348084,3.282448,3.588051,2.622108,1.314348,0.670501,1.032484,1.29994,1.526655,1.071777,0.551294,1.755128,1.41835,1.662507,0.701236,0.657778,1.941703,1.39818,2.059952,0.506143,0.568056,1.215064,2.60818,2.364761,0.451186,0.609172,1.177313,3.493071,5.433406,1.242679,0.671191,1.406205,4.840428,2.945938,0.939224,0.769661,1.221742,3.113878,2.725178,0.756797,0.760822,1.308233,4.041532,1.473892,0.979859,0.749601,1.160274,2.629039,0.784712,0.656362,0.94268,1.073168,5.168604,1.054343,1.253648,0.874129,1.203358,4.631407,1.95258,0.735196,0.723748,0.98533,5.473107,1.586554,0.857801,0.844764,1.010858,4.489486,0.936045,0.983098,0.729885,1.097899,4.640089,0.763357,1.215906,1.033965,1.061696,4.283351,0.893271,0.851021,1.004865,1.068274
1763973771.946853,38479.0,0.0,4408.077148,4419.743652,4503.846191,4537.05127,4418.717773,4528.461426,4549.487305,4407.307617,4577.563965,4388.974121,4487.05127,4535.897461,4584.615234,4394.615234,4398.205078,4489.358887,4557.179688,4533.461426,4522.179688,4392.179688,4408.333496,4580.384766,4535.641113,4506.410156,4410.384766,4586.282227,4408.077148,4570.256348,4518.846191,4412.94873,4540.384766,4520.0,2808.0,1.0,22.0,512.0,16743.0,,,,0.0,4.0,4.0,4.0,4.0,4.0,4.0,4.0,4.0,4.0,4.0,4.0,4.0,4.0,4.0,4.0,4.0,4.0,4.0,4.0,4.0,4.0,4.0,4.0,4.0,4.0,4.0,4.0,4.0,4.0,4.0,4.0,4.0,100.0,,,,,,,,,,,,,,,,,,,,,,,,,,,,,,,,,,,,,,,,,,,,,,,,,,,,,,,,,,,,,,,,,,,,,,,,,,,,,,,,,,,,,,,,,,,,,,,,,,,,,,,,,,,,,,,,,,,,,,,,,,,,,,,,,,,,,,,,,,,,,,,,,,,,,,,,,,,,,,,,,,,,,,,,,,,,,,,,,,,,,,,,,,,,,,,,,,,,,,,,,,,,,,
1763973771.950759,38480.0,0.0,4420.641113,4435.769043,4516.410156,4549.102539,4428.461426,4537.563965,4559.615234,4418.846191,4586.666504,4392.820313,4495.769043,4549.358887,4598.589844,4406.666504,4406.153809,4508.461426,4569.102539,4544.871582,4528.846191,4402.179688,4412.179688,4589.615234,4547.692383,4518.077148,4420.256348,4597.563965,4422.436035,4582.179688,4532.563965,4425.897461,4554.358887,4537.820313,2920.0,1.0,22.0,768.0,16751.0,,,,0.0,4.0,4.0,4.0,4.0,4.0,4.0,4.0,4.0,4.0,4.0,4.0,4.0,4.0,4.0,4.0,4.0,4.0,4.0,4.0,4.0,4.0,4.0,4.0,4.0,4.0,4.0,4.0,4.0,4.0,4.0,4.0,4.0,100.0,,,,,,,,,,,,,,,,,,,,,,,,,,,,,,,,,,,,,,,,,,,,,,,,,,,,,,,,,,,,,,,,,,,,,,,,,,,,,,,,,,,,,,,,,,,,,,,,,,,,,,,,,,,,,,,,,,,,,,,,,,,,,,,,,,,,,,,,,,,,,,,,,,,,,,,,,,,,,,,,,,,,,,,,,,,,,,,,,,,,,,,,,,,,,,,,,,,,,,,,,,,,,,
1763973771.954665,38481.0,0.0,4428.333496,4446.153809,4524.615234,4554.102539,4432.94873,4542.820313,4565.128418,4424.358887,4592.820313,4402.563965,4500.512695,4557.179688,4608.461426,4414.487305,4408.333496,4526.922852,4577.436035,4554.487305,4535.512695,4408.589844,4413.461426,4597.436035,4557.05127,4526.794922,4425.897461,4603.589844,4430.769043,4589.871582,4543.333496,4434.230957,4564.615234,4546.153809,3039.0,1.0,22.0,768.0,16751.0,,,,0.0,4.0,4.0,4.0,4.0,4.0,4.0,4.0,4.0,4.0,4.0,4.0,4.0,4.0,4.0,4.0,4.0,4.0,4.0,4.0,4.0,4.0,4.0,4.0,4.0,4.0,4.0,4.0,4.0,4.0,4.0,4.0,4.0,100.0,,,,,,,,,,,,,,,,,,,,,,,,,,,,,,,,,,,58772.0,0.0,0.659859,0.28833,0.24646,0.648621,0.991332,-0.013674,-0.063484,27.5,-26.0,-23.0,,,,,,,,,,,,,,,,,,,,,,,,,,,,,,,,,,,,,,,,,,,,,,,,,,,,,,,,,,,,,,,,,,,,,,,,,,,,,,,,,,,,,,,,,,,,,,,,,,,,,,,,,,,,,,,,,,,,,,,,,,,,,,,,,,,,,,,,,,,,,,,,,,,,,,,,,,,,,,,,
1763973771.958571,38482.0,0.0,4426.538574,4445.641113,4524.615234,4549.358887,4428.717773,4541.410156,4562.820313,4420.256348,4591.410156,4410.384766,4498.333496,4554.615234,4608.461426,4413.077148,4403.461426,4533.205078,4577.94873,4556.538574,4537.307617,4407.436035,4410.897461,4598.846191,4558.205078,4527.307617,4423.333496,4600.512695,4427.820313,4588.333496,4545.0,4433.333496,4564.615234,4540.641113,2824.0,1.0,22.0,1024.0,16758.0,,,,0.0,4.0,4.0,4.0,4.0,4.0,4.0,4.0,4.0,4.0,4.0,4.0,4.0,4.0,4.0,4.0,4.0,4.0,4.0,4.0,4.0,4.0,4.0,4.0,4.0,4.0,4.0,4.0,4.0,4.0,4.0,4.0,4.0,100.0,,,,,,,,,,,,,,,,,,,,,,,,,,,,,,,,,,,,,,,,,,,,,,,,,,,,,,,,,,,,,,,,,,,,,,,,,,,,,,,,,,,,,,,,,,,,,,,,,,,,,,,,,,,,,,,,,,,,,,,,,,,,,,,,,,,,,,,,,,,,,,,,,,,,,,,,,,,,,,,,,,,,,,,,,,,,,,,,,,,,,,,,,,,,,,,,,,,,,,,,,,,,,,
1763973771.962477,38483.0,0.0,4416.153809,4435.128418,4517.436035,4537.94873,4418.205078,4534.230957,4553.974121,4409.743652,4582.94873,4409.615234,4490.384766,4542.820313,4598.846191,4403.205078,4393.717773,4524.743652,4570.769043,4549.615234,4531.282227,4397.820313,4404.615234,4593.077148,4549.743652,4519.487305,4413.589844,4589.102539,4415.256348,4578.205078,4536.666504,4423.461426,4553.333496,4525.769043,3008.0,1.0,22.0,1024.0,16758.0,,,,0.0,4.0,4.0,4.0,4.0,4.0,4.0,4.0,4.0,4.0,4.0,4.0,4.0,4.0,4.0,4.0,4.0,4.0,4.0,4.0,4.0,4.0,4.0,4.0,4.0,4.0,4.0,4.0,4.0,4.0,4.0,4.0,4.0,100.0,,,,,,,,,,,,,,,,,,,,,,,,,,,,,,,,,,,,,,,,,,,,,,,,,,,,,,,,,,,,,,,,,,,,,,,,,,,,,,,,,,,,,,,,,,,,,,,,,,,,,,,,,,,,,,,,,,,,,,,,,,,,,,,,,,,,,,,,,,,,,,,,,,,,,,,,,,,,,,,,,,,,,,,,,,,,,,,,,,,,,,,,,,,,,,,,,,,,,,,,,,,,,,
1763973771.966383,38484.0,0.0,4401.794922,4420.641113,4507.94873,4525.769043,4407.179688,4525.0,4542.94873,4398.846191,4572.05127,4400.384766,4481.153809,4528.077148,4584.743652,4390.512695,4383.205078,4508.333496,4559.487305,4536.794922,4518.461426,4383.333496,4395.769043,4582.436035,4535.641113,4506.922852,4401.282227,4574.871582,4399.487305,4564.102539,4522.307617,4409.871582,4536.025879,4510.256348,2983.0,1.0,22.0,1280.0,16766.0,,,,0.0,4.0,4.0,4.0,4.0,4.0,4.0,4.0,4.0,4.0,4.0,4.0,4.0,4.0,4.0,4.0,4.0,4.0,4.0,4.0,4.0,4.0,4.0,4.0,4.0,4.0,4.0,4.0,4.0,4.0,4.0,4.0,4.0,100.0,,,,,,,,,,,,,,,,,,,,,,,,,,,,,,,,,,,,,,,,,,,,,,,,,,,,,,,,,,,,,,,,,,,,,,,,,,,,,,,,,,,,,,,,,,,,,,,,,,,,,,,,,,,,,,,,,,,,,,,,,,,,,,,,,,,,,,,,,,,,,,,,,,,,,,,,,,,,,,,,,,,,,,,,,,,,,,,,,,,,,,,,,,,,,,,,,,,,,,,,,,,,,,
1763973771.970289,38485.0,0.0,4390.384766,4409.871582,4501.538574,4518.205078,4400.641113,4517.692383,4534.487305,4393.077148,4564.871582,4389.871582,4475.384766,4517.436035,4573.205078,4382.179688,4375.641113,4495.0,4548.974121,4524.487305,4504.358887,4370.256348,4386.282227,4571.666504,4522.436035,4494.743652,4391.666504,4564.230957,4387.94873,4552.692383,4508.846191,4400.128418,4521.538574,4501.410156,2842.0,1.0,22.0,1280.0,16766.0,,,,0.0,4.0,4.0,4.0,4.0,4.0,4.0,4.0,4.0,4.0,4.0,4.0,4.0,4.0,4.0,4.0,4.0,4.0,4.0,4.0,4.0,4.0,4.0,4.0,4.0,4.0,4.0,4.0,4.0,4.0,4.0,4.0,4.0,100.0,,,,,,,,,,,,,,,,,,,,,,,,,,,,,,,,,,,58773.0,0.0,0.659897,0.28833,0.246521,0.64856,0.99475,-0.008302,-0.049322,26.166666,-25.5,-25.0,,,,,,,,,,,,,,,,,,,,,,,,,,,,,,,,,,,,,,,,,,,,,,,,,,,,,,,,,,,,,,,,,,,,,,,,,,,,,,,,,,,,,,,,,,,,,,,,,,,,,,,,,,,,,,,,,,,,,,,,,,,,,,,,,,,,,,,,,,,,,,,,,,,,,,,,,,,,,,,,
1763973771.974195,38486.0,0.0,4386.153809,4406.922852,4500.897461,4516.666504,4400.256348,4514.615234,4531.282227,4393.589844,4564.487305,4386.410156,4475.512695,4515.128418,4569.487305,4381.538574,4373.589844,4492.179688,4543.461426,4518.205078,4496.282227,4363.846191,4379.358887,4565.128418,4516.153809,4487.307617,4387.820313,4561.025879,4384.871582,4548.205078,4501.538574,4398.461426,4516.666504,4500.384766,2973.0,1.0,22.0,1536.0,16774.0,,,,0.0,4.0,4.0,4.0,4.0,4.0,4.0,4.0,4.0,4.0,4.0,4.0,4.0,4.0,4.0,4.0,4.0,4.0,4.0,4.0,4.0,4.0,4.0,4.0,4.0,4.0,4.0,4.0,4.0,4.0,4.0,4.0,4.0,100.0,,,,,,,,,,,,,,,,,,,,,,,,,,,,,,,,,,,,,,,,,,,,,,,,,,,,,,,,,,,,,,,,,,,,,,,,,,,,,,,,,,,,,,,,,,,,,,,,,,,,,,,,,,,,,,,,,,,,,,,,,,,,,,,,,,,,,,,,,,,,,,,,,,,,,,,,,,,,,,,,,,,,,,,,,,,,,,,,,,,,,,,,,,,,,,,,,,,,,,,,,,,,,,
1763973771.978101,38487.0,0.0,4388.974121,4410.128418,4505.384766,4519.230957,4403.461426,4515.256348,4533.205078,4397.692383,4569.358887,4391.922852,4480.256348,4520.128418,4573.974121,4387.179688,4376.922852,4499.871582,4544.358887,4519.871582,4497.94873,4365.897461,4377.692383,4564.871582,4518.333496,4486.025879,4389.487305,4565.256348,4389.487305,4550.512695,4501.538574,4403.589844,4522.307617,4503.974121,2930.0,1.0,22.0,1536.0,16774.0,,,,0.0,4.0,4.0,4.0,4.0,4.0,4.0,4.0,4.0,4.0,4.0,4.0,4.0,4.0,4.0,4.0,4.0,4.0,4.0,4.0,4.0,4.0,4.0,4.0,4.0,4.0,4.0,4.0,4.0,4.0,4.0,4.0,4.0,100.0,,,,,,,,,,,,,,,,,,,,,,,,,,,,,,,,,,,,,,,,,,,,,,,,,,,,,,,,,,,,,,,,,,,,,,,,,,,,,,,,,,,,,,,,,,,,,,,,,,,,,,,,,,,,,,,,,,,,,,,,,,,,,,,,,,,,,,,,,,,,,,,,,,,,,,,,,,,,,,,,,,,,,,,,,,,,,,,,,,,,,,,,,,,,,,,,,,,,,,,,,,,,,,
1763973771.982007,38488.0,0.0,4394.743652,4414.871582,4511.410156,4522.94873,4407.436035,4517.820313,4537.563965,4401.282227,4574.615234,4400.641113,4485.769043,4528.077148,4582.05127,4394.358887,4383.205078,4511.922852,4549.871582,4527.179688,4506.282227,4373.846191,4381.922852,4570.128418,4526.025879,4489.230957,4393.333496,4573.205078,4396.922852,4555.897461,4505.897461,4410.0,4532.94873,4508.077148,2908.0,1.0,22.0,1792.0,16782.0,,,,0.0,4.0,4.0,4.0,4.0,4.0,4.0,4.0,4.0,4.0,4.0,4.0,4.0,4.0,4.0,4.0,4.0,4.0,4.0,4.0,4.0,4.0,4.0,4.0,4.0,4.0,4.0,4.0,4.0,4.0,4.0,4.0,4.0,100.0,,,,,,,,,,,,,,,,,,,,,,,,,,,,,,,,,,,,,,,,,,,,,,,,,,,,,,,,,,,,,,,,,,,,,,,,,,,,,,,,,,,,,,,,,,,,,,,,,,,,,,,,,,,,,,,,,,,,,,,,,,,,,,,,,,,,,,,,,,,,,,,,,,,,,,,,,,,,,,,,,,,,,,,,,,,,,,,,,,,,,,,,,,,,,,,,,,,,,,,,,,,,,,
1763973771.985913,38489.0,0.0,4399.487305,4417.179688,4515.769043,4526.538574,4410.0,4520.256348,4541.282227,4402.820313,4576.538574,4405.0,4488.717773,4534.358887,4587.820313,4398.589844,4388.846191,4522.05127,4556.666504,4536.282227,4515.0,4382.820313,4389.615234,4577.692383,4534.102539,4494.358887,4396.922852,4581.025879,4402.436035,4560.512695,4511.025879,4412.820313,4541.666504,4511.794922,2831.0,1.0,22.0,1792.0,16782.0,,,,0.0,4.0,4.0,4.0,4.0,4.0,4.0,4.0,4.0,4.0,4.0,4.0,4.0,4.0,4.0,4.0,4.0,4.0,4.0,4.0,4.0,4.0,4.0,4.0,4.0,4.0,4.0,4.0,4.0,4.0,4.0,4.0,4.0,100.0,,,,,,,,,,,,,,,,,,,,,,,,,,,,,,,,,,,58774.0,0.0,0.659925,0.288147,0.246338,0.648682,0.995239,-0.012209,-0.054694,27.5,-25.666666,-26.0,,,,,,,,,,,,,,,,,,,,,,,,,,,,,,,,,,,,,,,,,,,,,,,,,,,,,,,,,,,,,,,,,,,,,,,,,,,,,,,,,,,,,,,,,,,,,,,,,,,,,,,,,,,,,,,,,,,,,,,,,,,,,,,,,,,,,,,,,,,,,,,,,,,,,,,,,,,,,,,,
1763973771.989819,38490.0,0.0,4402.179688,4416.922852,4517.820313,4530.641113,4411.666504,4522.05127,4542.94873,4403.846191,4575.512695,4403.077148,4488.846191,4537.436035,4588.589844,4399.615234,4392.05127,4528.461426,4562.436035,4544.743652,4520.769043,4389.487305,4398.077148,4584.743652,4539.230957,4500.0,4400.128418,4586.794922,4405.128418,4564.358887,4515.384766,4412.307617,4545.384766,4516.538574,2804.0,1.0,22.0,2048.0,16790.0,,,,0.0,4.0,4.0,4.0,4.0,4.0,4.0,4.0,4.0,4.0,4.0,4.0,4.0,4.0,4.0,4.0,4.0,4.0,4.0,4.0,4.0,4.0,4.0,4.0,4.0,4.0,4.0,4.0,4.0,4.0,4.0,4.0,4.0,100.0,,,,,,,,,,,,,,,,,,,,,,,,,,,,,,,,,,,,,,,,,,,,,,,,,,,,,,,,,,,,,,,,,,,,,,,,,,,,,,,,,,,,,,,,,,,,,,,,,,,,,,,,,,,,,,,,,,,,,,,,,,,,,,,,,,,,,,,,,,,,,,,,,,,,,,,,,,,,,,,,,,,,,,,,,,,,,,,,,,,,,,,,,,,,,,,,,,,,,,,,,,,,,,
1763973771.993725,38491.0,0.0,4405.128418,4417.563965,4519.230957,4536.282227,4413.846191,4524.230957,4543.077148,4406.282227,4575.0,4400.512695,4488.717773,4538.974121,4586.153809,4400.256348,4393.974121,4532.820313,4567.05127,4552.05127,4525.769043,4393.077148,4405.512695,4590.897461,4542.436035,4507.179688,4405.512695,4590.897461,4407.692383,4569.615234,4520.384766,4412.820313,4546.666504,4523.333496,3015.0,1.0,22.0,2048.0,16790.0,,,,0.0,4.0,4.0,4.0,4.0,4.0,4.0,4.0,4.0,4.0,4.0,4.0,4.0,4.0,4.0,4.0,4.0,4.0,4.0,4.0,4.0,4.0,4.0,4.0,4.0,4.0,4.0,4.0,4.0,4.0,4.0,4.0,4.0,100.0,,,,,,,,,,,,,,,,,,,,,,,,,,,,,,,,,,,,,,,,,,,,,,,,,,,,,,,,,,,,,,,,,,,,,,,,,,,,,,,,,,,,,,,,,,,,,,,,,,,,,,,,,,,,,,,,,,,,,,,,,,,,,,,,,,,,,,,,,,,,,,,,,,,,,,,,,,,,,,,,,,,,,,,,,,,,,,,,,,,,,,,,,,,,,,,,,,,,,,,,,,,,,,
1763973771.997631,38492.0,0.0,4410.512695,4421.538574,4521.922852,4542.820313,4416.922852,4527.436035,4544.615234,4410.769043,4578.333496,4403.846191,4490.512695,4540.512695,4584.230957,4402.563965,4396.794922,4536.538574,4571.153809,4558.461426,4532.94873,4394.871582,4411.794922,4597.179688,4546.025879,4516.282227,4414.487305,4594.358887,4413.077148,4577.820313,4527.05127,4417.820313,4549.743652,4531.153809,2966.0,1.0,22.0,2304.0,16797.0,,,,0.0,4.0,4.0,4.0,4.0,4.0,4.0,4.0,4.0,4.0,4.0,4.0,4.0,4.0,4.0,4.0,4.0,4.0,4.0,4.0,4.0,4.0,4.0,4.0,4.0,4.0,4.0,4.0,4.0,4.0,4.0,4.0,4.0,100.0,,,,,,,,,,,,,,,,,,,,,,,,,,,,,,,,,,,,,,,,,,,,,,,,,,,,,,,,,,,,,,,,,,,,,,,,,,,,,,,,,,,,,,,,,,,,,,,,,,,,,,,,,,,,,,,,,,,,,,,,,,,,,,,,,,,,,,,,,,,,,,,,,,,,,,,,,,,,,,,,,,,,,,,,,,,,,,,,,,,,,,,,,,,,,,,,,,,,,,,,,,,,,,
1763973772.001537,38493.0,0.0,4416.410156,4427.179688,4524.615234,4547.94873,4418.461426,4530.512695,4547.94873,4414.487305,4584.743652,4412.563965,4493.333496,4541.922852,4584.615234,4405.256348,4399.743652,4538.077148,4573.461426,4562.436035,4540.128418,4396.538574,4415.769043,4602.436035,4550.0,4524.487305,4424.487305,4596.666504,4420.256348,4586.410156,4533.333496,4425.512695,4555.256348,4536.153809,2811.0,1.0,22.0,2304.0,16797.0,,,,0.0,4.0,4.0,4.0,4.0,4.0,4.0,4.0,4.0,4.0,4.0,4.0,4.0,4.0,4.0,4.0,4.0,4.0,4.0,4.0,4.0,4.0,4.0,4.0,4.0,4.0,4.0,4.0,4.0,4.0,4.0,4.0,4.0,100.0,,,,,,,,,,,,,,,,,,,,,,,,,,,,,,,,,,,58775.0,0.0,0.660013,0.287964,0.246155,0.648743,1.003052,-0.000977,-0.066414,26.833334,-24.666666,-25.333334,,,,,,,,,,,,,,,,,,,,,,,,,,,,,,,,,,,,,,,,,,,,,,,,,,,,,,,,,,,,,,,,,,,,,,,,,,,,,,,,,,,,,,,,,,,,,,,,,,,,,,,,,,,,,,,,,,,,,,,,,,,,,,,,,,,,,,,,,,,,,,,,,,,,,,,,,,,,,,,,
1763973772.005443,38494.0,0.0,4418.333496,4430.256348,4524.230957,4548.974121,4415.897461,4530.641113,4550.897461,4413.717773,4589.358887,4417.820313,4494.102539,4540.512695,4584.871582,4404.743652,4399.487305,4535.0,4571.282227,4560.769043,4541.153809,4397.94873,4416.025879,4603.205078,4551.153809,4527.307617,4430.256348,4596.153809,4424.102539,4590.256348,4533.974121,4430.256348,4559.615234,4535.128418,3003.0,1.0,22.0,1536.0,16805.0,,,,0.0,4.0,4.0,4.0,4.0,4.0,4.0,4.0,4.0,4.0,4.0,4.0,4.0,4.0,4.0,4.0,4.0,4.0,4.0,4.0,4.0,4.0,4.0,4.0,4.0,4.0,4.0,4.0,4.0,4.0,4.0,4.0,4.0,100.0,,,,,,,,,,,,,,,,,,,,,,,,,,,,,,,,,,,,,,,,,,,,,,,,,,,,,,,,,,,,,,,,,,,,,,,,,,,,,,,,,,,,,,,,,,,,,,,,,,,,,,,,,,,,,,,,,,,,,,,,,,,,,,,,,,,,,,,,,,,,,,,,,,,,,,,,,,,,,,,,,,,,,,,,,,,,,,,,,,,,,,,,,,,,,,,,,,,,,,,,,,,,,,
1763973772.009349,38495.0,0.0,4413.717773,4427.563965,4519.358887,4545.512695,4409.102539,4526.538574,4550.128418,4407.436035,4587.94873,4410.512695,4490.641113,4534.871582,4581.282227,4399.358887,4394.615234,4527.05127,4563.333496,4552.820313,4533.333496,4398.333496,4412.692383,4597.563965,4546.794922,4522.563965,4428.461426,4592.307617,4421.153809,4586.410156,4527.05127,4427.436035,4558.717773,4529.230957,2910.0,1.0,22.0,1536.0,16805.0,,,,0.0,4.0,4.0,4.0,4.0,4.0,4.0,4.0,4.0,4.0,4.0,4.0,4.0,4.0,4.0,4.0,4.0,4.0,4.0,4.0,4.0,4.0,4.0,4.0,4.0,4.0,4.0,4.0,4.0,4.0,4.0,4.0,4.0,100.0,,,,,,,,,,,,,,,,,,,,,,,,,,,,,,,,,,,,,,,,,,,,,,,,,,,,,,,,,,,,,,,,,,,,,,,,,,,,,,,,,,,,,,,,,,,,,,,,,,,,,,,,,,,,,,,,,,,,,,,,,,,,,,,,,,,,,,,,,,,,,,,,,,,,,,,,,,,,,,,,,,,,,,,,,,,,,,,,,,,,,,,,,,,,,,,,,,,,,,,,,,,,,,
1763973772.013255,38496.0,0.0,4405.128418,4420.512695,4512.563965,4540.256348,4402.05127,4521.025879,4545.384766,4399.230957,4581.153809,4391.794922,4485.0,4527.05127,4573.974121,4392.179688,4387.820313,4517.179688,4552.563965,4542.436035,4521.153809,4397.05127,4408.717773,4587.692383,4538.205078,4513.717773,4421.282227,4587.563965,4413.846191,4577.307617,4516.282227,4418.846191,4552.820313,4523.589844,2812.0,1.0,22.0,768.0,16813.0,,,,0.0,4.0,4.0,4.0,4.0,4.0,4.0,4.0,4.0,4.0,4.0,4.0,4.0,4.0,4.0,4.0,4.0,4.0,4.0,4.0,4.0,4.0,4.0,4.0,4.0,4.0,4.0,4.0,4.0,4.0,4.0,4.0,4.0,100.0,,,,,,,,,,,,,,,,,,,,,,,,,,,,,,,,,,,,,,,,,,,,,,,,,,,,,,,,,,,,,,,,,,,,,,,,,,,,,,,,,,,,,,,,,,,,,,,,,,,,,,,,,,,,,,,,,,,,,,,,,,,,,,,,,,,,,,,,,,,,,,,,,,,,,,,,,,,,,,,,,,,,,,,,,,,,,,,,,,,,,,,,,,,,,,,,,,,,,,,,,,,,,,
1763973772.017161,38497.0,0.0,4397.563965,4412.94873,4507.94873,4537.05127,4398.974121,4517.436035,4539.871582,4393.846191,4573.717773,4372.307617,4481.025879,4521.153809,4566.282227,4388.333496,4383.974121,4509.615234,4544.230957,4535.897461,4512.307617,4395.128418,4406.794922,4578.846191,4530.128418,4506.922852,4413.846191,4585.384766,4407.692383,4568.205078,4507.94873,4410.0,4545.897461,4522.436035,2951.0,1.0,22.0,768.0,16813.0,,,,0.0,4.0,4.0,4.0,4.0,4.0,4.0,4.0,4.0,4.0,4.0,4.0,4.0,4.0,4.0,4.0,4.0,4.0,4.0,4.0,4.0,4.0,4.0,4.0,4.0,4.0,4.0,4.0,4.0,4.0,4.0,4.0,4.0,100.0,,,,,,,,,,,,,,,,,,,,,,,,,,,,,,,,,,,58776.0,0.0,0.660091,0.28772,0.245911,0.648865,1.002564,0.001953,-0.062508,28.0,-24.5,-26.0,,,,,,,,,,,,,,,,,,,,,,,,,,,,,,,,,,,,,,,,,,,,,,,,,,,,,,,,,,,,,,,,,,,,,,,,,,,,,,,,,,,,,,,,,,,,,,,,,,,,,,,,,,,,,,,,,,,,,,,,,,,,,,,,,,,,,,,,,,,,,,,,,,,,,,,,,,,,,,,,
1763973772.021067,38498.0,0.0,4393.846191,4407.563965,4506.410156,4536.410156,4400.641113,4517.179688,4536.153809,4393.461426,4569.487305,4364.230957,4480.256348,4519.615234,4562.05127,4390.0,4385.512695,4506.282227,4540.897461,4535.641113,4510.384766,4393.077148,4406.282227,4573.461426,4525.256348,4505.512695,4409.743652,4585.897461,4405.512695,4562.820313,4505.384766,4405.0,4541.794922,4524.487305,2259.0,1.0,22.0,1024.0,16821.0,,,,0.0,4.0,4.0,4.0,4.0,4.0,4.0,4.0,4.0,4.0,4.0,4.0,4.0,4.0,4.0,4.0,4.0,4.0,4.0,4.0,4.0,4.0,4.0,4.0,4.0,4.0,4.0,4.0,4.0,4.0,4.0,4.0,4.0,100.0,,,,,,,,,,,,,,,,,,,,,,,,,,,,,,,,,,,,,,,,,,,,,,,,,,,,,,,,,,,,,,,,,,,,,,,,,,,,,,,,,,,,,,,,,,,,,,,,,,,,,,,,,,,,,,,,,,,,,,,,,,,,,,,,,,,,,,,,,,,,,,,,,,,,,,,,,,,,,,,,,,,,,,,,,,,,,,,,,,,,,,,,,,,,,,,,,,,,,,,,,,,,,,
1763973772.024973,38499.0,0.0,4392.563965,4403.589844,4505.0,4535.128418,4403.589844,4518.077148,4534.487305,4395.256348,4568.461426,4371.282227,4481.282227,4520.897461,4562.563965,4394.487305,4389.743652,4506.282227,4541.153809,4538.717773,4512.94873,4390.384766,4404.487305,4570.512695,4522.94873,4507.05127,4408.077148,4585.769043,4404.487305,4560.512695,4506.794922,4403.077148,4540.512695,4523.333496,2931.0,1.0,22.0,1024.0,16821.0,,,,0.0,4.0,4.0,4.0,4.0,4.0,4.0,4.0,4.0,4.0,4.0,4.0,4.0,4.0,4.0,4.0,4.0,4.0,4.0,4.0,4.0,4.0,4.0,4.0,4.0,4.0,4.0,4.0,4.0,4.0,4.0,4.0,4.0,100.0,,,,,,,,,,,,,,,,,,,,,,,,,,,,,,,,,,,,,,,,,,,,,,,,,,,,,,,,,,,,,,,,,,,,,,,,,,,,,,,,,,,,,,,,,,,,,,,,,,,,,,,,,,,,,,,,,,,,,,,,,,,,,,,,,,,,,,,,,,,,,,,,,,,,,,,,,,,,,,,,,,,,,,,,,,,,,,,,,,,,,,,,,,,,,,,,,,,,,,,,,,,,,,
1763973772.028879,38500.0,0.0,4391.153809,4399.230957,4501.922852,4530.897461,4403.461426,4517.307617,4533.717773,4395.641113,4568.589844,4387.94873,4481.922852,4521.282227,4565.512695,4397.563965,4392.820313,4506.282227,4541.410156,4539.871582,4515.512695,4386.282227,4399.358887,4568.333496,4520.512695,4506.794922,4406.025879,4582.307617,4400.641113,4558.461426,4507.563965,4400.641113,4538.974121,4515.641113,2845.0,1.0,22.0,768.0,16829.0,,,,0.0,4.0,4.0,4.0,4.0,4.0,4.0,4.0,4.0,4.0,4.0,4.0,4.0,4.0,4.0,4.0,4.0,4.0,4.0,4.0,4.0,4.0,4.0,4.0,4.0,4.0,4.0,4.0,4.0,4.0,4.0,4.0,4.0,100.0,,,,,,,,,,,,,,,,,,,,,,,,,,,,,,,,,,,,,,,,,,,,,,,,,,,,,,,,,,,,,,,,,,,,,,,,,,,,,,,,,,,,,,,,,,,,,,,,,,,,,,,,,,,,,,,,,,,,,,,,,,,,,,,,,,,,,,,,,,,,,,,,,,,,,,,,,,,,,,,,,,,,,,,,,,,,,,,,,,,,,,,,,,,,,,,,,,,,,,,,,,,,,,
1763973772.032785,38501.0,0.0,4388.461426,4394.230957,4497.692383,4524.358887,4399.102539,4513.974121,4532.94873,4392.692383,4568.974121,4404.102539,4481.153809,4518.589844,4568.077148,4397.179688,4393.077148,4504.615234,4540.384766,4536.538574,4516.153809,4381.538574,4392.692383,4566.282227,4517.436035,4502.307617,4401.666504,4576.282227,4393.333496,4555.0,4505.256348,4395.256348,4534.743652,4503.974121,2391.0,1.0,22.0,768.0,16829.0,,,,0.0,4.0,4.0,4.0,4.0,4.0,4.0,4.0,4.0,4.0,4.0,4.0,4.0,4.0,4.0,4.0,4.0,4.0,4.0,4.0,4.0,4.0,4.0,4.0,4.0,4.0,4.0,4.0,4.0,4.0,4.0,4.0,4.0,100.0,,,,,,,,,,,,,,,,,,,,,,,,,,,,,,,,,,,58777.0,0.0,0.660179,0.287537,0.245728,0.648926,0.988402,-0.00586,-0.062996,29.5,-26.0,-26.333334,,,,,,,,,,,,,,,,,,,,,,,,,,,,,,,,,,,,,,,,,,,,,,,,,,,,,,,,,,,,,,,,,,,,,,,,,,,,,,,,,,,,,,,,,,,,,,,,,,,,,,,,,,,,,,,,,,,,,,,,,,,,,,,,,,,,,,,,,,,,,,,,,,,,,,,,,,,,,,,,
1763973772.036691,38502.0,0.0,4385.641113,4390.0,4495.256348,4519.487305,4393.205078,4510.128418,4532.179688,4387.820313,4570.0,4412.436035,4480.128418,4514.358887,4568.589844,4395.384766,4391.666504,4501.922852,4539.487305,4530.641113,4515.384766,4378.846191,4387.820313,4564.743652,4515.128418,4495.384766,4396.538574,4570.769043,4386.410156,4551.538574,4501.025879,4388.461426,4528.461426,4495.128418,2933.0,1.0,22.0,1024.0,16837.0,,,,0.0,4.0,4.0,4.0,4.0,4.0,4.0,4.0,4.0,4.0,4.0,4.0,4.0,4.0,4.0,4.0,4.0,4.0,4.0,4.0,4.0,4.0,4.0,4.0,4.0,4.0,4.0,4.0,4.0,4.0,4.0,4.0,4.0,100.0,,,,,,,,,,,,,,,,,,,,,,,,,,,,,,,,,,,,,,,,,,,,,,,,,,,,,,,,,,,,,,,,,,,,,,,,,,,,,,,,,,,,,,,,,,,,,,,,,,,,,,,,,,,,,,,,,,,,,,,,,,,,,,,,,,,,,,,,,,,,,,,,,,,,,,,,,,,,,,,,,,,,,,,,,,,,,,,,,,,,,,,,,,,,,,,,,,,,,,,,,,,,,,
1763973772.040598,38503.0,0.0,4384.358887,4387.692383,4495.512695,4518.461426,4389.102539,4508.077148,4531.794922,4383.717773,4571.794922,4411.282227,4480.384766,4511.794922,4567.820313,4395.0,4390.384766,4501.153809,4540.641113,4526.794922,4514.743652,4380.128418,4386.666504,4563.846191,4515.128418,4489.615234,4393.333496,4568.333496,4383.589844,4550.0,4497.820313,4384.487305,4523.205078,4493.461426,2940.0,1.0,22.0,1024.0,16837.0,,,,0.0,4.0,4.0,4.0,4.0,4.0,4.0,4.0,4.0,4.0,4.0,4.0,4.0,4.0,4.0,4.0,4.0,4.0,4.0,4.0,4.0,4.0,4.0,4.0,4.0,4.0,4.0,4.0,4.0,4.0,4.0,4.0,4.0,100.0,,,,,,,,,,,,,,,,,,,,,,,,,,,,,,,,,,,,,,,,,,,,,,,,,,,,,,,,,,,,,,,,,,,,,,,,,,,,,,,,,,,,,,,,,,,,,,,,,,,,,,,,,,,,,,,,,,,,,,,,,,,,,,,,,,,,,,,,,,,,,,,,,,,,,,,,,,,,,,,,,,,,,,,,,,,,,,,,,,,,,,,,,,,,,,,,,,,,,,,,,,,,,,
1763973772.044504,38504.0,0.0,4385.641113,4387.436035,4496.922852,4520.769043,4388.589844,4508.589844,4532.179688,4382.436035,4574.230957,4404.358887,4482.179688,4512.94873,4567.692383,4396.922852,4389.102539,4504.102539,4543.846191,4528.717773,4514.871582,4384.743652,4388.589844,4563.461426,4518.077148,4487.692383,4393.461426,4569.358887,4385.512695,4551.282227,4497.692383,4385.897461,4521.538574,4497.05127,2662.0,1.0,22.0,1024.0,16844.0,,,,0.0,4.0,4.0,4.0,4.0,4.0,4.0,4.0,4.0,4.0,4.0,4.0,4.0,4.0,4.0,4.0,4.0,4.0,4.0,4.0,4.0,4.0,4.0,4.0,4.0,4.0,4.0,4.0,4.0,4.0,4.0,4.0,4.0,100.0,,,,,,,,,,,,,,,,,,,,,,,,,,,,,,,,,,,,,,,,,,,,,,,,,,,,,,,,,,,,,,,,,,,,,,,,,,,,,,,,,,,,,,,,,,,,,,,,,,,,,,,,,,,,,,,,,,,,,,,,,,,,,,,,,,,,,,,,,,,,,,,,,,,,,,,,,,,,,,,,,,,,,,,,,,,,,,,,,,,,,,,,,,,,,,,,,,,,,,,,,,,,,,
1763973772.04841,38505.0,0.0,4388.589844,4388.077148,4497.307617,4523.205078,4390.256348,4510.384766,4532.692383,4384.230957,4576.025879,4397.820313,4483.974121,4516.794922,4569.358887,4399.743652,4387.436035,4509.743652,4547.563965,4535.384766,4515.384766,4388.846191,4391.794922,4563.461426,4522.179688,4489.615234,4396.025879,4571.794922,4389.487305,4554.102539,4500.0,4391.282227,4523.205078,4500.897461,2830.0,1.0,22.0,1024.0,16844.0,,,,0.0,4.0,4.0,4.0,4.0,4.0,4.0,4.0,4.0,4.0,4.0,4.0,4.0,4.0,4.0,4.0,4.0,4.0,4.0,4.0,4.0,4.0,4.0,4.0,4.0,4.0,4.0,4.0,4.0,4.0,4.0,4.0,4.0,100.0,,,,,,,,,,,,,,,,,,,,,,,,,,,,,,,,,,,58778.0,0.0,0.660217,0.287415,0.245605,0.648987,0.99768,-0.008302,-0.070321,27.666666,-24.166666,-24.5,,,,,,,,,,,,,,,,,,,,,,,,,,,,,,,,,,,,,,,,,,,,,,,,,,,,,,,,,,,,,,,,,,,,,,,,,,,,,,,,,,,,,,,,,,,,,,,,,,,,,,,,,,,,,,,,,,,,,,,,,,,,,,,,,,,,,,,,,,,,,,,,,,,,,,,,,,,,,,,,
1763973772.052316,38506.0,0.0,4391.153809,4388.589844,4495.512695,4524.102539,4391.410156,4511.922852,4533.205078,4387.307617,4576.153809,4396.025879,4483.846191,4520.0,4571.922852,4401.153809,4384.871582,4514.743652,4549.358887,4541.922852,4515.0,4389.102539,4394.102539,4562.94873,4524.615234,4492.820313,4398.589844,4573.333496,4391.794922,4555.897461,4502.436035,4396.282227,4525.641113,4500.897461,2679.0,1.0,22.0,1280.0,16852.0,,,,0.0,4.0,4.0,4.0,4.0,4.0,4.0,4.0,4.0,4.0,4.0,4.0,4.0,4.0,4.0,4.0,4.0,4.0,4.0,4.0,4.0,4.0,4.0,4.0,4.0,4.0,4.0,4.0,4.0,4.0,4.0,4.0,4.0,100.0,,,,,,,,,,,,,,,,,,,,,,,,,,,,,,,,,,,,,,,,,,,,,,,,,,,,,,,,,,,,,,,,,,,,,,,,,,,,,,,,,,,,,,,,,,,,,,,,,,,,,,,,,,,,,,,,,,,,,,,,,,,,,,,,,,,,,,,,,,,,,,,,,,,,,,,,,,,,,,,,,,,,,,,,,,,,,,,,,,,,,,,,,,,,,,,,,,,,,,,,,,,,,,
1763973772.056222,38507.0,0.0,4391.410156,4389.102539,4493.461426,4524.102539,4391.153809,4512.05127,4533.333496,4390.256348,4574.358887,4398.589844,4481.410156,4520.256348,4573.205078,4399.615234,4382.692383,4515.384766,4547.94873,4543.205078,4512.692383,4385.128418,4395.0,4561.153809,4523.717773,4494.615234,4399.230957,4572.563965,4391.538574,4555.128418,4503.205078,4397.563965,4526.410156,4497.692383,2984.0,1.0,22.0,1280.0,16852.0,,,,0.0,4.0,4.0,4.0,4.0,4.0,4.0,4.0,4.0,4.0,4.0,4.0,4.0,4.0,4.0,4.0,4.0,4.0,4.0,4.0,4.0,4.0,4.0,4.0,4.0,4.0,4.0,4.0,4.0,4.0,4.0,4.0,4.0,100.0,,,,,,,,,,,,,,,,,,,,,,,,,,,,,,,,,,,,,,,,,,,,,,,,,,,,,,,,,,,,,,,,,,,,,,,,,,,,,,,,,,,,,,,,,,,,,,,,,,,,,,,,,,,,,,,,,,,,,,,,,,,,,,,,,,,,,,,,,,,,,,,,,,,,,,,,,,,,,,,,,,,,,,,,,,,,,,,,,,,,,,,,,,,,,,,,,,,,,,,,,,,,,,
1763973772.060128,38508.0,0.0,4389.358887,4390.897461,4494.230957,4525.128418,4391.410156,4511.666504,4533.461426,4393.461426,4572.179688,4401.025879,4478.461426,4517.94873,4571.538574,4396.153809,4382.307617,4510.769043,4544.358887,4538.461426,4508.974121,4380.384766,4394.615234,4558.333496,4520.512695,4493.846191,4397.692383,4570.641113,4390.384766,4552.179688,4502.692383,4395.384766,4525.0,4495.512695,2946.0,1.0,22.0,1536.0,16860.0,,,,0.0,4.0,4.0,4.0,4.0,4.0,4.0,4.0,4.0,4.0,4.0,4.0,4.0,4.0,4.0,4.0,4.0,4.0,4.0,4.0,4.0,4.0,4.0,4.0,4.0,4.0,4.0,4.0,4.0,4.0,4.0,4.0,4.0,100.0,,,,,,,,,,,,,,,,,,,,,,,,,,,,,,,,,,,,,,,,,,,,,,,,,,,,,,,,,,,,,,,,,,,,,,,,,,,,,,,,,,,,,,,,,,,,,,,,,,,,,,,,,,,,,,,,,,,,,,,,,,,,,,,,,,,,,,,,,,,,,,,,,,,,,,,,,,,,,,,,,,,,,,,,,,,,,,,,,,,,,,,,,,,,,,,,,,,,,,,,,,,,,,
1763973772.064034,38509.0,0.0,4386.794922,4394.871582,4498.717773,4528.333496,4394.358887,4512.05127,4534.230957,4397.563965,4571.666504,4400.384766,4477.563965,4515.256348,4567.563965,4393.461426,4384.871582,4502.692383,4541.025879,4530.897461,4506.282227,4379.743652,4393.974121,4556.025879,4517.820313,4491.922852,4395.769043,4569.743652,4391.282227,4549.615234,4502.692383,4392.820313,4523.077148,4498.077148,2800.0,1.0,22.0,1536.0,16860.0,,,,0.0,4.0,4.0,4.0,4.0,4.0,4.0,4.0,4.0,4.0,4.0,4.0,4.0,4.0,4.0,4.0,4.0,4.0,4.0,4.0,4.0,4.0,4.0,4.0,4.0,4.0,4.0,4.0,4.0,4.0,4.0,4.0,4.0,100.0,,,,,,,,,,,,,,,,,,,,,,,,,,,,,,,,,,,58779.0,0.0,0.66024,0.287415,0.245544,0.648987,0.99768,-0.008302,-0.070321,28.5,-25.833334,-25.0,,,,,,,,,,,,,,,,,,,,,,,,,,,,,,,,,,,,,,,,,,,,,,,,,,,,,,,,,,,,,,,,,,,,,,,,,,,,,,,,,,,,,,,,,,,,,,,,,,,,,,,,,,,,,,,,,,,,,,,,,,,,,,,,,,,,,,,,,,,,,,,,,,,,,,,,,,,,,,,,
1763973772.06794,38510.0,0.0,4385.897461,4400.256348,4504.102539,4532.820313,4400.128418,4513.589844,4535.897461,4402.563965,4573.717773,4397.94873,4479.615234,4514.487305,4563.077148,4393.461426,4389.102539,4495.0,4540.0,4525.128418,4506.666504,4384.230957,4393.717773,4555.897461,4518.205078,4490.897461,4395.256348,4571.282227,4394.743652,4549.615234,4504.743652,4392.563965,4522.820313,4504.358887,2749.0,1.0,22.0,1792.0,16868.0,,,,0.0,4.0,4.0,4.0,4.0,4.0,4.0,4.0,4.0,4.0,4.0,4.0,4.0,4.0,4.0,4.0,4.0,4.0,4.0,4.0,4.0,4.0,4.0,4.0,4.0,4.0,4.0,4.0,4.0,4.0,4.0,4.0,4.0,100.0,,,,,,,,,,,,,,,,,,,,,,,,,,,,,,,,,,,,,,,,,,,,,,,4.356083,1.038815,0.445189,0.679384,1.098288,4.247169,1.17486,1.555841,0.907493,1.20073,4.491857,1.139426,0.490285,0.935948,1.238108,1.896826,0.70211,0.787386,0.631995,1.131553,2.088563,0.532537,0.485205,0.370284,0.879217,2.052451,0.330006,0.38704,0.391581,0.753613,2.42412,0.856535,0.727568,0.700686,1.168532,2.3195,0.579405,0.616442,0.709442,1.264519,1.804916,0.333169,0.681143,0.605053,1.07293,0.872902,0.925767,1.50745,2.626023,1.897339,2.042451,0.209796,0.560846,0.379073,1.087685,4.386931,0.963047,0.798552,0.607599,1.245678,3.651637,1.734396,1.820572,0.651546,1.380467,0.526326,0.527727,0.679238,0.413593,1.360311,1.330787,1.293856,0.777838,0.379892,1.276767,1.682892,0.957364,1.181832,1.141639,3.10121,4.212196,3.205377,1.209195,0.604829,1.065826,1.57721,1.320665,0.948316,0.471637,1.69631,1.582723,1.765943,0.631225,0.643369,2.079048,1.392914,2.09645,0.438533,0.441467,1.293626,2.486591,2.550744,0.560414,0.52967,1.252854,4.122124,6.399436,1.304314,0.666713,1.480582,5.804863,3.721114,0.847927,0.637433,1.285615,3.553892,3.536726,0.845339,0.643137,1.379944,4.395964,1.968621,1.087384,0.590905,1.183067,2.937198,1.046089,0.728904,0.721409,1.086213,5.927554,1.290957,1.232418,0.722659,1.187405,5.170209,2.53512,0.758242,0.598495,1.041344,6.333281,1.597624,0.829958,0.699954,1.015477,5.240586,0.998347,0.955433,0.570299,1.121455,5.38353,0.881741,1.169422,0.829845,1.052549,5.019656,0.854664,0.868881,0.790161,1.053127
1763973772.071846,38511.0,0.0,4387.436035,4404.102539,4505.897461,4536.153809,4405.769043,4515.128418,4537.692383,4405.641113,4576.538574,4396.282227,4482.307617,4515.512695,4559.487305,4395.0,4391.538574,4491.025879,4541.153809,4523.077148,4509.487305,4389.358887,4393.717773,4558.717773,4521.153809,4491.153809,4396.794922,4573.974121,4398.717773,4552.307617,4507.692383,4394.358887,4524.615234,4509.102539,2806.0,1.0,22.0,1792.0,16868.0,,,,0.0,4.0,4.0,4.0,4.0,4.0,4.0,4.0,4.0,4.0,4.0,4.0,4.0,4.0,4.0,4.0,4.0,4.0,4.0,4.0,4.0,4.0,4.0,4.0,4.0,4.0,4.0,4.0,4.0,4.0,4.0,4.0,4.0,100.0,,,,,,,,,,,,,,,,,,,,,,,,,,,,,,,,,,,,,,,,,,,,,,,,,,,,,,,,,,,,,,,,,,,,,,,,,,,,,,,,,,,,,,,,,,,,,,,,,,,,,,,,,,,,,,,,,,,,,,,,,,,,,,,,,,,,,,,,,,,,,,,,,,,,,,,,,,,,,,,,,,,,,,,,,,,,,,,,,,,,,,,,,,,,,,,,,,,,,,,,,,,,,,
1763973772.075752,38512.0,0.0,4389.871582,4403.974121,4501.153809,4535.769043,4407.436035,4515.0,4537.692383,4403.717773,4576.922852,4395.897461,4482.436035,4516.538574,4556.538574,4394.871582,4388.717773,4492.05127,4542.692383,4523.461426,4511.538574,4388.717773,4393.077148,4562.820313,4524.487305,4491.538574,4398.717773,4575.128418,4399.487305,4555.384766,4509.358887,4395.256348,4525.897461,4507.436035,2918.0,1.0,22.0,2048.0,16876.0,,,,0.0,4.0,4.0,4.0,4.0,4.0,4.0,4.0,4.0,4.0,4.0,4.0,4.0,4.0,4.0,4.0,4.0,4.0,4.0,4.0,4.0,4.0,4.0,4.0,4.0,4.0,4.0,4.0,4.0,4.0,4.0,4.0,4.0,100.0,,,,,,,,,,,,,,,,,,,,,,,,,,,,,,,,,,,,,,,,,,,,,,,,,,,,,,,,,,,,,,,,,,,,,,,,,,,,,,,,,,,,,,,,,,,,,,,,,,,,,,,,,,,,,,,,,,,,,,,,,,,,,,,,,,,,,,,,,,,,,,,,,,,,,,,,,,,,,,,,,,,,,,,,,,,,,,,,,,,,,,,,,,,,,,,,,,,,,,,,,,,,,,
1763973772.079658,38513.0,0.0,4390.128418,4399.102539,4491.794922,4530.384766,4403.846191,4512.692383,4534.230957,4395.512695,4573.077148,4393.461426,4478.077148,4514.743652,4553.333496,4390.769043,4380.0,4496.025879,4542.436035,4523.333496,4510.641113,4379.871582,4390.384766,4565.256348,4524.743652,4490.641113,4399.102539,4572.820313,4395.256348,4555.897461,4507.94873,4392.820313,4523.974121,4499.230957,3035.0,1.0,22.0,2048.0,16876.0,,,,0.0,4.0,4.0,4.0,4.0,4.0,4.0,4.0,4.0,4.0,4.0,4.0,4.0,4.0,4.0,4.0,4.0,4.0,4.0,4.0,4.0,4.0,4.0,4.0,4.0,4.0,4.0,4.0,4.0,4.0,4.0,4.0,4.0,100.0,,,,,,,,,,,,,,,,,,,,,,,,,,,,,,,,,,,58780.0,0.0,0.660251,0.287476,0.245605,0.648926,0.999145,-0.006348,-0.062019,27.666666,-26.666666,-25.0,,,,,,,,,,,,,,,,,,,,,,,,,,,,,,,,,,,,,,,,,,,,,,,,,,,,,,,,,,,,,,,,,,,,,,,,,,,,,,,,,,,,,,,,,,,,,,,,,,,,,,,,,,,,,,,,,,,,,,,,,,,,,,,,,,,,,,,,,,,,,,,,,,,,,,,,,,,,,,,,
1763973772.083564,38514.0,0.0,4387.563965,4392.179688,4483.461426,4521.922852,4397.436035,4509.102539,4528.077148,4384.615234,4566.794922,4386.410156,4471.410156,4510.256348,4550.128418,4383.717773,4369.743652,4499.871582,4540.128418,4521.666504,4507.820313,4367.05127,4385.769043,4564.615234,4521.153809,4488.461426,4397.05127,4568.077148,4388.846191,4553.205078,4504.487305,4388.205078,4519.358887,4489.615234,2823.0,1.0,22.0,2304.0,16883.0,,,,0.0,4.0,4.0,4.0,4.0,4.0,4.0,4.0,4.0,4.0,4.0,4.0,4.0,4.0,4.0,4.0,4.0,4.0,4.0,4.0,4.0,4.0,4.0,4.0,4.0,4.0,4.0,4.0,4.0,4.0,4.0,4.0,4.0,100.0,,,,,,,,,,,,,,,,,,,,,,,,,,,,,,,,,,,,,,,,,,,,,,,,,,,,,,,,,,,,,,,,,,,,,,,,,,,,,,,,,,,,,,,,,,,,,,,,,,,,,,,,,,,,,,,,,,,,,,,,,,,,,,,,,,,,,,,,,,,,,,,,,,,,,,,,,,,,,,,,,,,,,,,,,,,,,,,,,,,,,,,,,,,,,,,,,,,,,,,,,,,,,,
1763973772.08747,38515.0,0.0,4385.0,4387.692383,4482.563965,4515.128418,4393.589844,4507.179688,4523.717773,4377.307617,4562.94873,4378.333496,4467.179688,4506.282227,4549.615234,4378.846191,4365.0,4500.897461,4538.974121,4521.153809,4507.179688,4359.615234,4382.563965,4563.205078,4516.922852,4487.563965,4394.487305,4565.0,4385.769043,4550.0,4502.820313,4385.769043,4516.794922,4486.153809,3014.0,1.0,22.0,2304.0,16883.0,,,,0.0,4.0,4.0,4.0,4.0,4.0,4.0,4.0,4.0,4.0,4.0,4.0,4.0,4.0,4.0,4.0,4.0,4.0,4.0,4.0,4.0,4.0,4.0,4.0,4.0,4.0,4.0,4.0,4.0,4.0,4.0,4.0,4.0,100.0,,,,,,,,,,,,,,,,,,,,,,,,,,,,,,,,,,,,,,,,,,,,,,,,,,,,,,,,,,,,,,,,,,,,,,,,,,,,,,,,,,,,,,,,,,,,,,,,,,,,,,,,,,,,,,,,,,,,,,,,,,,,,,,,,,,,,,,,,,,,,,,,,,,,,,,,,,,,,,,,,,,,,,,,,,,,,,,,,,,,,,,,,,,,,,,,,,,,,,,,,,,,,,
1763973772.091376,38516.0,0.0,4387.436035,4390.128418,4491.410156,4515.128418,4396.794922,4509.743652,4526.025879,4379.358887,4566.282227,4376.538574,4470.128418,4507.94873,4554.871582,4381.153809,4370.512695,4500.128418,4542.436035,4525.641113,4511.410156,4364.487305,4385.128418,4565.512695,4517.820313,4491.025879,4395.512695,4568.205078,4390.256348,4550.384766,4506.410156,4389.487305,4522.05127,4492.94873,2989.0,1.0,22.0,2560.0,16891.0,,,,0.0,4.0,4.0,4.0,4.0,4.0,4.0,4.0,4.0,4.0,4.0,4.0,4.0,4.0,4.0,4.0,4.0,4.0,4.0,4.0,4.0,4.0,4.0,4.0,4.0,4.0,4.0,4.0,4.0,4.0,4.0,4.0,4.0,100.0,,,,,,,,,,,,,,,,,,,,,,,,,,,,,,,,,,,,,,,,,,,,,,,,,,,,,,,,,,,,,,,,,,,,,,,,,,,,,,,,,,,,,,,,,,,,,,,,,,,,,,,,,,,,,,,,,,,,,,,,,,,,,,,,,,,,,,,,,,,,,,,,,,,,,,,,,,,,,,,,,,,,,,,,,,,,,,,,,,,,,,,,,,,,,,,,,,,,,,,,,,,,,,
1763973772.095282,38517.0,0.0,4396.922852,4399.487305,4506.666504,4523.846191,4406.666504,4516.922852,4536.282227,4390.897461,4577.436035,4385.897461,4480.128418,4517.179688,4566.153809,4390.512695,4384.615234,4500.256348,4550.641113,4535.256348,4520.128418,4380.897461,4394.871582,4573.589844,4526.410156,4499.230957,4402.307617,4578.589844,4401.922852,4557.05127,4515.256348,4398.974121,4535.384766,4507.820313,2850.0,1.0,22.0,2560.0,16891.0,,,,0.0,4.0,4.0,4.0,4.0,4.0,4.0,4.0,4.0,4.0,4.0,4.0,4.0,4.0,4.0,4.0,4.0,4.0,4.0,4.0,4.0,4.0,4.0,4.0,4.0,4.0,4.0,4.0,4.0,4.0,4.0,4.0,4.0,100.0,,,,,,,,,,,,,,,,,,,,,,,,,,,,,,,,,,,58781.0,0.0,0.660175,0.287598,0.245667,0.648926,0.999145,-0.006348,-0.062019,29.0,-25.833334,-24.166666,,,,,,,,,,,,,,,,,,,,,,,,,,,,,,,,,,,,,,,,,,,,,,,,,,,,,,,,,,,,,,,,,,,,,,,,,,,,,,,,,,,,,,,,,,,,,,,,,,,,,,,,,,,,,,,,,,,,,,,,,,,,,,,,,,,,,,,,,,,,,,,,,,,,,,,,,,,,,,,,
1763973772.099188,38518.0,0.0,4410.0,4411.153809,4521.025879,4537.820313,4417.94873,4525.0,4549.871582,4405.641113,4591.794922,4402.692383,4492.179688,4530.256348,4579.230957,4401.153809,4399.615234,4502.94873,4559.743652,4545.512695,4529.871582,4399.615234,4408.846191,4584.615234,4539.230957,4509.358887,4412.563965,4591.410156,4414.615234,4567.563965,4524.871582,4409.743652,4550.512695,4523.717773,2980.0,1.0,22.0,2560.0,16899.0,,,,0.0,4.0,4.0,4.0,4.0,4.0,4.0,4.0,4.0,4.0,4.0,4.0,4.0,4.0,4.0,4.0,4.0,4.0,4.0,4.0,4.0,4.0,4.0,4.0,4.0,4.0,4.0,4.0,4.0,4.0,4.0,4.0,4.0,100.0,,,,,,,,,,,,,,,,,,,,,,,,,,,,,,,,,,,,,,,,,,,,,,,,,,,,,,,,,,,,,,,,,,,,,,,,,,,,,,,,,,,,,,,,,,,,,,,,,,,,,,,,,,,,,,,,,,,,,,,,,,,,,,,,,,,,,,,,,,,,,,,,,,,,,,,,,,,,,,,,,,,,,,,,,,,,,,,,,,,,,,,,,,,,,,,,,,,,,,,,,,,,,,
1763973772.103094,38519.0,0.0,4419.358887,4418.974121,4528.333496,4549.487305,4423.717773,4529.358887,4559.487305,4414.615234,4601.538574,4416.794922,4499.615234,4539.615234,4588.077148,4405.897461,4407.563965,4507.436035,4564.487305,4550.897461,4536.538574,4410.128418,4420.256348,4593.333496,4548.974121,4516.282227,4420.384766,4599.615234,4421.282227,4576.410156,4530.128418,4415.641113,4559.102539,4533.333496,2937.0,1.0,22.0,2560.0,16899.0,,,,0.0,4.0,4.0,4.0,4.0,4.0,4.0,4.0,4.0,4.0,4.0,4.0,4.0,4.0,4.0,4.0,4.0,4.0,4.0,4.0,4.0,4.0,4.0,4.0,4.0,4.0,4.0,4.0,4.0,4.0,4.0,4.0,4.0,100.0,,,,,,,,,,,,,,,,,,,,,,,,,,,,,,,,,,,,,,,,,,,,,,,,,,,,,,,,,,,,,,,,,,,,,,,,,,,,,,,,,,,,,,,,,,,,,,,,,,,,,,,,,,,,,,,,,,,,,,,,,,,,,,,,,,,,,,,,,,,,,,,,,,,,,,,,,,,,,,,,,,,,,,,,,,,,,,,,,,,,,,,,,,,,,,,,,,,,,,,,,,,,,,
1763973772.107,38520.0,0.0,4419.615234,4419.102539,4526.922852,4552.05127,4420.384766,4527.563965,4560.128418,4413.205078,4601.538574,4418.333496,4498.589844,4539.743652,4589.102539,4401.666504,4405.512695,4512.179688,4562.94873,4550.256348,4537.820313,4407.563965,4422.563965,4594.871582,4549.487305,4516.282227,4420.897461,4598.333496,4418.589844,4578.461426,4528.589844,4413.717773,4556.282227,4532.820313,2917.0,1.0,22.0,2561.0,16907.0,,,,0.0,4.0,4.0,4.0,4.0,4.0,4.0,4.0,4.0,4.0,4.0,4.0,4.0,4.0,4.0,4.0,4.0,4.0,4.0,4.0,4.0,4.0,4.0,4.0,4.0,4.0,4.0,4.0,4.0,4.0,4.0,4.0,4.0,100.0,,,,,,,,,,,,,,,,,,,,,,,,,,,,,,,,,,,,,,,,,,,,,,,,,,,,,,,,,,,,,,,,,,,,,,,,,,,,,,,,,,,,,,,,,,,,,,,,,,,,,,,,,,,,,,,,,,,,,,,,,,,,,,,,,,,,,,,,,,,,,,,,,,,,,,,,,,,,,,,,,,,,,,,,,,,,,,,,,,,,,,,,,,,,,,,,,,,,,,,,,,,,,,
1763973772.110906,38521.0,0.0,4410.897461,4412.436035,4519.615234,4543.077148,4409.871582,4520.897461,4552.436035,4402.692383,4591.794922,4404.743652,4490.512695,4531.666504,4584.102539,4391.794922,4395.897461,4516.538574,4557.436035,4546.538574,4532.820313,4395.512695,4413.589844,4588.205078,4540.897461,4508.461426,4412.820313,4588.461426,4408.589844,4572.307617,4521.666504,4405.512695,4543.846191,4522.692383,2839.0,1.0,22.0,2561.0,16907.0,,,,0.0,4.0,4.0,4.0,4.0,4.0,4.0,4.0,4.0,4.0,4.0,4.0,4.0,4.0,4.0,4.0,4.0,4.0,4.0,4.0,4.0,4.0,4.0,4.0,4.0,4.0,4.0,4.0,4.0,4.0,4.0,4.0,4.0,100.0,,,,,,,,,,,,,,,,,,,,,,,,,,,,,,,,,,,58782.0,0.0,0.660132,0.287781,0.245728,0.648865,1.006471,-0.01172,-0.062019,28.166666,-25.5,-25.0,,,,,,,,,,,,,,,,,,,,,,,,,,,,,,,,,,,,,,,,,,,,,,,,,,,,,,,,,,,,,,,,,,,,,,,,,,,,,,,,,,,,,,,,,,,,,,,,,,,,,,,,,,,,,,,,,,,,,,,,,,,,,,,,,,,,,,,,,,,,,,,,,,,,,,,,,,,,,,,,
1763973772.114812,38522.0,0.0,4398.333496,4403.717773,4510.512695,4526.410156,4397.820313,4513.589844,4541.666504,4390.128418,4577.05127,4382.94873,4480.384766,4521.410156,4578.717773,4383.077148,4384.487305,4521.794922,4552.307617,4543.717773,4523.461426,4381.922852,4397.563965,4576.282227,4528.589844,4496.410156,4399.743652,4575.0,4396.538574,4561.666504,4513.846191,4396.025879,4528.333496,4507.307617,2813.0,1.0,22.0,2304.0,16915.0,,,,0.0,4.0,4.0,4.0,4.0,4.0,4.0,4.0,4.0,4.0,4.0,4.0,4.0,4.0,4.0,4.0,4.0,4.0,4.0,4.0,4.0,4.0,4.0,4.0,4.0,4.0,4.0,4.0,4.0,4.0,4.0,4.0,4.0,100.0,,,,,,,,,,,,,,,,,,,,,,,,,,,,,,,,,,,,,,,,,,,,,,,,,,,,,,,,,,,,,,,,,,,,,,,,,,,,,,,,,,,,,,,,,,,,,,,,,,,,,,,,,,,,,,,,,,,,,,,,,,,,,,,,,,,,,,,,,,,,,,,,,,,,,,,,,,,,,,,,,,,,,,,,,,,,,,,,,,,,,,,,,,,,,,,,,,,,,,,,,,,,,,
1763973772.118718,38523.0,0.0,4388.974121,4398.846191,4502.436035,4509.743652,4390.128418,4509.615234,4534.743652,4382.307617,4564.487305,4365.512695,4473.717773,4515.769043,4577.94873,4380.769043,4376.282227,4528.717773,4550.897461,4543.717773,4514.615234,4373.846191,4382.94873,4565.641113,4520.256348,4486.282227,4387.94873,4564.358887,4388.205078,4552.563965,4509.615234,4390.384766,4517.179688,4493.205078,3017.0,1.0,22.0,2304.0,16915.0,,,,0.0,4.0,4.0,4.0,4.0,4.0,4.0,4.0,4.0,4.0,4.0,4.0,4.0,4.0,4.0,4.0,4.0,4.0,4.0,4.0,4.0,4.0,4.0,4.0,4.0,4.0,4.0,4.0,4.0,4.0,4.0,4.0,4.0,100.0,,,,,,,,,,,,,,,,,,,,,,,,,,,,,,,,,,,,,,,,,,,,,,,,,,,,,,,,,,,,,,,,,,,,,,,,,,,,,,,,,,,,,,,,,,,,,,,,,,,,,,,,,,,,,,,,,,,,,,,,,,,,,,,,,,,,,,,,,,,,,,,,,,,,,,,,,,,,,,,,,,,,,,,,,,,,,,,,,,,,,,,,,,,,,,,,,,,,,,,,,,,,,,
1763973772.122624,38524.0,0.0,4387.692383,4400.897461,4497.05127,4501.025879,4388.974121,4511.153809,4535.641113,4383.205078,4560.128418,4363.205078,4473.461426,4518.205078,4582.820313,4386.410156,4374.871582,4536.025879,4553.333496,4545.897461,4511.410156,4373.974121,4377.820313,4562.436035,4520.641113,4483.717773,4383.589844,4561.153809,4387.436035,4549.871582,4510.384766,4390.897461,4514.615234,4487.179688,2974.0,1.0,22.0,1280.0,16922.0,,,,0.0,4.0,4.0,4.0,4.0,4.0,4.0,4.0,4.0,4.0,4.0,4.0,4.0,4.0,4.0,4.0,4.0,4.0,4.0,4.0,4.0,4.0,4.0,4.0,4.0,4.0,4.0,4.0,4.0,4.0,4.0,4.0,4.0,100.0,,,,,,,,,,,,,,,,,,,,,,,,,,,,,,,,,,,,,,,,,,,,,,,,,,,,,,,,,,,,,,,,,,,,,,,,,,,,,,,,,,,,,,,,,,,,,,,,,,,,,,,,,,,,,,,,,,,,,,,,,,,,,,,,,,,,,,,,,,,,,,,,,,,,,,,,,,,,,,,,,,,,,,,,,,,,,,,,,,,,,,,,,,,,,,,,,,,,,,,,,,,,,,
1763973772.12653,38525.0,0.0,4393.974121,4408.333496,4495.384766,4503.846191,4392.94873,4516.538574,4542.692383,4390.897461,4564.743652,4378.077148,4478.589844,4526.666504,4590.0,4396.922852,4380.384766,4540.769043,4557.692383,4548.461426,4515.384766,4380.384766,4384.230957,4567.436035,4528.333496,4490.128418,4388.717773,4565.128418,4393.589844,4554.230957,4514.358887,4396.153809,4520.128418,4491.794922,2814.0,1.0,22.0,1280.0,16922.0,,,,0.0,4.0,4.0,4.0,4.0,4.0,4.0,4.0,4.0,4.0,4.0,4.0,4.0,4.0,4.0,4.0,4.0,4.0,4.0,4.0,4.0,4.0,4.0,4.0,4.0,4.0,4.0,4.0,4.0,4.0,4.0,4.0,4.0,100.0,,,,,,,,,,,,,,,,,,,,,,,,,,,,,,,,,,,58783.0,0.0,0.660155,0.287781,0.245667,0.648865,1.005982,-0.000488,-0.063484,28.0,-25.166666,-24.333334,,,,,,,,,,,,,,,,,,,,,,,,,,,,,,,,,,,,,,,,,,,,,,,,,,,,,,,,,,,,,,,,,,,,,,,,,,,,,,,,,,,,,,,,,,,,,,,,,,,,,,,,,,,,,,,,,,,,,,,,,,,,,,,,,,,,,,,,,,,,,,,,,,,,,,,,,,,,,,,,
1763973772.130436,38526.0,0.0,4402.307617,4415.512695,4497.05127,4514.743652,4398.589844,4522.179688,4550.0,4399.615234,4573.717773,4400.0,4484.230957,4535.128418,4593.589844,4406.025879,4388.974121,4540.0,4560.769043,4550.0,4522.307617,4388.589844,4396.538574,4575.384766,4537.307617,4501.153809,4399.102539,4572.05127,4401.538574,4561.153809,4517.563965,4401.410156,4528.333496,4502.692383,3014.0,1.0,22.0,1280.0,16930.0,,,,0.0,4.0,4.0,4.0,4.0,4.0,4.0,4.0,4.0,4.0,4.0,4.0,4.0,4.0,4.0,4.0,4.0,4.0,4.0,4.0,4.0,4.0,4.0,4.0,4.0,4.0,4.0,4.0,4.0,4.0,4.0,4.0,4.0,100.0,,,,,,,,,,,,,,,,,,,,,,,,,,,,,,,,,,,,,,,,,,,,,,,,,,,,,,,,,,,,,,,,,,,,,,,,,,,,,,,,,,,,,,,,,,,,,,,,,,,,,,,,,,,,,,,,,,,,,,,,,,,,,,,,,,,,,,,,,,,,,,,,,,,,,,,,,,,,,,,,,,,,,,,,,,,,,,,,,,,,,,,,,,,,,,,,,,,,,,,,,,,,,,
1763973772.134342,38527.0,0.0,4405.641113,4416.666504,4499.615234,4525.128418,4402.692383,4524.102539,4551.153809,4403.077148,4580.256348,4413.461426,4485.641113,4537.692383,4589.743652,4407.563965,4395.0,4533.846191,4560.0,4549.615234,4525.512695,4393.461426,4405.641113,4579.230957,4540.512695,4508.974121,4406.794922,4576.153809,4405.512695,4564.487305,4516.666504,4402.05127,4532.94873,4511.282227,2923.0,1.0,22.0,1280.0,16930.0,,,,0.0,4.0,4.0,4.0,4.0,4.0,4.0,4.0,4.0,4.0,4.0,4.0,4.0,4.0,4.0,4.0,4.0,4.0,4.0,4.0,4.0,4.0,4.0,4.0,4.0,4.0,4.0,4.0,4.0,4.0,4.0,4.0,4.0,100.0,,,,,,,,,,,,,,,,,,,,,,,,,,,,,,,,,,,,,,,,,,,,,,,,,,,,,,,,,,,,,,,,,,,,,,,,,,,,,,,,,,,,,,,,,,,,,,,,,,,,,,,,,,,,,,,,,,,,,,,,,,,,,,,,,,,,,,,,,,,,,,,,,,,,,,,,,,,,,,,,,,,,,,,,,,,,,,,,,,,,,,,,,,,,,,,,,,,,,,,,,,,,,,
1763973772.138248,38528.0,0.0,4401.282227,4409.871582,4500.384766,4527.820313,4403.461426,4520.897461,4544.743652,4398.846191,4579.487305,4408.846191,4481.410156,4532.692383,4579.358887,4400.512695,4393.974121,4525.0,4555.256348,4547.05127,4521.153809,4392.563965,4405.769043,4575.897461,4535.256348,4508.717773,4406.025879,4574.102539,4402.436035,4560.641113,4510.897461,4396.538574,4530.769043,4510.769043,2824.0,1.0,22.0,256.0,16938.0,,,,0.0,4.0,4.0,4.0,4.0,4.0,4.0,4.0,4.0,4.0,4.0,4.0,4.0,4.0,4.0,4.0,4.0,4.0,4.0,4.0,4.0,4.0,4.0,4.0,4.0,4.0,4.0,4.0,4.0,4.0,4.0,4.0,4.0,100.0,,,,,,,,,,,,,,,,,,,,,,,,,,,,,,,,,,,,,,,,,,,,,,,,,,,,,,,,,,,,,,,,,,,,,,,,,,,,,,,,,,,,,,,,,,,,,,,,,,,,,,,,,,,,,,,,,,,,,,,,,,,,,,,,,,,,,,,,,,,,,,,,,,,,,,,,,,,,,,,,,,,,,,,,,,,,,,,,,,,,,,,,,,,,,,,,,,,,,,,,,,,,,,
1763973772.142154,38529.0,0.0,4392.05127,4399.358887,4498.205078,4522.307617,4401.410156,4514.871582,4535.0,4390.384766,4572.692383,4389.615234,4474.358887,4523.846191,4568.077148,4389.743652,4386.410156,4517.436035,4549.102539,4542.563965,4511.794922,4386.410156,4398.974121,4568.589844,4525.0,4502.179688,4398.461426,4567.820313,4394.871582,4552.563965,4503.333496,4387.692383,4524.102539,4501.282227,2956.0,1.0,22.0,256.0,16938.0,,,,0.0,4.0,4.0,4.0,4.0,4.0,4.0,4.0,4.0,4.0,4.0,4.0,4.0,4.0,4.0,4.0,4.0,4.0,4.0,4.0,4.0,4.0,4.0,4.0,4.0,4.0,4.0,4.0,4.0,4.0,4.0,4.0,4.0,100.0,,,,,,,,,,,,,,,,,,,,,,,,,,,,,,,,,,,58784.0,0.0,0.660159,0.28772,0.245728,0.648865,1.012819,-0.016115,-0.054206,28.0,-25.166666,-24.333334,,,,,,,,,,,,,,,,,,,,,,,,,,,,,,,,,,,,,,,,,,,,,,,,,,,,,,,,,,,,,,,,,,,,,,,,,,,,,,,,,,,,,,,,,,,,,,,,,,,,,,,,,,,,,,,,,,,,,,,,,,,,,,,,,,,,,,,,,,,,,,,,,,,,,,,,,,,,,,,,
1763973772.14606,38530.0,0.0,4384.743652,4391.922852,4495.512695,4515.384766,4398.717773,4510.769043,4529.358887,4384.102539,4565.641113,4370.897461,4470.128418,4517.179688,4562.436035,4382.94873,4377.692383,4513.205078,4545.512695,4537.179688,4505.0,4379.230957,4392.692383,4563.974121,4517.05127,4495.897461,4391.794922,4562.94873,4388.974121,4547.563965,4499.102539,4381.666504,4518.589844,4490.128418,2275.0,1.0,22.0,256.0,16946.0,,,,0.0,4.0,4.0,4.0,4.0,4.0,4.0,4.0,4.0,4.0,4.0,4.0,4.0,4.0,4.0,4.0,4.0,4.0,4.0,4.0,4.0,4.0,4.0,4.0,4.0,4.0,4.0,4.0,4.0,4.0,4.0,4.0,4.0,100.0,,,,,,,,,,,,,,,,,,,,,,,,,,,,,,,,,,,,,,,,,,,,,,,,,,,,,,,,,,,,,,,,,,,,,,,,,,,,,,,,,,,,,,,,,,,,,,,,,,,,,,,,,,,,,,,,,,,,,,,,,,,,,,,,,,,,,,,,,,,,,,,,,,,,,,,,,,,,,,,,,,,,,,,,,,,,,,,,,,,,,,,,,,,,,,,,,,,,,,,,,,,,,,
1763973772.149966,38531.0,0.0,4384.487305,4392.94873,4496.025879,4515.384766,4398.333496,4512.179688,4532.307617,4385.384766,4564.615234,4367.05127,4472.820313,4517.307617,4565.641113,4385.256348,4374.743652,4511.922852,4547.05127,4533.205078,4506.538574,4376.666504,4393.589844,4567.307617,4517.05127,4496.410156,4393.461426,4565.0,4390.256348,4551.153809,4502.05127,4383.717773,4519.615234,4486.282227,2943.0,1.0,22.0,256.0,16946.0,,,,0.0,4.0,4.0,4.0,4.0,4.0,4.0,4.0,4.0,4.0,4.0,4.0,4.0,4.0,4.0,4.0,4.0,4.0,4.0,4.0,4.0,4.0,4.0,4.0,4.0,4.0,4.0,4.0,4.0,4.0,4.0,4.0,4.0,100.0,,,,,,,,,,,,,,,,,,,,,,,,,,,,,,,,,,,,,,,,,,,,,,,,,,,,,,,,,,,,,,,,,,,,,,,,,,,,,,,,,,,,,,,,,,,,,,,,,,,,,,,,,,,,,,,,,,,,,,,,,,,,,,,,,,,,,,,,,,,,,,,,,,,,,,,,,,,,,,,,,,,,,,,,,,,,,,,,,,,,,,,,,,,,,,,,,,,,,,,,,,,,,,
1763973772.153772,38532.0,0.0,4392.05127,4402.563965,4501.538574,4524.743652,4401.666504,4518.974121,4542.563965,4394.230957,4571.794922,4382.307617,4482.05127,4523.846191,4575.769043,4395.641113,4381.282227,4511.794922,4553.717773,4533.205078,4516.538574,4382.563965,4402.563965,4578.461426,4525.769043,4505.128418,4405.128418,4574.487305,4399.487305,4562.94873,4512.05127,4394.358887,4528.077148,4492.94873,2854.0,1.0,22.0,256.0,16954.0,,,,0.0,4.0,4.0,4.0,4.0,4.0,4.0,4.0,4.0,4.0,4.0,4.0,4.0,4.0,4.0,4.0,4.0,4.0,4.0,4.0,4.0,4.0,4.0,4.0,4.0,4.0,4.0,4.0,4.0,4.0,4.0,4.0,4.0,100.0,,,,,,,,,,,,,,,,,,,,,,,,,,,,,,,,,,,,,,,,,,,,,,,,,,,,,,,,,,,,,,,,,,,,,,,,,,,,,,,,,,,,,,,,,,,,,,,,,,,,,,,,,,,,,,,,,,,,,,,,,,,,,,,,,,,,,,,,,,,,,,,,,,,,,,,,,,,,,,,,,,,,,,,,,,,,,,,,,,,,,,,,,,,,,,,,,,,,,,,,,,,,,,
1763973772.157677,38533.0,0.0,4402.436035,4414.871582,4510.0,4537.820313,4407.307617,4527.05127,4553.846191,4405.512695,4582.820313,4406.666504,4492.692383,4532.179688,4586.922852,4408.077148,4395.128418,4512.563965,4562.179688,4538.974121,4530.0,4395.769043,4414.487305,4591.922852,4538.205078,4517.94873,4420.897461,4586.794922,4412.179688,4576.410156,4523.846191,4407.563965,4540.512695,4506.153809,2405.0,1.0,22.0,256.0,16954.0,,,,0.0,4.0,4.0,4.0,4.0,4.0,4.0,4.0,4.0,4.0,4.0,4.0,4.0,4.0,4.0,4.0,4.0,4.0,4.0,4.0,4.0,4.0,4.0,4.0,4.0,4.0,4.0,4.0,4.0,4.0,4.0,4.0,4.0,100.0,,,,,,,,,,,,,,,,,,,,,,,,,,,,,,,,,,,58785.0,0.0,0.660143,0.287842,0.245789,0.648804,0.990844,-0.010743,-0.071298,28.166666,-25.5,-24.166666,,,,,,,,,,,,,,,,,,,,,,,,,,,,,,,,,,,,,,,,,,,,,,,,,,,,,,,,,,,,,,,,,,,,,,,,,,,,,,,,,,,,,,,,,,,,,,,,,,,,,,,,,,,,,,,,,,,,,,,,,,,,,,,,,,,,,,,,,,,,,,,,,,,,,,,,,,,,,,,,
1763973772.161683,38534.0,0.0,4409.102539,4421.666504,4515.897461,4544.743652,4411.025879,4530.384766,4558.461426,4411.666504,4589.743652,4423.974121,4498.333496,4536.666504,4592.820313,4414.743652,4408.333496,4514.615234,4567.692383,4548.461426,4540.512695,4409.743652,4422.563965,4600.641113,4546.922852,4527.05127,4431.282227,4594.615234,4420.641113,4583.589844,4529.871582,4415.128418,4550.128418,4516.282227,2945.0,1.0,22.0,512.0,16962.0,,,,0.0,4.0,4.0,4.0,4.0,4.0,4.0,4.0,4.0,4.0,4.0,4.0,4.0,4.0,4.0,4.0,4.0,4.0,4.0,4.0,4.0,4.0,4.0,4.0,4.0,4.0,4.0,4.0,4.0,4.0,4.0,4.0,4.0,100.0,,,,,,,,,,,,,,,,,,,,,,,,,,,,,,,,,,,,,,,,,,,,,,,,,,,,,,,,,,,,,,,,,,,,,,,,,,,,,,,,,,,,,,,,,,,,,,,,,,,,,,,,,,,,,,,,,,,,,,,,,,,,,,,,,,,,,,,,,,,,,,,,,,,,,,,,,,,,,,,,,,,,,,,,,,,,,,,,,,,,,,,,,,,,,,,,,,,,,,,,,,,,,,
1763973772.165589,38535.0,0.0,4406.922852,4417.563965,4514.615234,4539.487305,4408.846191,4525.897461,4552.307617,4407.692383,4586.410156,4422.436035,4494.743652,4533.205078,4590.0,4411.538574,4412.692383,4517.692383,4566.410156,4556.282227,4542.820313,4415.128418,4421.922852,4599.743652,4545.641113,4526.282227,4429.230957,4592.94873,4419.102539,4580.256348,4525.384766,4411.538574,4550.641113,4515.769043,2954.0,1.0,22.0,512.0,16962.0,,,,0.0,4.0,4.0,4.0,4.0,4.0,4.0,4.0,4.0,4.0,4.0,4.0,4.0,4.0,4.0,4.0,4.0,4.0,4.0,4.0,4.0,4.0,4.0,4.0,4.0,4.0,4.0,4.0,4.0,4.0,4.0,4.0,4.0,100.0,,,,,,,,,,,,,,,,,,,,,,,,,,,,,,,,,,,,,,,,,,,,,,,,,,,,,,,,,,,,,,,,,,,,,,,,,,,,,,,,,,,,,,,,,,,,,,,,,,,,,,,,,,,,,,,,,,,,,,,,,,,,,,,,,,,,,,,,,,,,,,,,,,,,,,,,,,,,,,,,,,,,,,,,,,,,,,,,,,,,,,,,,,,,,,,,,,,,,,,,,,,,,,
1763973772.169495,38536.0,0.0,4396.410156,4404.358887,4505.384766,4524.358887,4400.512695,4515.0,4537.436035,4394.102539,4573.589844,4403.077148,4482.94873,4522.05127,4579.230957,4400.128418,4404.743652,4519.487305,4557.563965,4556.666504,4536.538574,4408.077148,4413.333496,4589.871582,4533.974121,4515.512695,4415.512695,4582.436035,4407.563965,4568.333496,4512.179688,4398.589844,4541.025879,4504.358887,2678.0,1.0,22.0,768.0,16969.0,,,,0.0,4.0,4.0,4.0,4.0,4.0,4.0,4.0,4.0,4.0,4.0,4.0,4.0,4.0,4.0,4.0,4.0,4.0,4.0,4.0,4.0,4.0,4.0,4.0,4.0,4.0,4.0,4.0,4.0,4.0,4.0,4.0,4.0,100.0,,,,,,,,,,,,,,,,,,,,,,,,,,,,,,,,,,,,,,,,,,,,,,,,,,,,,,,,,,,,,,,,,,,,,,,,,,,,,,,,,,,,,,,,,,,,,,,,,,,,,,,,,,,,,,,,,,,,,,,,,,,,,,,,,,,,,,,,,,,,,,,,,,,,,,,,,,,,,,,,,,,,,,,,,,,,,,,,,,,,,,,,,,,,,,,,,,,,,,,,,,,,,,
1763973772.173401,38537.0,0.0,4382.94873,4389.358887,4492.436035,4508.846191,4390.512695,4503.461426,4521.282227,4377.820313,4558.974121,4379.358887,4469.230957,4507.307617,4565.0,4387.307617,4388.846191,4517.05127,4544.743652,4548.846191,4525.384766,4392.563965,4401.538574,4576.153809,4517.436035,4500.128418,4397.94873,4569.230957,4392.692383,4554.358887,4497.563965,4383.846191,4526.538574,4489.230957,2845.0,1.0,22.0,768.0,16969.0,,,,0.0,4.0,4.0,4.0,4.0,4.0,4.0,4.0,4.0,4.0,4.0,4.0,4.0,4.0,4.0,4.0,4.0,4.0,4.0,4.0,4.0,4.0,4.0,4.0,4.0,4.0,4.0,4.0,4.0,4.0,4.0,4.0,4.0,100.0,,,,,,,,,,,,,,,,,,,,,,,,,,,,,,,,,,,58786.0,0.0,0.660143,0.287842,0.245789,0.648804,1.000122,-0.00293,-0.064949,28.333334,-24.833334,-23.0,,,,,,,,,,,,,,,,,,,,,,,,,,,,,,,,,,,,,,,,,,,,,,,,,,,,,,,,,,,,,,,,,,,,,,,,,,,,,,,,,,,,,,,,,,,,,,,,,,,,,,,,,,,,,,,,,,,,,,,,,,,,,,,,,,,,,,,,,,,,,,,,,,,,,,,,,,,,,,,,
1763973772.177307,38538.0,0.0,4373.333496,4380.128418,4482.563965,4502.563965,4384.358887,4497.179688,4511.666504,4367.820313,4551.410156,4366.153809,4460.512695,4495.512695,4552.94873,4380.512695,4374.358887,4509.871582,4533.846191,4538.077148,4516.282227,4378.974121,4392.94873,4565.512695,4504.487305,4488.077148,4386.282227,4561.025879,4382.820313,4545.384766,4489.230957,4375.641113,4515.769043,4479.871582,2681.0,1.0,22.0,1024.0,16977.0,,,,0.0,4.0,4.0,4.0,4.0,4.0,4.0,4.0,4.0,4.0,4.0,4.0,4.0,4.0,4.0,4.0,4.0,4.0,4.0,4.0,4.0,4.0,4.0,4.0,4.0,4.0,4.0,4.0,4.0,4.0,4.0,4.0,4.0,100.0,,,,,,,,,,,,,,,,,,,,,,,,,,,,,,,,,,,,,,,,,,,,,,,,,,,,,,,,,,,,,,,,,,,,,,,,,,,,,,,,,,,,,,,,,,,,,,,,,,,,,,,,,,,,,,,,,,,,,,,,,,,,,,,,,,,,,,,,,,,,,,,,,,,,,,,,,,,,,,,,,,,,,,,,,,,,,,,,,,,,,,,,,,,,,,,,,,,,,,,,,,,,,,
1763973772.181213,38539.0,0.0,4371.538574,4379.871582,4480.897461,4507.94873,4384.487305,4498.333496,4512.436035,4368.333496,4553.461426,4369.358887,4461.025879,4491.025879,4546.922852,4383.077148,4369.230957,4501.410156,4529.487305,4531.410156,4513.589844,4374.871582,4391.410156,4561.538574,4501.025879,4484.615234,4385.769043,4561.666504,4383.205078,4544.743652,4490.128418,4377.692383,4515.0,4481.025879,2994.0,1.0,22.0,1024.0,16977.0,,,,0.0,4.0,4.0,4.0,4.0,4.0,4.0,4.0,4.0,4.0,4.0,4.0,4.0,4.0,4.0,4.0,4.0,4.0,4.0,4.0,4.0,4.0,4.0,4.0,4.0,4.0,4.0,4.0,4.0,4.0,4.0,4.0,4.0,100.0,,,,,,,,,,,,,,,,,,,,,,,,,,,,,,,,,,,,,,,,,,,,,,,,,,,,,,,,,,,,,,,,,,,,,,,,,,,,,,,,,,,,,,,,,,,,,,,,,,,,,,,,,,,,,,,,,,,,,,,,,,,,,,,,,,,,,,,,,,,,,,,,,,,,,,,,,,,,,,,,,,,,,,,,,,,,,,,,,,,,,,,,,,,,,,,,,,,,,,,,,,,,,,
1763973772.185119,38540.0,0.0,4376.282227,4386.153809,4487.307617,4518.205078,4388.846191,4504.358887,4520.641113,4376.410156,4560.641113,4382.436035,4468.589844,4493.846191,4547.692383,4391.538574,4374.230957,4496.025879,4531.538574,4531.794922,4516.922852,4380.897461,4395.897461,4563.717773,4506.410156,4489.102539,4393.974121,4569.102539,4392.563965,4550.512695,4497.563965,4387.05127,4523.205078,4489.615234,2957.0,1.0,22.0,1280.0,16985.0,,,,0.0,4.0,4.0,4.0,4.0,4.0,4.0,4.0,4.0,4.0,4.0,4.0,4.0,4.0,4.0,4.0,4.0,4.0,4.0,4.0,4.0,4.0,4.0,4.0,4.0,4.0,4.0,4.0,4.0,4.0,4.0,4.0,4.0,100.0,,,,,,,,,,,,,,,,,,,,,,,,,,,,,,,,,,,,,,,,,,,,,,,,,,,,,,,,,,,,,,,,,,,,,,,,,,,,,,,,,,,,,,,,,,,,,,,,,,,,,,,,,,,,,,,,,,,,,,,,,,,,,,,,,,,,,,,,,,,,,,,,,,,,,,,,,,,,,,,,,,,,,,,,,,,,,,,,,,,,,,,,,,,,,,,,,,,,,,,,,,,,,,
1763973772.189025,38541.0,0.0,4382.563965,4393.717773,4496.666504,4524.102539,4393.333496,4510.384766,4529.743652,4385.256348,4566.153809,4393.205078,4477.179688,4500.0,4552.436035,4399.230957,4383.333496,4496.025879,4536.410156,4535.897461,4522.05127,4390.769043,4401.922852,4567.692383,4515.384766,4496.922852,4404.615234,4577.307617,4404.487305,4558.333496,4506.282227,4398.077148,4534.615234,4499.102539,2809.0,1.0,22.0,1280.0,16985.0,,,,0.0,4.0,4.0,4.0,4.0,4.0,4.0,4.0,4.0,4.0,4.0,4.0,4.0,4.0,4.0,4.0,4.0,4.0,4.0,4.0,4.0,4.0,4.0,4.0,4.0,4.0,4.0,4.0,4.0,4.0,4.0,4.0,4.0,100.0,,,,,,,,,,,,,,,,,,,,,,,,,,,,,,,,,,,58787.0,0.0,0.660182,0.28772,0.245667,0.648865,0.997192,0.002442,-0.062019,28.5,-25.5,-25.333334,,,,,,,,,,,,,,,,,,,,,,,,,,,,,,,,,,,,,,,,,,,,,,,,,,,,,,,,,,,,,,,,,,,,,,,,,,,,,,,,,,,,,,,,,,,,,,,,,,,,,,,,,,,,,,,,,,,,,,,,,,,,,,,,,,,,,,,,,,,,,,,,,,,,,,,,,,,,,,,,
1763973772.192931,38542.0,0.0,4386.794922,4398.589844,4503.589844,4521.538574,4395.256348,4513.461426,4534.487305,4389.615234,4566.410156,4394.230957,4481.922852,4505.384766,4558.205078,4401.410156,4389.230957,4500.384766,4540.897461,4538.717773,4525.128418,4397.563965,4405.256348,4571.153809,4522.563965,4503.717773,4412.05127,4582.179688,4413.077148,4564.743652,4512.436035,4406.410156,4542.94873,4505.256348,2760.0,1.0,22.0,1536.0,16993.0,,,,0.0,4.0,4.0,4.0,4.0,4.0,4.0,4.0,4.0,4.0,4.0,4.0,4.0,4.0,4.0,4.0,4.0,4.0,4.0,4.0,4.0,4.0,4.0,4.0,4.0,4.0,4.0,4.0,4.0,4.0,4.0,4.0,4.0,100.0,1.0,66.666664,4.0,4.0,4.0,4.0,4.0,4.0,4.0,4.0,4.0,3.0,4.0,4.0,4.0,4.0,4.0,1.0,4.0,4.0,4.0,4.0,4.0,4.0,4.0,4.0,4.0,4.0,4.0,4.0,4.0,4.0,4.0,4.0,,,,,,,,,,,,,4.517734,1.064423,0.41335,0.587193,1.111803,4.685392,0.957902,1.510047,0.755737,1.250393,4.959193,1.031397,0.445728,0.760877,1.237379,2.264544,0.565754,0.805125,0.503049,1.110168,2.319416,0.477438,0.491782,0.306752,0.901033,2.276149,0.253902,0.351721,0.323852,0.785037,2.628512,0.86393,0.678092,0.579424,1.178305,2.650081,0.60071,0.597679,0.578943,1.251122,1.856518,0.352946,0.771807,0.541138,1.091946,1.075875,0.86595,1.535891,2.541665,1.862114,2.139997,0.197355,0.486129,0.331132,1.039664,4.70101,1.022324,0.764663,0.490776,1.301506,3.925274,1.677583,1.58511,0.58139,1.422969,0.527104,0.382274,0.633654,0.324177,1.286363,1.201158,1.173389,0.75763,0.362339,1.311801,1.856001,0.673317,0.979873,0.950924,2.970755,4.374263,3.572221,1.170424,0.54386,1.102771,1.730847,1.17787,0.883352,0.408436,1.633836,1.600246,1.849476,0.706128,0.646509,2.185813,1.25317,2.102685,0.425104,0.343723,1.379616,2.144515,2.740016,0.805849,0.495882,1.30402,4.271006,7.138517,1.50098,0.693913,1.531197,6.158689,4.165849,0.874751,0.525916,1.323396,3.6148,4.160708,1.001377,0.546081,1.439635,4.352352,2.347648,1.244202,0.466273,1.203785,3.010372,1.252301,0.853969,0.527543,1.120095,6.105521,1.458477,1.270408,0.606095,1.15921,5.193192,2.921776,0.869601,0.509207,1.078848,6.528955,1.5413,0.865119,0.573464,1.017484,5.49413,1.018249,0.948524,0.436314,1.131941,5.699603,0.957474,1.192873,0.634108,1.059881,5.26739,0.812696,0.892121,0.6095,1.064968
1763973772.196837,38543.0,0.0,4388.974121,4400.641113,4506.282227,4514.102539,4395.0,4514.615234,4534.743652,4389.615234,4563.077148,4387.94873,4482.94873,4508.717773,4563.589844,4398.717773,4389.615234,4507.05127,4543.974121,4538.846191,4525.512695,4398.717773,4405.897461,4574.358887,4526.538574,4507.563965,4415.256348,4583.589844,4415.641113,4568.974121,4515.641113,4411.282227,4545.897461,4507.94873,2816.0,1.0,22.0,1536.0,16993.0,,,,0.0,4.0,4.0,4.0,4.0,4.0,4.0,4.0,4.0,4.0,4.0,4.0,4.0,4.0,4.0,4.0,4.0,4.0,4.0,4.0,4.0,4.0,4.0,4.0,4.0,4.0,4.0,4.0,4.0,4.0,4.0,4.0,4.0,100.0,,,,,,,,,,,,,,,,,,,,,,,,,,,,,,,,,,,,,,,,,,,,,,,,,,,,,,,,,,,,,,,,,,,,,,,,,,,,,,,,,,,,,,,,,,,,,,,,,,,,,,,,,,,,,,,,,,,,,,,,,,,,,,,,,,,,,,,,,,,,,,,,,,,,,,,,,,,,,,,,,,,,,,,,,,,,,,,,,,,,,,,,,,,,,,,,,,,,,,,,,,,,,,
1763973772.200744,38544.0,0.0,4391.153809,4401.794922,4506.538574,4509.102539,4394.487305,4516.282227,4533.333496,4388.333496,4560.128418,4382.05127,4483.077148,4511.025879,4567.94873,4395.128418,4386.922852,4513.077148,4546.922852,4537.94873,4524.871582,4396.025879,4405.641113,4578.461426,4528.589844,4508.846191,4415.769043,4584.230957,4413.846191,4571.282227,4516.922852,4413.717773,4544.487305,4508.974121,2931.0,1.0,22.0,1792.0,17001.0,,,,0.0,4.0,4.0,4.0,4.0,4.0,4.0,4.0,4.0,4.0,4.0,4.0,4.0,4.0,4.0,4.0,4.0,4.0,4.0,4.0,4.0,4.0,4.0,4.0,4.0,4.0,4.0,4.0,4.0,4.0,4.0,4.0,4.0,100.0,,,,,,,,,,,,,,,,,,,,,,,,,,,,,,,,,,,,,,,,,,,,,,,,,,,,,,,,,,,,,,,,,,,,,,,,,,,,,,,,,,,,,,,,,,,,,,,,,,,,,,,,,,,,,,,,,,,,,,,,,,,,,,,,,,,,,,,,,,,,,,,,,,,,,,,,,,,,,,,,,,,,,,,,,,,,,,,,,,,,,,,,,,,,,,,,,,,,,,,,,,,,,,
1763973772.20465,38545.0,0.0,4393.205078,4402.820313,4505.769043,4510.128418,4394.358887,4519.230957,4532.436035,4387.820313,4558.717773,4380.512695,4484.230957,4512.94873,4570.256348,4393.205078,4384.487305,4515.769043,4549.487305,4537.563965,4523.717773,4392.563965,4405.641113,4582.692383,4530.0,4507.692383,4414.487305,4584.871582,4410.128418,4571.282227,4516.282227,4413.589844,4540.384766,4508.205078,3048.0,1.0,22.0,1792.0,17001.0,,,,0.0,4.0,4.0,4.0,4.0,4.0,4.0,4.0,4.0,4.0,4.0,4.0,4.0,4.0,4.0,4.0,4.0,4.0,4.0,4.0,4.0,4.0,4.0,4.0,4.0,4.0,4.0,4.0,4.0,4.0,4.0,4.0,4.0,100.0,,,,,,,,,,,,,,,,,,,,,,,,,,,,,,,,,,,58788.0,0.0,0.66028,0.287598,0.245544,0.648865,0.992309,-0.02344,-0.039067,27.5,-25.166666,-26.0,,,,,,,,,,,,,,,,,,,,,,,,,,,,,,,,,,,,,,,,,,,,,,,,,,,,,,,,,,,,,,,,,,,,,,,,,,,,,,,,,,,,,,,,,,,,,,,,,,,,,,,,,,,,,,,,,,,,,,,,,,,,,,,,,,,,,,,,,,,,,,,,,,,,,,,,,,,,,,,,
1763973772.208556,38546.0,0.0,4393.974121,4402.436035,4504.358887,4514.871582,4394.871582,4521.538574,4532.820313,4387.563965,4557.94873,4381.025879,4486.025879,4514.487305,4569.871582,4392.820313,4383.333496,4513.974121,4550.641113,4537.179688,4522.436035,4391.153809,4405.384766,4583.974121,4531.025879,4504.487305,4411.153809,4583.974121,4406.538574,4568.333496,4513.461426,4411.153809,4535.384766,4504.871582,2834.0,1.0,22.0,2048.0,17008.0,,,,0.0,4.0,4.0,4.0,4.0,4.0,4.0,4.0,4.0,4.0,4.0,4.0,4.0,4.0,4.0,4.0,4.0,4.0,4.0,4.0,4.0,4.0,4.0,4.0,4.0,4.0,4.0,4.0,4.0,4.0,4.0,4.0,4.0,100.0,,,,,,,,,,,,,,,,,,,,,,,,,,,,,,,,,,,,,,,,,,,,,,,,,,,,,,,,,,,,,,,,,,,,,,,,,,,,,,,,,,,,,,,,,,,,,,,,,,,,,,,,,,,,,,,,,,,,,,,,,,,,,,,,,,,,,,,,,,,,,,,,,,,,,,,,,,,,,,,,,,,,,,,,,,,,,,,,,,,,,,,,,,,,,,,,,,,,,,,,,,,,,,
1763973772.212462,38547.0,0.0,4393.846191,4401.538574,4503.461426,4519.358887,4397.179688,4522.94873,4534.743652,4387.436035,4557.692383,4380.0,4488.205078,4516.922852,4569.102539,4393.846191,4383.974121,4511.025879,4550.897461,4537.307617,4522.692383,4393.589844,4405.128418,4582.05127,4532.820313,4502.179688,4407.307617,4581.282227,4405.256348,4565.384766,4510.0,4409.102539,4532.563965,4501.153809,3024.0,1.0,22.0,2048.0,17008.0,,,,0.0,4.0,4.0,4.0,4.0,4.0,4.0,4.0,4.0,4.0,4.0,4.0,4.0,4.0,4.0,4.0,4.0,4.0,4.0,4.0,4.0,4.0,4.0,4.0,4.0,4.0,4.0,4.0,4.0,4.0,4.0,4.0,4.0,100.0,,,,,,,,,,,,,,,,,,,,,,,,,,,,,,,,,,,,,,,,,,,,,,,,,,,,,,,,,,,,,,,,,,,,,,,,,,,,,,,,,,,,,,,,,,,,,,,,,,,,,,,,,,,,,,,,,,,,,,,,,,,,,,,,,,,,,,,,,,,,,,,,,,,,,,,,,,,,,,,,,,,,,,,,,,,,,,,,,,,,,,,,,,,,,,,,,,,,,,,,,,,,,,
1763973772.216368,38548.0,0.0,4396.410156,4403.717773,4506.666504,4522.820313,4404.102539,4526.025879,4539.871582,4390.0,4560.769043,4380.128418,4492.692383,4522.692383,4573.205078,4398.333496,4388.077148,4513.461426,4553.974121,4541.794922,4526.922852,4401.153809,4407.820313,4581.282227,4538.333496,4505.256348,4407.692383,4580.769043,4409.615234,4567.820313,4510.384766,4412.179688,4536.025879,4502.436035,2998.0,1.0,22.0,2304.0,17016.0,,,,0.0,4.0,4.0,4.0,4.0,4.0,4.0,4.0,4.0,4.0,4.0,4.0,4.0,4.0,4.0,4.0,4.0,4.0,4.0,4.0,4.0,4.0,4.0,4.0,4.0,4.0,4.0,4.0,4.0,4.0,4.0,4.0,4.0,100.0,,,,,,,,,,,,,,,,,,,,,,,,,,,,,,,,,,,,,,,,,,,,,,,,,,,,,,,,,,,,,,,,,,,,,,,,,,,,,,,,,,,,,,,,,,,,,,,,,,,,,,,,,,,,,,,,,,,,,,,,,,,,,,,,,,,,,,,,,,,,,,,,,,,,,,,,,,,,,,,,,,,,,,,,,,,,,,,,,,,,,,,,,,,,,,,,,,,,,,,,,,,,,,
1763973772.220274,38549.0,0.0,4405.0,4412.692383,4516.538574,4528.205078,4416.922852,4533.717773,4549.615234,4399.102539,4570.128418,4388.077148,4501.666504,4533.846191,4585.256348,4408.077148,4396.410156,4525.897461,4563.461426,4553.205078,4535.256348,4412.307617,4415.256348,4586.922852,4549.487305,4515.512695,4416.410156,4587.05127,4420.769043,4578.461426,4518.461426,4422.563965,4547.563965,4512.436035,2857.0,1.0,22.0,2304.0,17016.0,,,,0.0,4.0,4.0,4.0,4.0,4.0,4.0,4.0,4.0,4.0,4.0,4.0,4.0,4.0,4.0,4.0,4.0,4.0,4.0,4.0,4.0,4.0,4.0,4.0,4.0,4.0,4.0,4.0,4.0,4.0,4.0,4.0,4.0,100.0,,,,,,,,,,,,,,,,,,,,,,,,,,,,,,,,,,,58789.0,0.0,0.660285,0.287415,0.245422,0.648987,0.992309,-0.02344,-0.039067,28.166666,-23.833334,-24.5,,,,,,,,,,,,,,,,,,,,,,,,,,,,,,,,,,,,,,,,,,,,,,,,,,,,,,,,,,,,,,,,,,,,,,,,,,,,,,,,,,,,,,,,,,,,,,,,,,,,,,,,,,,,,,,,,,,,,,,,,,,,,,,,,,,,,,,,,,,,,,,,,,,,,,,,,,,,,,,,
1763973772.22418,38550.0,0.0,4417.563965,4426.410156,4530.641113,4537.179688,4431.794922,4544.871582,4561.538574,4413.589844,4584.871582,4406.538574,4513.205078,4547.820313,4601.922852,4420.256348,4405.769043,4544.487305,4577.563965,4567.563965,4542.94873,4421.025879,4424.871582,4598.589844,4563.077148,4528.717773,4430.641113,4598.974121,4434.615234,4593.589844,4532.820313,4436.410156,4562.563965,4528.205078,2988.0,1.0,22.0,2560.0,17024.0,,,,0.0,4.0,4.0,4.0,4.0,4.0,4.0,4.0,4.0,4.0,4.0,4.0,4.0,4.0,4.0,4.0,4.0,4.0,4.0,4.0,4.0,4.0,4.0,4.0,4.0,4.0,4.0,4.0,4.0,4.0,4.0,4.0,4.0,100.0,,,,,,,,,,,,,,,,,,,,,,,,,,,,,,,,,,,,,,,,,,,,,,,,,,,,,,,,,,,,,,,,,,,,,,,,,,,,,,,,,,,,,,,,,,,,,,,,,,,,,,,,,,,,,,,,,,,,,,,,,,,,,,,,,,,,,,,,,,,,,,,,,,,,,,,,,,,,,,,,,,,,,,,,,,,,,,,,,,,,,,,,,,,,,,,,,,,,,,,,,,,,,,
1763973772.228086,38551.0,0.0,4425.897461,4436.666504,4540.769043,4547.179688,4440.384766,4553.077148,4569.230957,4426.410156,4597.94873,4427.94873,4520.769043,4557.179688,4613.974121,4426.922852,4408.461426,4558.077148,4588.461426,4574.743652,4542.94873,4420.0,4429.230957,4607.820313,4571.025879,4535.641113,4440.641113,4608.333496,4442.436035,4603.205078,4545.128418,4445.128418,4571.666504,4540.256348,2944.0,1.0,22.0,2560.0,17024.0,,,,0.0,4.0,4.0,4.0,4.0,4.0,4.0,4.0,4.0,4.0,4.0,4.0,4.0,4.0,4.0,4.0,4.0,4.0,4.0,4.0,4.0,4.0,4.0,4.0,4.0,4.0,4.0,4.0,4.0,4.0,4.0,4.0,4.0,100.0,,,,,,,,,,,,,,,,,,,,,,,,,,,,,,,,,,,,,,,,,,,,,,,,,,,,,,,,,,,,,,,,,,,,,,,,,,,,,,,,,,,,,,,,,,,,,,,,,,,,,,,,,,,,,,,,,,,,,,,,,,,,,,,,,,,,,,,,,,,,,,,,,,,,,,,,,,,,,,,,,,,,,,,,,,,,,,,,,,,,,,,,,,,,,,,,,,,,,,,,,,,,,,
1763973772.231992,38552.0,0.0,4423.205078,4435.769043,4539.230957,4552.05127,4436.538574,4552.436035,4567.05127,4429.358887,4601.025879,4439.230957,4518.461426,4555.641113,4612.94873,4421.666504,4399.487305,4554.743652,4588.205078,4566.025879,4532.692383,4406.666504,4422.436035,4606.025879,4566.794922,4530.0,4437.179688,4606.410156,4438.205078,4599.358887,4546.538574,4441.922852,4567.94873,4540.0,2913.0,1.0,22.0,2560.0,17032.0,,,,0.0,4.0,4.0,4.0,4.0,4.0,4.0,4.0,4.0,4.0,4.0,4.0,4.0,4.0,4.0,4.0,4.0,4.0,4.0,4.0,4.0,4.0,4.0,4.0,4.0,4.0,4.0,4.0,4.0,4.0,4.0,4.0,4.0,100.0,,,,,,,,,,,,,,,,,,,,,,,,,,,,,,,,,,,,,,,,,,,,,,,,,,,,,,,,,,,,,,,,,,,,,,,,,,,,,,,,,,,,,,,,,,,,,,,,,,,,,,,,,,,,,,,,,,,,,,,,,,,,,,,,,,,,,,,,,,,,,,,,,,,,,,,,,,,,,,,,,,,,,,,,,,,,,,,,,,,,,,,,,,,,,,,,,,,,,,,,,,,,,,
1763973772.235898,38553.0,0.0,4410.256348,4423.717773,4526.410156,4548.717773,4422.307617,4543.077148,4555.641113,4420.897461,4592.436035,4432.563965,4507.179688,4543.333496,4599.102539,4405.384766,4381.025879,4532.820313,4576.025879,4544.102539,4517.05127,4386.410156,4406.025879,4591.794922,4551.922852,4513.717773,4420.384766,4592.307617,4423.333496,4583.717773,4535.512695,4428.461426,4552.94873,4527.179688,2844.0,1.0,22.0,2560.0,17032.0,,,,0.0,4.0,4.0,4.0,4.0,4.0,4.0,4.0,4.0,4.0,4.0,4.0,4.0,4.0,4.0,4.0,4.0,4.0,4.0,4.0,4.0,4.0,4.0,4.0,4.0,4.0,4.0,4.0,4.0,4.0,4.0,4.0,4.0,100.0,,,,,,,,,,,,,,,,,,,,,,,,,,,,,,,,,,,58790.0,0.0,0.660433,0.287231,0.245239,0.648987,1.011354,0.00586,-0.072763,27.5,-24.833334,-24.666666,,,,,,,,,,,,,,,,,,,,,,,,,,,,,,,,,,,,,,,,,,,,,,,,,,,,,,,,,,,,,,,,,,,,,,,,,,,,,,,,,,,,,,,,,,,,,,,,,,,,,,,,,,,,,,,,,,,,,,,,,,,,,,,,,,,,,,,,,,,,,,,,,,,,,,,,,,,,,,,,
1763973772.239804,38554.0,0.0,4396.025879,4409.102539,4511.794922,4539.871582,4407.179688,4531.538574,4542.94873,4408.077148,4579.615234,4414.102539,4494.487305,4527.820313,4581.410156,4387.307617,4362.94873,4503.589844,4559.615234,4522.307617,4505.897461,4370.641113,4388.974121,4574.230957,4535.769043,4496.666504,4400.769043,4575.384766,4407.436035,4566.538574,4519.487305,4414.358887,4537.179688,4511.282227,2817.0,1.0,22.0,2304.0,17040.0,,,,0.0,4.0,4.0,4.0,4.0,4.0,4.0,4.0,4.0,4.0,4.0,4.0,4.0,4.0,4.0,4.0,4.0,4.0,4.0,4.0,4.0,4.0,4.0,4.0,4.0,4.0,4.0,4.0,4.0,4.0,4.0,4.0,4.0,100.0,,,,,,,,,,,,,,,,,,,,,,,,,,,,,,,,,,,,,,,,,,,,,,,,,,,,,,,,,,,,,,,,,,,,,,,,,,,,,,,,,,,,,,,,,,,,,,,,,,,,,,,,,,,,,,,,,,,,,,,,,,,,,,,,,,,,,,,,,,,,,,,,,,,,,,,,,,,,,,,,,,,,,,,,,,,,,,,,,,,,,,,,,,,,,,,,,,,,,,,,,,,,,,
1763973772.24371,38555.0,0.0,4390.641113,4402.563965,4506.282227,4532.820313,4401.282227,4526.153809,4538.461426,4401.025879,4573.077148,4400.0,4489.871582,4519.358887,4571.666504,4378.205078,4355.641113,4484.743652,4550.256348,4515.128418,4506.025879,4368.461426,4381.153809,4565.0,4529.102539,4488.974121,4390.641113,4567.307617,4401.025879,4558.717773,4510.128418,4409.743652,4531.794922,4503.461426,3025.0,1.0,22.0,2304.0,17040.0,,,,0.0,4.0,4.0,4.0,4.0,4.0,4.0,4.0,4.0,4.0,4.0,4.0,4.0,4.0,4.0,4.0,4.0,4.0,4.0,4.0,4.0,4.0,4.0,4.0,4.0,4.0,4.0,4.0,4.0,4.0,4.0,4.0,4.0,100.0,,,,,,,,,,,,,,,,,,,,,,,,,,,,,,,,,,,,,,,,,,,,,,,,,,,,,,,,,,,,,,,,,,,,,,,,,,,,,,,,,,,,,,,,,,,,,,,,,,,,,,,,,,,,,,,,,,,,,,,,,,,,,,,,,,,,,,,,,,,,,,,,,,,,,,,,,,,,,,,,,,,,,,,,,,,,,,,,,,,,,,,,,,,,,,,,,,,,,,,,,,,,,,
1763973772.247616,38556.0,0.0,4397.436035,4408.717773,4513.333496,4533.974121,4407.563965,4529.743652,4545.897461,4405.0,4577.94873,4401.410156,4497.05127,4522.820313,4575.128418,4383.589844,4362.820313,4488.077148,4553.333496,4527.436035,4516.282227,4379.871582,4385.769043,4569.230957,4535.0,4494.487305,4394.871582,4573.205078,4407.307617,4563.974121,4513.461426,4417.307617,4539.743652,4509.102539,2983.0,1.0,22.0,2048.0,17047.0,,,,0.0,4.0,4.0,4.0,4.0,4.0,4.0,4.0,4.0,4.0,4.0,4.0,4.0,4.0,4.0,4.0,4.0,4.0,4.0,4.0,4.0,4.0,4.0,4.0,4.0,4.0,4.0,4.0,4.0,4.0,4.0,4.0,4.0,100.0,,,,,,,,,,,,,,,,,,,,,,,,,,,,,,,,,,,,,,,,,,,,,,,,,,,,,,,,,,,,,,,,,,,,,,,,,,,,,,,,,,,,,,,,,,,,,,,,,,,,,,,,,,,,,,,,,,,,,,,,,,,,,,,,,,,,,,,,,,,,,,,,,,,,,,,,,,,,,,,,,,,,,,,,,,,,,,,,,,,,,,,,,,,,,,,,,,,,,,,,,,,,,,
1763973772.251522,38557.0,0.0,4409.871582,4421.153809,4525.897461,4542.179688,4420.128418,4538.589844,4559.743652,4416.410156,4589.102539,4414.743652,4510.769043,4534.487305,4587.563965,4398.717773,4378.461426,4510.128418,4564.871582,4549.615234,4528.461426,4396.153809,4396.153809,4581.922852,4547.179688,4507.307617,4407.307617,4586.794922,4419.743652,4575.769043,4525.256348,4430.128418,4553.461426,4522.94873,2831.0,1.0,22.0,2048.0,17047.0,,,,0.0,4.0,4.0,4.0,4.0,4.0,4.0,4.0,4.0,4.0,4.0,4.0,4.0,4.0,4.0,4.0,4.0,4.0,4.0,4.0,4.0,4.0,4.0,4.0,4.0,4.0,4.0,4.0,4.0,4.0,4.0,4.0,4.0,100.0,,,,,,,,,,,,,,,,,,,,,,,,,,,,,,,,,,,58791.0,0.0,0.660422,0.28717,0.245178,0.649048,1.011354,-0.01465,-0.060066,28.666666,-25.166666,-25.5,,,,,,,,,,,,,,,,,,,,,,,,,,,,,,,,,,,,,,,,,,,,,,,,,,,,,,,,,,,,,,,,,,,,,,,,,,,,,,,,,,,,,,,,,,,,,,,,,,,,,,,,,,,,,,,,,,,,,,,,,,,,,,,,,,,,,,,,,,,,,,,,,,,,,,,,,,,,,,,,
1763973772.255428,38558.0,0.0,4416.922852,4428.461426,4532.307617,4549.615234,4428.333496,4544.871582,4569.102539,4425.897461,4595.897461,4423.333496,4520.128418,4544.230957,4597.820313,4411.538574,4391.025879,4533.846191,4573.717773,4564.487305,4533.333496,4405.384766,4402.05127,4591.666504,4554.487305,4516.282227,4416.025879,4595.384766,4427.179688,4583.205078,4534.230957,4436.922852,4560.512695,4533.077148,3016.0,1.0,22.0,1024.0,17055.0,,,,0.0,4.0,4.0,4.0,4.0,4.0,4.0,4.0,4.0,4.0,4.0,4.0,4.0,4.0,4.0,4.0,4.0,4.0,4.0,4.0,4.0,4.0,4.0,4.0,4.0,4.0,4.0,4.0,4.0,4.0,4.0,4.0,4.0,100.0,,,,,,,,,,,,,,,,,,,,,,,,,,,,,,,,,,,,,,,,,,,,,,,,,,,,,,,,,,,,,,,,,,,,,,,,,,,,,,,,,,,,,,,,,,,,,,,,,,,,,,,,,,,,,,,,,,,,,,,,,,,,,,,,,,,,,,,,,,,,,,,,,,,,,,,,,,,,,,,,,,,,,,,,,,,,,,,,,,,,,,,,,,,,,,,,,,,,,,,,,,,,,,
1763973772.259334,38559.0,0.0,4411.025879,4422.94873,4525.512695,4548.205078,4425.128418,4542.179688,4565.897461,4424.743652,4590.641113,4412.563965,4516.410156,4543.077148,4596.282227,4411.666504,4391.282227,4541.025879,4570.769043,4559.871582,4526.282227,4400.0,4396.922852,4590.128418,4548.846191,4513.205078,4411.666504,4590.384766,4421.282227,4578.205078,4531.666504,4430.641113,4553.077148,4530.0,2927.0,1.0,22.0,1024.0,17055.0,,,,0.0,4.0,4.0,4.0,4.0,4.0,4.0,4.0,4.0,4.0,4.0,4.0,4.0,4.0,4.0,4.0,4.0,4.0,4.0,4.0,4.0,4.0,4.0,4.0,4.0,4.0,4.0,4.0,4.0,4.0,4.0,4.0,4.0,100.0,,,,,,,,,,,,,,,,,,,,,,,,,,,,,,,,,,,,,,,,,,,,,,,,,,,,,,,,,,,,,,,,,,,,,,,,,,,,,,,,,,,,,,,,,,,,,,,,,,,,,,,,,,,,,,,,,,,,,,,,,,,,,,,,,,,,,,,,,,,,,,,,,,,,,,,,,,,,,,,,,,,,,,,,,,,,,,,,,,,,,,,,,,,,,,,,,,,,,,,,,,,,,,
1763973772.26324,38560.0,0.0,4394.743652,4407.179688,4508.717773,4537.05127,4412.307617,4531.410156,4551.538574,4412.820313,4575.512695,4384.487305,4500.384766,4530.128418,4582.307617,4397.820313,4379.358887,4526.025879,4556.153809,4537.307617,4511.153809,4383.589844,4384.102539,4578.077148,4532.179688,4498.717773,4395.384766,4573.974121,4404.487305,4562.563965,4517.820313,4414.487305,4534.871582,4514.615234,2828.0,1.0,22.0,768.0,17063.0,,,,0.0,4.0,4.0,4.0,4.0,4.0,4.0,4.0,4.0,4.0,4.0,4.0,4.0,4.0,4.0,4.0,4.0,4.0,4.0,4.0,4.0,4.0,4.0,4.0,4.0,4.0,4.0,4.0,4.0,4.0,4.0,4.0,4.0,100.0,,,,,,,,,,,,,,,,,,,,,,,,,,,,,,,,,,,,,,,,,,,,,,,,,,,,,,,,,,,,,,,,,,,,,,,,,,,,,,,,,,,,,,,,,,,,,,,,,,,,,,,,,,,,,,,,,,,,,,,,,,,,,,,,,,,,,,,,,,,,,,,,,,,,,,,,,,,,,,,,,,,,,,,,,,,,,,,,,,,,,,,,,,,,,,,,,,,,,,,,,,,,,,
1763973772.267146,38561.0,0.0,4378.589844,4391.922852,4492.820313,4523.974121,4398.461426,4519.615234,4535.769043,4398.461426,4561.538574,4357.692383,4482.179688,4513.717773,4565.256348,4380.128418,4365.512695,4500.384766,4539.615234,4513.077148,4497.94873,4368.205078,4373.461426,4563.974121,4514.871582,4483.077148,4378.589844,4558.077148,4388.077148,4546.410156,4502.563965,4399.230957,4518.333496,4497.820313,2959.0,1.0,22.0,768.0,17063.0,,,,0.0,4.0,4.0,4.0,4.0,4.0,4.0,4.0,4.0,4.0,4.0,4.0,4.0,4.0,4.0,4.0,4.0,4.0,4.0,4.0,4.0,4.0,4.0,4.0,4.0,4.0,4.0,4.0,4.0,4.0,4.0,4.0,4.0,100.0,,,,,,,,,,,,,,,,,,,,,,,,,,,,,,,,,,,58792.0,0.0,0.660582,0.286926,0.244873,0.649109,0.992309,-0.01758,-0.064949,28.0,-24.0,-25.5,,,,,,,,,,,,,,,,,,,,,,,,,,,,,,,,,,,,,,,,,,,,,,,,,,,,,,,,,,,,,,,,,,,,,,,,,,,,,,,,,,,,,,,,,,,,,,,,,,,,,,,,,,,,,,,,,,,,,,,,,,,,,,,,,,,,,,,,,,,,,,,,,,,,,,,,,,,,,,,,
1763973772.271052,38562.0,0.0,4373.461426,4387.692383,4488.461426,4518.205078,4392.692383,4514.871582,4528.974121,4391.922852,4558.846191,4352.692383,4474.102539,4505.0,4557.05127,4371.666504,4361.410156,4483.974121,4533.077148,4504.743652,4496.025879,4364.871582,4373.846191,4558.077148,4508.077148,4477.820313,4373.846191,4554.230957,4383.717773,4540.641113,4496.794922,4395.256348,4514.743652,4492.436035,2274.0,1.0,22.0,1024.0,17071.0,,,,0.0,4.0,4.0,4.0,4.0,4.0,4.0,4.0,4.0,4.0,4.0,4.0,4.0,4.0,4.0,4.0,4.0,4.0,4.0,4.0,4.0,4.0,4.0,4.0,4.0,4.0,4.0,4.0,4.0,4.0,4.0,4.0,4.0,100.0,,,,,,,,,,,,,,,,,,,,,,,,,,,,,,,,,,,,,,,,,,,,,,,,,,,,,,,,,,,,,,,,,,,,,,,,,,,,,,,,,,,,,,,,,,,,,,,,,,,,,,,,,,,,,,,,,,,,,,,,,,,,,,,,,,,,,,,,,,,,,,,,,,,,,,,,,,,,,,,,,,,,,,,,,,,,,,,,,,,,,,,,,,,,,,,,,,,,,,,,,,,,,,
1763973772.274958,38563.0,0.0,4381.282227,4396.025879,4496.922852,4522.692383,4396.538574,4518.846191,4534.230957,4396.538574,4569.102539,4374.743652,4479.871582,4508.333496,4562.563965,4378.589844,4371.025879,4489.358887,4540.512695,4518.333496,4506.410156,4375.128418,4385.512695,4562.94873,4514.358887,4486.025879,4384.743652,4564.487305,4394.230957,4548.589844,4503.589844,4404.102539,4525.256348,4501.666504,2945.0,1.0,22.0,1024.0,17071.0,,,,0.0,4.0,4.0,4.0,4.0,4.0,4.0,4.0,4.0,4.0,4.0,4.0,4.0,4.0,4.0,4.0,4.0,4.0,4.0,4.0,4.0,4.0,4.0,4.0,4.0,4.0,4.0,4.0,4.0,4.0,4.0,4.0,4.0,100.0,,,,,,,,,,,,,,,,,,,,,,,,,,,,,,,,,,,,,,,,,,,,,,,,,,,,,,,,,,,,,,,,,,,,,,,,,,,,,,,,,,,,,,,,,,,,,,,,,,,,,,,,,,,,,,,,,,,,,,,,,,,,,,,,,,,,,,,,,,,,,,,,,,,,,,,,,,,,,,,,,,,,,,,,,,,,,,,,,,,,,,,,,,,,,,,,,,,,,,,,,,,,,,
1763973772.278864,38564.0,0.0,4394.358887,4408.974121,4510.128418,4532.05127,4404.358887,4526.153809,4544.871582,4406.153809,4583.974121,4408.717773,4492.692383,4518.461426,4575.897461,4395.256348,4386.794922,4512.436035,4554.487305,4543.077148,4520.769043,4391.025879,4399.871582,4572.820313,4526.153809,4501.025879,4403.461426,4580.512695,4411.282227,4563.077148,4516.666504,4418.077148,4540.641113,4517.436035,2859.0,1.0,22.0,1280.0,17079.0,,,,0.0,4.0,4.0,4.0,4.0,4.0,4.0,4.0,4.0,4.0,4.0,4.0,4.0,4.0,4.0,4.0,4.0,4.0,4.0,4.0,4.0,4.0,4.0,4.0,4.0,4.0,4.0,4.0,4.0,4.0,4.0,4.0,4.0,100.0,,,,,,,,,,,,,,,,,,,,,,,,,,,,,,,,,,,,,,,,,,,,,,,,,,,,,,,,,,,,,,,,,,,,,,,,,,,,,,,,,,,,,,,,,,,,,,,,,,,,,,,,,,,,,,,,,,,,,,,,,,,,,,,,,,,,,,,,,,,,,,,,,,,,,,,,,,,,,,,,,,,,,,,,,,,,,,,,,,,,,,,,,,,,,,,,,,,,,,,,,,,,,,
1763973772.28277,38565.0,0.0,4402.307617,4416.282227,4517.563965,4537.94873,4408.589844,4529.615234,4550.512695,4411.666504,4593.205078,4432.05127,4501.794922,4525.384766,4585.641113,4409.487305,4397.179688,4536.538574,4563.333496,4560.897461,4529.230957,4402.179688,4407.179688,4578.461426,4533.461426,4512.563965,4417.436035,4592.05127,4422.436035,4573.205078,4526.025879,4426.410156,4550.128418,4527.820313,2402.0,1.0,22.0,1280.0,17079.0,,,,0.0,4.0,4.0,4.0,4.0,4.0,4.0,4.0,4.0,4.0,4.0,4.0,4.0,4.0,4.0,4.0,4.0,4.0,4.0,4.0,4.0,4.0,4.0,4.0,4.0,4.0,4.0,4.0,4.0,4.0,4.0,4.0,4.0,100.0,,,,,,,,,,,,,,,,,,,,,,,,,,,,,,,,,,,58793.0,0.0,0.660675,0.286987,0.244873,0.648987,1.012819,0.001953,-0.065926,27.5,-24.833334,-23.0,,,,,,,,,,,,,,,,,,,,,,,,,,,,,,,,,,,,,,,,,,,,,,,,,,,,,,,,,,,,,,,,,,,,,,,,,,,,,,,,,,,,,,,,,,,,,,,,,,,,,,,,,,,,,,,,,,,,,,,,,,,,,,,,,,,,,,,,,,,,,,,,,,,,,,,,,,,,,,,,
1763973772.286676,38566.0,0.0,4399.871582,4413.077148,4515.0,4536.282227,4406.410156,4526.153809,4546.282227,4408.333496,4592.692383,4432.563965,4501.025879,4523.333496,4583.846191,4411.666504,4396.025879,4545.384766,4560.641113,4561.282227,4527.563965,4403.717773,4404.743652,4575.769043,4531.666504,4514.230957,4420.128418,4594.230957,4421.282227,4573.205078,4525.897461,4423.846191,4549.871582,4527.05127,2945.0,1.0,22.0,1536.0,17087.0,,,,0.0,4.0,4.0,4.0,4.0,4.0,4.0,4.0,4.0,4.0,4.0,4.0,4.0,4.0,4.0,4.0,4.0,4.0,4.0,4.0,4.0,4.0,4.0,4.0,4.0,4.0,4.0,4.0,4.0,4.0,4.0,4.0,4.0,100.0,,,,,,,,,,,,,,,,,,,,,,,,,,,,,,,,,,,,,,,,,,,,,,,,,,,,,,,,,,,,,,,,,,,,,,,,,,,,,,,,,,,,,,,,,,,,,,,,,,,,,,,,,,,,,,,,,,,,,,,,,,,,,,,,,,,,,,,,,,,,,,,,,,,,,,,,,,,,,,,,,,,,,,,,,,,,,,,,,,,,,,,,,,,,,,,,,,,,,,,,,,,,,,
1763973772.290582,38567.0,0.0,4390.128418,4402.563965,4507.05127,4529.102539,4400.641113,4518.461426,4535.769043,4398.974121,4586.282227,4414.871582,4492.563965,4513.461426,4571.794922,4401.666504,4386.410156,4533.589844,4548.846191,4546.794922,4518.974121,4397.179688,4397.436035,4567.307617,4523.589844,4506.794922,4413.461426,4589.871582,4410.512695,4565.128418,4517.436035,4412.563965,4543.205078,4518.205078,2956.0,1.0,22.0,1536.0,17087.0,,,,0.0,4.0,4.0,4.0,4.0,4.0,4.0,4.0,4.0,4.0,4.0,4.0,4.0,4.0,4.0,4.0,4.0,4.0,4.0,4.0,4.0,4.0,4.0,4.0,4.0,4.0,4.0,4.0,4.0,4.0,4.0,4.0,4.0,100.0,,,,,,,,,,,,,,,,,,,,,,,,,,,,,,,,,,,,,,,,,,,,,,,,,,,,,,,,,,,,,,,,,,,,,,,,,,,,,,,,,,,,,,,,,,,,,,,,,,,,,,,,,,,,,,,,,,,,,,,,,,,,,,,,,,,,,,,,,,,,,,,,,,,,,,,,,,,,,,,,,,,,,,,,,,,,,,,,,,,,,,,,,,,,,,,,,,,,,,,,,,,,,,
1763973772.294488,38568.0,0.0,4378.974121,4391.922852,4500.256348,4521.282227,4395.256348,4510.897461,4525.897461,4389.487305,4580.0,4393.589844,4482.563965,4501.538574,4556.794922,4386.282227,4375.512695,4509.230957,4535.384766,4528.589844,4510.128418,4387.436035,4392.05127,4558.717773,4514.743652,4495.897461,4404.230957,4584.230957,4398.077148,4555.256348,4506.794922,4399.358887,4536.025879,4508.205078,2678.0,1.0,22.0,1792.0,17094.0,,,,0.0,4.0,4.0,4.0,4.0,4.0,4.0,4.0,4.0,4.0,4.0,4.0,4.0,4.0,4.0,4.0,4.0,4.0,4.0,4.0,4.0,4.0,4.0,4.0,4.0,4.0,4.0,4.0,4.0,4.0,4.0,4.0,4.0,100.0,,,,,,,,,,,,,,,,,,,,,,,,,,,,,,,,,,,,,,,,,,,,,,,,,,,,,,,,,,,,,,,,,,,,,,,,,,,,,,,,,,,,,,,,,,,,,,,,,,,,,,,,,,,,,,,,,,,,,,,,,,,,,,,,,,,,,,,,,,,,,,,,,,,,,,,,,,,,,,,,,,,,,,,,,,,,,,,,,,,,,,,,,,,,,,,,,,,,,,,,,,,,,,
1763973772.298394,38569.0,0.0,4371.794922,4386.410156,4498.589844,4517.307617,4392.436035,4506.922852,4521.153809,4384.487305,4577.179688,4380.897461,4476.153809,4492.94873,4546.538574,4374.743652,4368.717773,4487.307617,4526.666504,4517.436035,4505.897461,4379.230957,4391.538574,4553.717773,4508.717773,4487.563965,4398.461426,4580.512695,4391.025879,4548.461426,4499.102539,4390.897461,4532.05127,4502.179688,2846.0,1.0,22.0,1792.0,17094.0,,,,0.0,4.0,4.0,4.0,4.0,4.0,4.0,4.0,4.0,4.0,4.0,4.0,4.0,4.0,4.0,4.0,4.0,4.0,4.0,4.0,4.0,4.0,4.0,4.0,4.0,4.0,4.0,4.0,4.0,4.0,4.0,4.0,4.0,100.0,,,,,,,,,,,,,,,,,,,,,,,,,,,,,,,,,,,58794.0,0.0,0.660698,0.286987,0.244812,0.648987,1.002564,-0.00293,-0.083995,29.833334,-27.833334,-25.333334,,,,,,,,,,,,,,,,,,,,,,,,,,,,,,,,,,,,,,,,,,,,,,,,,,,,,,,,,,,,,,,,,,,,,,,,,,,,,,,,,,,,,,,,,,,,,,,,,,,,,,,,,,,,,,,,,,,,,,,,,,,,,,,,,,,,,,,,,,,,,,,,,,,,,,,,,,,,,,,,
1763973772.3023,38570.0,0.0,4370.897461,4386.922852,4501.666504,4519.102539,4392.307617,4507.692383,4521.922852,4385.384766,4577.307617,4380.0,4476.025879,4491.153809,4545.641113,4372.563965,4368.205078,4480.641113,4525.769043,4518.205078,4508.205078,4376.666504,4394.615234,4553.461426,4507.692383,4486.538574,4398.846191,4579.487305,4392.179688,4546.922852,4497.436035,4391.282227,4531.922852,4501.410156,2688.0,1.0,22.0,2048.0,17102.0,,,,0.0,4.0,4.0,4.0,4.0,4.0,4.0,4.0,4.0,4.0,4.0,4.0,4.0,4.0,4.0,4.0,4.0,4.0,4.0,4.0,4.0,4.0,4.0,4.0,4.0,4.0,4.0,4.0,4.0,4.0,4.0,4.0,4.0,100.0,,,,,,,,,,,,,,,,,,,,,,,,,,,,,,,,,,,,,,,,,,,,,,,,,,,,,,,,,,,,,,,,,,,,,,,,,,,,,,,,,,,,,,,,,,,,,,,,,,,,,,,,,,,,,,,,,,,,,,,,,,,,,,,,,,,,,,,,,,,,,,,,,,,,,,,,,,,,,,,,,,,,,,,,,,,,,,,,,,,,,,,,,,,,,,,,,,,,,,,,,,,,,,
1763973772.306206,38571.0,0.0,4376.538574,4392.436035,4507.436035,4526.025879,4394.487305,4512.94873,4526.922852,4390.769043,4579.230957,4387.436035,4481.410156,4496.282227,4554.102539,4380.128418,4373.846191,4491.794922,4531.666504,4529.102539,4515.769043,4382.307617,4399.358887,4557.563965,4512.179688,4493.205078,4405.256348,4581.025879,4400.897461,4550.769043,4501.538574,4400.128418,4535.769043,4505.128418,2991.0,1.0,22.0,2048.0,17102.0,,,,0.0,4.0,4.0,4.0,4.0,4.0,4.0,4.0,4.0,4.0,4.0,4.0,4.0,4.0,4.0,4.0,4.0,4.0,4.0,4.0,4.0,4.0,4.0,4.0,4.0,4.0,4.0,4.0,4.0,4.0,4.0,4.0,4.0,100.0,,,,,,,,,,,,,,,,,,,,,,,,,,,,,,,,,,,,,,,,,,,,,,,,,,,,,,,,,,,,,,,,,,,,,,,,,,,,,,,,,,,,,,,,,,,,,,,,,,,,,,,,,,,,,,,,,,,,,,,,,,,,,,,,,,,,,,,,,,,,,,,,,,,,,,,,,,,,,,,,,,,,,,,,,,,,,,,,,,,,,,,,,,,,,,,,,,,,,,,,,,,,,,
1763973772.310112,38572.0,0.0,4386.410156,4400.128418,4513.461426,4535.512695,4398.461426,4520.512695,4533.974121,4397.94873,4581.666504,4396.922852,4489.358887,4505.384766,4566.794922,4392.820313,4383.974121,4511.282227,4540.641113,4543.717773,4524.743652,4395.0,4404.230957,4565.128418,4521.025879,4503.846191,4414.487305,4584.871582,4413.333496,4558.077148,4508.974121,4413.077148,4542.05127,4511.025879,2956.0,1.0,22.0,2304.0,17110.0,,,,0.0,4.0,4.0,4.0,4.0,4.0,4.0,4.0,4.0,4.0,4.0,4.0,4.0,4.0,4.0,4.0,4.0,4.0,4.0,4.0,4.0,4.0,4.0,4.0,4.0,4.0,4.0,4.0,4.0,4.0,4.0,4.0,4.0,100.0,,,,,,,,,,,,,,,,,,,,,,,,,,,,,,,,,,,,,,,,,,,,,,,,,,,,,,,,,,,,,,,,,,,,,,,,,,,,,,,,,,,,,,,,,,,,,,,,,,,,,,,,,,,,,,,,,,,,,,,,,,,,,,,,,,,,,,,,,,,,,,,,,,,,,,,,,,,,,,,,,,,,,,,,,,,,,,,,,,,,,,,,,,,,,,,,,,,,,,,,,,,,,,
1763973772.314018,38573.0,0.0,4395.0,4405.897461,4516.666504,4542.692383,4401.538574,4526.410156,4539.871582,4403.205078,4583.461426,4403.077148,4495.384766,4512.820313,4576.153809,4403.717773,4394.615234,4525.384766,4547.05127,4553.717773,4529.743652,4408.461426,4407.692383,4572.307617,4529.230957,4511.666504,4420.769043,4588.333496,4423.077148,4564.358887,4515.0,4422.179688,4547.820313,4515.384766,2808.0,1.0,22.0,2304.0,17110.0,,,,0.0,4.0,4.0,4.0,4.0,4.0,4.0,4.0,4.0,4.0,4.0,4.0,4.0,4.0,4.0,4.0,4.0,4.0,4.0,4.0,4.0,4.0,4.0,4.0,4.0,4.0,4.0,4.0,4.0,4.0,4.0,4.0,4.0,100.0,,,,,,,,,,,,,,,,,,,,,,,,,,,,,,,,,,,58795.0,0.0,0.660693,0.28717,0.244934,0.648865,0.984984,-0.011232,-0.073251,27.166666,-26.0,-23.5,,,,,,,,,,,,,,,,,,,,,,,,,,,,,,,,,,,,,,,,,,,,,,,,,,,,,,,,,,,,,,,,,,,,,,,,,,,,,,,,,,,,,,,,,,,,,,,,,,,,,,,,,,,,,,,,,,,,,,,,,,,,,,,,,,,,,,,,,,,,,,,,,,,,,,,,,,,,,,,,
1763973772.317924,38574.0,0.0,4395.769043,4405.256348,4514.102539,4542.692383,4400.897461,4526.410156,4540.641113,4402.563965,4582.307617,4402.05127,4495.384766,4513.333496,4576.410156,4407.05127,4399.615234,4526.025879,4547.307617,4553.589844,4527.179688,4413.846191,4406.410156,4573.461426,4530.384766,4510.384766,4418.205078,4587.436035,4422.94873,4564.358887,4514.358887,4420.128418,4548.333496,4514.102539,2756.0,1.0,22.0,2560.0,17118.0,,,,0.0,4.0,4.0,4.0,4.0,4.0,4.0,4.0,4.0,4.0,4.0,4.0,4.0,4.0,4.0,4.0,4.0,4.0,4.0,4.0,4.0,4.0,4.0,4.0,4.0,4.0,4.0,4.0,4.0,4.0,4.0,4.0,4.0,100.0,,,,,,,,,,,,,,,,,,,,,,,,,,,,,,,,,,,,,,,,,,,,,,,4.240016,1.062636,0.420844,0.513382,1.10072,4.908671,0.811913,1.462458,0.642352,1.271874,5.034819,0.966881,0.432871,0.618227,1.220713,2.496334,0.507397,0.845672,0.428132,1.081765,2.361079,0.460443,0.508165,0.270812,0.893595,2.2893,0.210154,0.31171,0.273138,0.798422,2.598628,0.862147,0.62167,0.490773,1.151161,2.776044,0.675237,0.622056,0.476079,1.207586,1.91604,0.405929,0.919486,0.505758,1.090751,1.218975,0.819515,1.668725,2.423614,1.828131,2.048833,0.19844,0.416383,0.312578,0.979194,4.568592,1.021664,0.741379,0.404886,1.317586,3.83403,1.528916,1.357599,0.552307,1.457357,0.515711,0.311212,0.590239,0.260674,1.219536,1.115753,1.044009,0.725222,0.356906,1.315361,1.835047,0.548589,0.823245,0.81559,2.946582,4.080101,3.584599,1.182676,0.507309,1.130563,1.718411,1.067174,0.850494,0.385111,1.574106,1.463599,1.847828,0.885938,0.682711,2.215423,1.008161,2.055012,0.449091,0.296861,1.443919,1.673941,2.876594,1.162918,0.503008,1.31206,3.935051,7.389149,1.786603,0.749969,1.545404,5.854938,4.135218,0.977872,0.457823,1.31909,3.28731,4.44209,1.186282,0.479297,1.468916,3.8959,2.56209,1.413265,0.390261,1.208511,2.798601,1.370939,0.987335,0.391256,1.1622,5.664064,1.534278,1.330476,0.535436,1.128291,4.715488,3.024631,1.028752,0.463456,1.084863,6.090677,1.415389,0.908625,0.489172,1.00621,5.272386,0.986759,0.928903,0.346457,1.124338,5.53281,1.007199,1.240108,0.483429,1.083163,5.014638,0.782349,0.895104,0.487912,1.096511
1763973772.32183,38575.0,0.0,4386.282227,4395.769043,4504.615234,4533.589844,4394.743652,4518.974121,4533.717773,4394.743652,4577.05127,4392.820313,4489.230957,4505.256348,4568.461426,4402.307617,4395.0,4517.94873,4541.794922,4544.615234,4517.94873,4406.153809,4399.102539,4565.769043,4521.282227,4498.589844,4405.384766,4579.487305,4409.743652,4555.512695,4504.871582,4405.769043,4541.025879,4505.641113,2816.0,1.0,22.0,2560.0,17118.0,,,,0.0,4.0,4.0,4.0,4.0,4.0,4.0,4.0,4.0,4.0,4.0,4.0,4.0,4.0,4.0,4.0,4.0,4.0,4.0,4.0,4.0,4.0,4.0,4.0,4.0,4.0,4.0,4.0,4.0,4.0,4.0,4.0,4.0,100.0,,,,,,,,,,,,,,,,,,,,,,,,,,,,,,,,,,,,,,,,,,,,,,,,,,,,,,,,,,,,,,,,,,,,,,,,,,,,,,,,,,,,,,,,,,,,,,,,,,,,,,,,,,,,,,,,,,,,,,,,,,,,,,,,,,,,,,,,,,,,,,,,,,,,,,,,,,,,,,,,,,,,,,,,,,,,,,,,,,,,,,,,,,,,,,,,,,,,,,,,,,,,,,
1763973772.325736,38576.0,0.0,4370.384766,4380.897461,4490.769043,4518.846191,4385.256348,4507.436035,4521.794922,4383.077148,4569.358887,4378.846191,4481.410156,4492.692383,4559.102539,4394.743652,4383.205078,4513.077148,4535.128418,4534.487305,4507.820313,4389.358887,4388.205078,4553.077148,4506.153809,4481.794922,4387.179688,4566.410156,4388.077148,4541.025879,4489.230957,4385.256348,4527.179688,4492.563965,2930.0,1.0,22.0,2560.0,17126.0,,,,0.0,4.0,4.0,4.0,4.0,4.0,4.0,4.0,4.0,4.0,4.0,4.0,4.0,4.0,4.0,4.0,4.0,4.0,4.0,4.0,4.0,4.0,4.0,4.0,4.0,4.0,4.0,4.0,4.0,4.0,4.0,4.0,4.0,100.0,,,,,,,,,,,,,,,,,,,,,,,,,,,,,,,,,,,,,,,,,,,,,,,,,,,,,,,,,,,,,,,,,,,,,,,,,,,,,,,,,,,,,,,,,,,,,,,,,,,,,,,,,,,,,,,,,,,,,,,,,,,,,,,,,,,,,,,,,,,,,,,,,,,,,,,,,,,,,,,,,,,,,,,,,,,,,,,,,,,,,,,,,,,,,,,,,,,,,,,,,,,,,,
1763973772.329642,38577.0,0.0,4356.538574,4367.307617,4477.179688,4505.769043,4376.794922,4497.692383,4511.153809,4373.846191,4563.077148,4367.563965,4477.692383,4482.94873,4556.025879,4390.512695,4371.282227,4519.487305,4532.436035,4530.769043,4502.820313,4374.230957,4380.256348,4542.94873,4493.846191,4468.717773,4372.307617,4553.717773,4367.436035,4527.820313,4474.358887,4368.461426,4512.307617,4479.743652,3048.0,1.0,22.0,2560.0,17126.0,,,,0.0,4.0,4.0,4.0,4.0,4.0,4.0,4.0,4.0,4.0,4.0,4.0,4.0,4.0,4.0,4.0,4.0,4.0,4.0,4.0,4.0,4.0,4.0,4.0,4.0,4.0,4.0,4.0,4.0,4.0,4.0,4.0,4.0,100.0,,,,,,,,,,,,,,,,,,,,,,,,,,,,,,,,,,,58796.0,0.0,0.660661,0.287415,0.245056,0.648743,0.984984,-0.011232,-0.073251,25.833334,-26.0,-24.666666,,,,,,,,,,,,,,,,,,,,,,,,,,,,,,,,,,,,,,,,,,,,,,,,,,,,,,,,,,,,,,,,,,,,,,,,,,,,,,,,,,,,,,,,,,,,,,,,,,,,,,,,,,,,,,,,,,,,,,,,,,,,,,,,,,,,,,,,,,,,,,,,,,,,,,,,,,,,,,,,
1763973772.333548,38578.0,0.0,4351.538574,4360.512695,4468.333496,4499.871582,4372.436035,4494.615234,4507.692383,4370.897461,4561.666504,4365.769043,4480.128418,4480.512695,4560.897461,4391.538574,4365.897461,4532.307617,4534.871582,4534.358887,4504.102539,4369.102539,4380.256348,4541.153809,4490.384766,4465.0,4366.538574,4546.794922,4355.769043,4521.538574,4465.641113,4361.538574,4501.794922,4471.153809,2833.0,1.0,22.0,2304.0,17133.0,,,,0.0,4.0,4.0,4.0,4.0,4.0,4.0,4.0,4.0,4.0,4.0,4.0,4.0,4.0,4.0,4.0,4.0,4.0,4.0,4.0,4.0,4.0,4.0,4.0,4.0,4.0,4.0,4.0,4.0,4.0,4.0,4.0,4.0,100.0,,,,,,,,,,,,,,,,,,,,,,,,,,,,,,,,,,,,,,,,,,,,,,,,,,,,,,,,,,,,,,,,,,,,,,,,,,,,,,,,,,,,,,,,,,,,,,,,,,,,,,,,,,,,,,,,,,,,,,,,,,,,,,,,,,,,,,,,,,,,,,,,,,,,,,,,,,,,,,,,,,,,,,,,,,,,,,,,,,,,,,,,,,,,,,,,,,,,,,,,,,,,,,
1763973772.337454,38579.0,0.0,4355.512695,4360.769043,4465.641113,4502.307617,4371.282227,4498.077148,4511.410156,4373.333496,4564.230957,4374.102539,4486.025879,4484.743652,4568.333496,4394.615234,4367.94873,4537.563965,4539.487305,4538.589844,4507.94873,4374.358887,4387.820313,4546.794922,4495.0,4470.256348,4369.358887,4546.410156,4355.128418,4522.820313,4464.487305,4364.487305,4498.333496,4467.820313,3022.0,1.0,22.0,2304.0,17133.0,,,,0.0,4.0,4.0,4.0,4.0,4.0,4.0,4.0,4.0,4.0,4.0,4.0,4.0,4.0,4.0,4.0,4.0,4.0,4.0,4.0,4.0,4.0,4.0,4.0,4.0,4.0,4.0,4.0,4.0,4.0,4.0,4.0,4.0,100.0,,,,,,,,,,,,,,,,,,,,,,,,,,,,,,,,,,,,,,,,,,,,,,,,,,,,,,,,,,,,,,,,,,,,,,,,,,,,,,,,,,,,,,,,,,,,,,,,,,,,,,,,,,,,,,,,,,,,,,,,,,,,,,,,,,,,,,,,,,,,,,,,,,,,,,,,,,,,,,,,,,,,,,,,,,,,,,,,,,,,,,,,,,,,,,,,,,,,,,,,,,,,,,
1763973772.34136,38580.0,0.0,4363.589844,4364.487305,4467.563965,4509.358887,4371.153809,4504.358887,4518.077148,4377.820313,4568.077148,4387.307617,4490.512695,4491.025879,4571.794922,4395.769043,4373.717773,4525.256348,4541.922852,4537.307617,4510.256348,4382.692383,4397.94873,4554.615234,4502.05127,4479.230957,4375.897461,4550.384766,4362.436035,4528.589844,4468.589844,4372.05127,4500.769043,4468.846191,2997.0,1.0,22.0,1536.0,17141.0,,,,0.0,4.0,4.0,4.0,4.0,4.0,4.0,4.0,4.0,4.0,4.0,4.0,4.0,4.0,4.0,4.0,4.0,4.0,4.0,4.0,4.0,4.0,4.0,4.0,4.0,4.0,4.0,4.0,4.0,4.0,4.0,4.0,4.0,100.0,,,,,,,,,,,,,,,,,,,,,,,,,,,,,,,,,,,,,,,,,,,,,,,,,,,,,,,,,,,,,,,,,,,,,,,,,,,,,,,,,,,,,,,,,,,,,,,,,,,,,,,,,,,,,,,,,,,,,,,,,,,,,,,,,,,,,,,,,,,,,,,,,,,,,,,,,,,,,,,,,,,,,,,,,,,,,,,,,,,,,,,,,,,,,,,,,,,,,,,,,,,,,,
1763973772.345266,38581.0,0.0,4370.641113,4368.846191,4471.410156,4516.666504,4371.153809,4509.358887,4523.461426,4382.05127,4571.282227,4398.077148,4491.666504,4495.769043,4569.102539,4394.230957,4378.717773,4500.128418,4541.153809,4530.128418,4510.512695,4387.307617,4405.0,4560.128418,4506.922852,4486.538574,4382.05127,4555.769043,4372.820313,4535.0,4475.256348,4379.615234,4506.794922,4473.077148,2853.0,1.0,22.0,1536.0,17141.0,,,,0.0,4.0,4.0,4.0,4.0,4.0,4.0,4.0,4.0,4.0,4.0,4.0,4.0,4.0,4.0,4.0,4.0,4.0,4.0,4.0,4.0,4.0,4.0,4.0,4.0,4.0,4.0,4.0,4.0,4.0,4.0,4.0,4.0,100.0,,,,,,,,,,,,,,,,,,,,,,,,,,,,,,,,,,,58797.0,0.0,0.66035,0.287903,0.245483,0.648682,1.001099,-0.01172,-0.050787,29.333334,-26.166666,-23.666666,,,,,,,,,,,,,,,,,,,,,,,,,,,,,,,,,,,,,,,,,,,,,,,,,,,,,,,,,,,,,,,,,,,,,,,,,,,,,,,,,,,,,,,,,,,,,,,,,,,,,,,,,,,,,,,,,,,,,,,,,,,,,,,,,,,,,,,,,,,,,,,,,,,,,,,,,,,,,,,,
1763973772.349172,38582.0,0.0,4373.974121,4373.205078,4475.897461,4521.922852,4372.563965,4511.538574,4526.025879,4385.641113,4573.846191,4401.922852,4491.025879,4498.077148,4563.974121,4393.077148,4380.897461,4478.077148,4539.358887,4523.205078,4511.282227,4386.025879,4406.794922,4563.205078,4509.102539,4489.743652,4386.282227,4560.897461,4382.05127,4539.871582,4482.436035,4385.0,4513.589844,4479.230957,2985.0,1.0,22.0,256.0,17149.0,,,,0.0,4.0,4.0,4.0,4.0,4.0,4.0,4.0,4.0,4.0,4.0,4.0,4.0,4.0,4.0,4.0,4.0,4.0,4.0,4.0,4.0,4.0,4.0,4.0,4.0,4.0,4.0,4.0,4.0,4.0,4.0,4.0,4.0,100.0,,,,,,,,,,,,,,,,,,,,,,,,,,,,,,,,,,,,,,,,,,,,,,,,,,,,,,,,,,,,,,,,,,,,,,,,,,,,,,,,,,,,,,,,,,,,,,,,,,,,,,,,,,,,,,,,,,,,,,,,,,,,,,,,,,,,,,,,,,,,,,,,,,,,,,,,,,,,,,,,,,,,,,,,,,,,,,,,,,,,,,,,,,,,,,,,,,,,,,,,,,,,,,
1763973772.353078,38583.0,0.0,4374.487305,4377.94873,4480.128418,4525.0,4376.282227,4511.666504,4526.794922,4389.230957,4576.666504,4398.974121,4491.025879,4499.230957,4561.025879,4394.871582,4380.256348,4472.692383,4539.358887,4521.794922,4514.743652,4382.94873,4404.230957,4565.641113,4510.512695,4490.0,4388.846191,4565.128418,4388.205078,4542.179688,4488.846191,4388.461426,4518.846191,4485.0,2942.0,1.0,22.0,256.0,17149.0,,,,0.0,4.0,4.0,4.0,4.0,4.0,4.0,4.0,4.0,4.0,4.0,4.0,4.0,4.0,4.0,4.0,4.0,4.0,4.0,4.0,4.0,4.0,4.0,4.0,4.0,4.0,4.0,4.0,4.0,4.0,4.0,4.0,4.0,100.0,,,,,,,,,,,,,,,,,,,,,,,,,,,,,,,,,,,,,,,,,,,,,,,,,,,,,,,,,,,,,,,,,,,,,,,,,,,,,,,,,,,,,,,,,,,,,,,,,,,,,,,,,,,,,,,,,,,,,,,,,,,,,,,,,,,,,,,,,,,,,,,,,,,,,,,,,,,,,,,,,,,,,,,,,,,,,,,,,,,,,,,,,,,,,,,,,,,,,,,,,,,,,,
1763973772.356984,38584.0,0.0,4374.615234,4382.692383,4483.974121,4527.179688,4381.794922,4511.538574,4527.05127,4392.692383,4579.230957,4392.94873,4492.436035,4500.512695,4562.05127,4398.846191,4377.94873,4484.487305,4541.410156,4526.538574,4519.230957,4383.205078,4399.615234,4568.461426,4512.307617,4489.615234,4390.256348,4568.333496,4390.769043,4542.563965,4493.461426,4391.153809,4521.794922,4488.846191,2908.0,1.0,22.0,256.0,17157.0,,,,0.0,4.0,4.0,4.0,4.0,4.0,4.0,4.0,4.0,4.0,4.0,4.0,4.0,4.0,4.0,4.0,4.0,4.0,4.0,4.0,4.0,4.0,4.0,4.0,4.0,4.0,4.0,4.0,4.0,4.0,4.0,4.0,4.0,100.0,,,,,,,,,,,,,,,,,,,,,,,,,,,,,,,,,,,,,,,,,,,,,,,,,,,,,,,,,,,,,,,,,,,,,,,,,,,,,,,,,,,,,,,,,,,,,,,,,,,,,,,,,,,,,,,,,,,,,,,,,,,,,,,,,,,,,,,,,,,,,,,,,,,,,,,,,,,,,,,,,,,,,,,,,,,,,,,,,,,,,,,,,,,,,,,,,,,,,,,,,,,,,,
