title:Neutral3, start timestamp:1764665234.159713, stop timestamp:1764665241.533611, headset type:FLEX2, headset serial:F30002B4, headset firmware:2f10, channels:283, sampling rate:eeg_256;mot_64;pow_8, samples:1889      , version:2.2, ,,,,,,,,,,,,,,,,,,,,,,,,,,,,,,,,,,,,,,,,,,,,,,,,,,,,,,,,,,,,,,,,,,,,,,,,,,,,,,,,,,,,,,,,,,,,,,,,,,,,,,,,,,,,,,,,,,,,,,,,,,,,,,,,,,,,,,,,,,,,,,,,,,,,,,,,,,,,,,,,,,,,,,,,,,,,,,,,,,,,,,,,,,,,,,,,,,,,,,,,,,,,,,,,,,,,,,,,,,,,,,,,,,,,,,,,,,,,,,,,,,,,,,,,,,,,,,,,,,,,,,,,,,,,,,,,
Timestamp,EEG.Counter,EEG.Interpolated,EEG.Cz,EEG.Fz,EEG.Fp1,EEG.F7,EEG.F3,EEG.FC1,EEG.C3,EEG.FC5,EEG.FT9,EEG.T7,EEG.CP5,EEG.CP1,EEG.P3,EEG.P7,EEG.PO9,EEG.O1,EEG.Pz,EEG.Oz,EEG.O2,EEG.PO10,EEG.P8,EEG.P4,EEG.CP2,EEG.CP6,EEG.T8,EEG.FT10,EEG.FC6,EEG.C4,EEG.FC2,EEG.F4,EEG.F8,EEG.Fp2,EEG.RawCq,EEG.Battery,EEG.BatteryPercent,EEG.FwBufferSize,EEG.FwClockTime,MarkerIndex,MarkerType,MarkerValueInt,EEG.MarkerHardware,CQ.Cz,CQ.Fz,CQ.Fp1,CQ.F7,CQ.F3,CQ.FC1,CQ.C3,CQ.FC5,CQ.FT9,CQ.T7,CQ.CP5,CQ.CP1,CQ.P3,CQ.P7,CQ.PO9,CQ.O1,CQ.Pz,CQ.Oz,CQ.O2,CQ.PO10,CQ.P8,CQ.P4,CQ.CP2,CQ.CP6,CQ.T8,CQ.FT10,CQ.FC6,CQ.C4,CQ.FC2,CQ.F4,CQ.F8,CQ.Fp2,CQ.Overall,EQ.SampleRateQuality,EQ.OVERALL,EQ.Cz,EQ.Fz,EQ.Fp1,EQ.F7,EQ.F3,EQ.FC1,EQ.C3,EQ.FC5,EQ.FT9,EQ.T7,EQ.CP5,EQ.CP1,EQ.P3,EQ.P7,EQ.PO9,EQ.O1,EQ.Pz,EQ.Oz,EQ.O2,EQ.PO10,EQ.P8,EQ.P4,EQ.CP2,EQ.CP6,EQ.T8,EQ.FT10,EQ.FC6,EQ.C4,EQ.FC2,EQ.F4,EQ.F8,EQ.Fp2,MOT.CounterMems,MOT.InterpolatedMems,MOT.Q0,MOT.Q1,MOT.Q2,MOT.Q3,MOT.AccX,MOT.AccY,MOT.AccZ,MOT.MagX,MOT.MagY,MOT.MagZ,POW.Cz.Theta,POW.Cz.Alpha,POW.Cz.BetaL,POW.Cz.BetaH,POW.Cz.Gamma,POW.Fz.Theta,POW.Fz.Alpha,POW.Fz.BetaL,POW.Fz.BetaH,POW.Fz.Gamma,POW.Fp1.Theta,POW.Fp1.Alpha,POW.Fp1.BetaL,POW.Fp1.BetaH,POW.Fp1.Gamma,POW.F7.Theta,POW.F7.Alpha,POW.F7.BetaL,POW.F7.BetaH,POW.F7.Gamma,POW.F3.Theta,POW.F3.Alpha,POW.F3.BetaL,POW.F3.BetaH,POW.F3.Gamma,POW.FC1.Theta,POW.FC1.Alpha,POW.FC1.BetaL,POW.FC1.BetaH,POW.FC1.Gamma,POW.C3.Theta,POW.C3.Alpha,POW.C3.BetaL,POW.C3.BetaH,POW.C3.Gamma,POW.FC5.Theta,POW.FC5.Alpha,POW.FC5.BetaL,POW.FC5.BetaH,POW.FC5.Gamma,POW.FT9.Theta,POW.FT9.Alpha,POW.FT9.BetaL,POW.FT9.BetaH,POW.FT9.Gamma,POW.T7.Theta,POW.T7.Alpha,POW.T7.BetaL,POW.T7.BetaH,POW.T7.Gamma,POW.CP5.Theta,POW.CP5.Alpha,POW.CP5.BetaL,POW.CP5.BetaH,POW.CP5.Gamma,POW.CP1.Theta,POW.CP1.Alpha,POW.CP1.BetaL,POW.CP1.BetaH,POW.CP1.Gamma,POW.P3.Theta,POW.P3.Alpha,POW.P3.BetaL,POW.P3.BetaH,POW.P3.Gamma,POW.P7.Theta,POW.P7.Alpha,POW.P7.BetaL,POW.P7.BetaH,POW.P7.Gamma,POW.PO9.Theta,POW.PO9.Alpha,POW.PO9.BetaL,POW.PO9.BetaH,POW.PO9.Gamma,POW.O1.Theta,POW.O1.Alpha,POW.O1.BetaL,POW.O1.BetaH,POW.O1.Gamma,POW.Pz.Theta,POW.Pz.Alpha,POW.Pz.BetaL,POW.Pz.BetaH,POW.Pz.Gamma,POW.Oz.Theta,POW.Oz.Alpha,POW.Oz.BetaL,POW.Oz.BetaH,POW.Oz.Gamma,POW.O2.Theta,POW.O2.Alpha,POW.O2.BetaL,POW.O2.BetaH,POW.O2.Gamma,POW.PO10.Theta,POW.PO10.Alpha,POW.PO10.BetaL,POW.PO10.BetaH,POW.PO10.Gamma,POW.P8.Theta,POW.P8.Alpha,POW.P8.BetaL,POW.P8.BetaH,POW.P8.Gamma,POW.P4.Theta,POW.P4.Alpha,POW.P4.BetaL,POW.P4.BetaH,POW.P4.Gamma,POW.CP2.Theta,POW.CP2.Alpha,POW.CP2.BetaL,POW.CP2.BetaH,POW.CP2.Gamma,POW.CP6.Theta,POW.CP6.Alpha,POW.CP6.BetaL,POW.CP6.BetaH,POW.CP6.Gamma,POW.T8.Theta,POW.T8.Alpha,POW.T8.BetaL,POW.T8.BetaH,POW.T8.Gamma,POW.FT10.Theta,POW.FT10.Alpha,POW.FT10.BetaL,POW.FT10.BetaH,POW.FT10.Gamma,POW.FC6.Theta,POW.FC6.Alpha,POW.FC6.BetaL,POW.FC6.BetaH,POW.FC6.Gamma,POW.C4.Theta,POW.C4.Alpha,POW.C4.BetaL,POW.C4.BetaH,POW.C4.Gamma,POW.FC2.Theta,POW.FC2.Alpha,POW.FC2.BetaL,POW.FC2.BetaH,POW.FC2.Gamma,POW.F4.Theta,POW.F4.Alpha,POW.F4.BetaL,POW.F4.BetaH,POW.F4.Gamma,POW.F8.Theta,POW.F8.Alpha,POW.F8.BetaL,POW.F8.BetaH,POW.F8.Gamma,POW.Fp2.Theta,POW.Fp2.Alpha,POW.Fp2.BetaL,POW.Fp2.BetaH,POW.Fp2.Gamma
1764665234.651892,44913,1,4372.94873,4391.760742,4507.829102,4531.025879,4395.393066,4508.375977,4533.094238,4389.692383,4559.974121,4378.777832,4495.418945,4501.709473,4556.273438,4400.563965,4372.598145,4502.273438,4540.692383,4533.213867,4500.931641,4369.273438,4386.914551,4558.974121,4507.931641,4494.863281,4390.265137,4565.871582,4376.905762,4553.803223,4493.914551,4384.256348,4515.495605,4493.282227,0,1,25,0,0,1,1,3,0,4,4,4,4,4,4,4,4,4,4,4,4,4,4,4,4,4,4,4,4,4,4,4,4,4,4,4,4,4,4,4,4,100,,,,,,,,,,,,,,,,,,,,,,,,,,,,,,,,,,,,,,,,,,,,,,,,,,,,,,,,,,,,,,,,,,,,,,,,,,,,,,,,,,,,,,,,,,,,,,,,,,,,,,,,,,,,,,,,,,,,,,,,,,,,,,,,,,,,,,,,,,,,,,,,,,,,,,,,,,,,,,,,,,,,,,,,,,,,,,,,,,,,,,,,,,,,,,,,,,,,,,,,,,,,,,
1764665234.655799,44914,1,4371.282227,4389.128418,4505.794922,4530.256348,4393.358887,4506.666504,4531.974121,4388.692383,4559.025879,4378.512695,4494.846191,4500.897461,4555.871582,4400.282227,4372.538574,4502.974121,4539.641113,4532.589844,4500.487305,4368.077148,4385.487305,4557.307617,4506.487305,4493.436035,4388.743652,4564.282227,4374.692383,4551.538574,4492.641113,4381.615234,4512.769043,4491.128418,0,1,25,0,0,,,,0,4,4,4,4,4,4,4,4,4,4,4,4,4,4,4,4,4,4,4,4,4,4,4,4,4,4,4,4,4,4,4,4,100,,,,,,,,,,,,,,,,,,,,,,,,,,,,,,,,,,,,,,,,,,,,,,,,,,,,,,,,,,,,,,,,,,,,,,,,,,,,,,,,,,,,,,,,,,,,,,,,,,,,,,,,,,,,,,,,,,,,,,,,,,,,,,,,,,,,,,,,,,,,,,,,,,,,,,,,,,,,,,,,,,,,,,,,,,,,,,,,,,,,,,,,,,,,,,,,,,,,,,,,,,,,,,
1764665234.659707,44915,1,4369.615234,4386.495605,4503.760742,4529.487305,4391.324707,4504.957031,4530.854492,4387.692383,4558.077148,4378.248047,4494.273438,4500.085449,4555.470215,4400,4372.478516,4503.675293,4538.589844,4531.96582,4500.042969,4366.880371,4384.060059,4555.641113,4505.042969,4492.008789,4387.222168,4562.692383,4372.478516,4549.273438,4491.367676,4378.974121,4510.042969,4488.974121,0,1,25,0,0,,,,0,4,4,4,4,4,4,4,4,4,4,4,4,4,4,4,4,4,4,4,4,4,4,4,4,4,4,4,4,4,4,4,4,100,,,,,,,,,,,,,,,,,,,,,,,,,,,,,,,,,,,27611,1,0.263303,-0.600021,-0.732941,0.182877,0.966671,0.214504,0.059578,23.625,27.958334,44.708332,,,,,,,,,,,,,,,,,,,,,,,,,,,,,,,,,,,,,,,,,,,,,,,,,,,,,,,,,,,,,,,,,,,,,,,,,,,,,,,,,,,,,,,,,,,,,,,,,,,,,,,,,,,,,,,,,,,,,,,,,,,,,,,,,,,,,,,,,,,,,,,,,,,,,,,,,,,,,,,,
1764665234.663614,44916,1,4367.94873,4383.863281,4501.726563,4528.717773,4389.290527,4503.248047,4529.734863,4386.692383,4557.128418,4377.98291,4493.700684,4499.273438,4555.068359,4399.717773,4372.418945,4504.375977,4537.538574,4531.341797,4499.598145,4365.683594,4382.632324,4553.974121,4503.598145,4490.581055,4385.700684,4561.102539,4370.265137,4547.008789,4490.094238,4376.333496,4507.316406,4486.820313,0,1,25,0,0,,,,0,4,4,4,4,4,4,4,4,4,4,4,4,4,4,4,4,4,4,4,4,4,4,4,4,4,4,4,4,4,4,4,4,100,,,,,,,,,,,,,,,,,,,,,,,,,,,,,,,,,,,,,,,,,,,,,,,,,,,,,,,,,,,,,,,,,,,,,,,,,,,,,,,,,,,,,,,,,,,,,,,,,,,,,,,,,,,,,,,,,,,,,,,,,,,,,,,,,,,,,,,,,,,,,,,,,,,,,,,,,,,,,,,,,,,,,,,,,,,,,,,,,,,,,,,,,,,,,,,,,,,,,,,,,,,,,,
1764665234.667521,44917,1,4366.282227,4381.230957,4499.692383,4527.94873,4387.256348,4501.538574,4528.615234,4385.692383,4556.179688,4377.717773,4493.128418,4498.461426,4554.666504,4399.436035,4372.358887,4505.077148,4536.487305,4530.717773,4499.153809,4364.487305,4381.205078,4552.307617,4502.153809,4489.153809,4384.179688,4559.512695,4368.05127,4544.743652,4488.820313,4373.692383,4504.589844,4484.666504,0,1,25,0,0,,,,0,4,4,4,4,4,4,4,4,4,4,4,4,4,4,4,4,4,4,4,4,4,4,4,4,4,4,4,4,4,4,4,4,100,,,,,,,,,,,,,,,,,,,,,,,,,,,,,,,,,,,27612,1,0.263285,-0.600006,-0.732971,0.182831,0.966427,0.215114,0.057624,23.583334,28.083334,44.416668,,,,,,,,,,,,,,,,,,,,,,,,,,,,,,,,,,,,,,,,,,,,,,,,,,,,,,,,,,,,,,,,,,,,,,,,,,,,,,,,,,,,,,,,,,,,,,,,,,,,,,,,,,,,,,,,,,,,,,,,,,,,,,,,,,,,,,,,,,,,,,,,,,,,,,,,,,,,,,,,
1764665234.671428,44918,1,4364.615234,4378.598145,4497.658203,4527.179688,4385.222168,4499.829102,4527.495605,4384.692383,4555.230957,4377.453125,4492.555664,4497.649414,4554.265137,4399.153809,4372.299316,4505.777832,4535.436035,4530.094238,4498.709473,4363.290527,4379.777832,4550.641113,4500.709473,4487.726563,4382.658203,4557.922852,4365.837402,4542.478516,4487.546875,4371.05127,4501.863281,4482.512695,0,1,25,0,0,,,,0,4,4,4,4,4,4,4,4,4,4,4,4,4,4,4,4,4,4,4,4,4,4,4,4,4,4,4,4,4,4,4,4,100,,,,,,,,,,,,,,,,,,,,,,,,,,,,,,,,,,,,,,,,,,,,,,,,,,,,,,,,,,,,,,,,,,,,,,,,,,,,,,,,,,,,,,,,,,,,,,,,,,,,,,,,,,,,,,,,,,,,,,,,,,,,,,,,,,,,,,,,,,,,,,,,,,,,,,,,,,,,,,,,,,,,,,,,,,,,,,,,,,,,,,,,,,,,,,,,,,,,,,,,,,,,,,
1764665234.675335,44919,1,4362.94873,4375.96582,4495.624023,4526.410156,4383.187988,4498.119629,4526.375977,4383.692383,4554.282227,4377.187988,4491.98291,4496.837402,4553.863281,4398.871582,4372.239258,4506.478516,4534.384766,4529.470215,4498.265137,4362.094238,4378.350586,4548.974121,4499.265137,4486.299316,4381.136719,4556.333496,4363.624023,4540.213867,4486.273438,4368.410156,4499.136719,4480.358887,0,1,25,0,0,,,,0,4,4,4,4,4,4,4,4,4,4,4,4,4,4,4,4,4,4,4,4,4,4,4,4,4,4,4,4,4,4,4,4,100,,,,,,,,,,,,,,,,,,,,,,,,,,,,,,,,,,,27613,1,0.263266,-0.599991,-0.733002,0.182785,0.966182,0.215725,0.055671,23.541666,28.208334,44.125,,,,,,,,,,,,,,,,,,,,,,,,,,,,,,,,,,,,,,,,,,,,,,,,,,,,,,,,,,,,,,,,,,,,,,,,,,,,,,,,,,,,,,,,,,,,,,,,,,,,,,,,,,,,,,,,,,,,,,,,,,,,,,,,,,,,,,,,,,,,,,,,,,,,,,,,,,,,,,,,
1764665234.679243,44920,0,4361.282227,4373.333496,4493.589844,4525.641113,4381.153809,4496.410156,4525.256348,4382.692383,4553.333496,4376.922852,4491.410156,4496.025879,4553.461426,4398.589844,4372.179688,4507.179688,4533.333496,4528.846191,4497.820313,4360.897461,4376.922852,4547.307617,4497.820313,4484.871582,4379.615234,4554.743652,4361.410156,4537.94873,4485,4365.769043,4496.410156,4478.205078,2758,1,25,2570,45678,,,,0,4,4,4,4,4,4,4,4,4,4,4,4,4,4,4,4,4,4,4,4,4,4,4,4,4,4,4,4,4,4,4,4,100,,,,,,,,,,,,,,,,,,,,,,,,,,,,,,,,,,,,,,,,,,,,,,,,,,,,,,,,,,,,,,,,,,,,,,,,,,,,,,,,,,,,,,,,,,,,,,,,,,,,,,,,,,,,,,,,,,,,,,,,,,,,,,,,,,,,,,,,,,,,,,,,,,,,,,,,,,,,,,,,,,,,,,,,,,,,,,,,,,,,,,,,,,,,,,,,,,,,,,,,,,,,,,
1764665234.683150,44921,0,4359.743652,4370.769043,4490.128418,4522.05127,4376.153809,4496.025879,4521.794922,4380.128418,4553.589844,4382.436035,4489.743652,4493.205078,4553.974121,4398.333496,4370.128418,4506.025879,4529.743652,4526.410156,4497.820313,4361.922852,4377.820313,4547.05127,4498.333496,4481.025879,4372.436035,4556.666504,4361.153809,4537.820313,4484.230957,4363.461426,4497.692383,4478.717773,2809,1,25,2570,45678,,,,0,4,4,4,4,4,4,4,4,4,4,4,4,4,4,4,4,4,4,4,4,4,4,4,4,4,4,4,4,4,4,4,4,100,,,,,,,,,,,,,,,,,,,,,,,,,,,,,,,,,,,27614,0,0.263248,-0.599976,-0.733032,0.182739,0.965938,0.216335,0.053717,23.5,28.333334,43.833332,,,,,,,,,,,,,,,,,,,,,,,,,,,,,,,,,,,,,,,,,,,,,,,,,,,,,,,,,,,,,,,,,,,,,,,,,,,,,,,,,,,,,,,,,,,,,,,,,,,,,,,,,,,,,,,,,,,,,,,,,,,,,,,,,,,,,,,,,,,,,,,,,,,,,,,,,,,,,,,,
1764665234.687057,44922,0,4359.615234,4367.94873,4487.692383,4520.512695,4372.94873,4496.153809,4520.256348,4376.666504,4552.563965,4392.307617,4487.820313,4491.922852,4554.102539,4396.666504,4368.205078,4501.282227,4525.256348,4522.692383,4495.512695,4365.641113,4376.794922,4548.077148,4498.077148,4475.512695,4367.436035,4555.128418,4358.974121,4536.282227,4483.077148,4362.692383,4494.615234,4477.436035,1951,1,25,2571,45686,,,,0,4,4,4,4,4,4,4,4,4,4,4,4,4,4,4,4,4,4,4,4,4,4,4,4,4,4,4,4,4,4,4,4,100,0.972656,100,4,4,4,4,4,4,4,4,4,4,4,4,4,4,4,4,4,4,4,4,4,4,4,4,4,4,4,4,4,4,4,4,,,,,,,,,,,,,2.512794,4.222599,0.464658,0.640338,0.612952,2.59637,4.343226,0.380497,0.875865,0.646389,1.193932,4.201684,0.759023,0.761036,0.773011,0.705659,3.852975,0.721315,0.799258,0.692745,1.753527,4.168241,0.479291,0.666651,0.547883,1.819875,5.075151,0.408516,0.585051,0.60252,1.57527,4.363642,0.523615,0.655135,0.718659,1.86379,4.459684,0.621834,0.79463,0.772133,0.968334,2.995847,0.70219,0.606969,0.680578,0.936839,3.707804,0.993434,1.524059,1.248317,1.318912,2.45454,0.31269,0.519718,0.548925,2.036155,3.957911,0.333248,0.543496,0.629107,1.496022,2.945504,0.609985,0.552209,0.587336,0.643969,0.686782,0.603921,0.407042,0.441589,0.252074,0.445598,0.688431,0.601845,0.740153,0.986579,1.180625,0.692545,0.459965,0.452509,2.682229,5.783681,0.975513,0.729945,0.636788,0.959087,2.748745,1.280286,0.890422,0.682104,0.467122,2.647635,1.029282,0.49128,0.373955,0.574141,2.806791,0.969987,0.924442,0.750037,1.571621,3.607062,2.167935,0.937416,0.656098,2.421782,4.612479,1.52328,0.980404,0.656328,3.059182,3.623693,0.543665,0.637642,0.618364,2.504831,2.529939,1.193003,1.200069,0.769284,2.249794,4.763366,1.722545,2.02868,1.804191,2.210141,1.504463,0.766173,0.934844,0.605595,3.096478,2.909144,0.746312,1.039616,0.816851,3.676367,3.717794,0.664256,0.847314,0.653953,2.047247,2.272637,0.235041,0.454827,0.280473,3.645276,2.631269,0.787258,0.885163,0.691604,4.077494,2.116391,0.516465,0.852501,0.692243,3.61515,2.760705,0.582921,0.88967,0.748387
1764665234.690964,44923,0,4361.538574,4366.922852,4487.820313,4521.153809,4373.589844,4496.025879,4520.641113,4374.871582,4551.282227,4399.743652,4487.436035,4492.307617,4554.487305,4394.871582,4367.692383,4496.410156,4522.179688,4519.743652,4493.077148,4369.743652,4375.128418,4549.487305,4497.820313,4472.307617,4368.717773,4552.436035,4356.794922,4534.102539,4483.077148,4364.487305,4490,4475.769043,2632,1,25,2571,45686,,,,0,4,4,4,4,4,4,4,4,4,4,4,4,4,4,4,4,4,4,4,4,4,4,4,4,4,4,4,4,4,4,4,4,100,,,,,,,,,,,,,,,,,,,,,,,,,,,,,,,,,,,,,,,,,,,,,,,,,,,,,,,,,,,,,,,,,,,,,,,,,,,,,,,,,,,,,,,,,,,,,,,,,,,,,,,,,,,,,,,,,,,,,,,,,,,,,,,,,,,,,,,,,,,,,,,,,,,,,,,,,,,,,,,,,,,,,,,,,,,,,,,,,,,,,,,,,,,,,,,,,,,,,,,,,,,,,,
1764665234.694871,44924,0,4364.615234,4368.333496,4490.256348,4522.692383,4377.563965,4495.897461,4522.436035,4376.153809,4551.410156,4400,4489.102539,4493.974121,4555.512695,4393.589844,4368.205078,4493.846191,4521.922852,4518.077148,4491.666504,4371.794922,4373.974121,4550,4498.333496,4473.333496,4375.384766,4551.410156,4356.538574,4532.94873,4484.230957,4368.717773,4488.077148,4475.384766,2687,1,25,2572,45694,,,,0,4,4,4,4,4,4,4,4,4,4,4,4,4,4,4,4,4,4,4,4,4,4,4,4,4,4,4,4,4,4,4,4,100,,,,,,,,,,,,,,,,,,,,,,,,,,,,,,,,,,,,,,,,,,,,,,,,,,,,,,,,,,,,,,,,,,,,,,,,,,,,,,,,,,,,,,,,,,,,,,,,,,,,,,,,,,,,,,,,,,,,,,,,,,,,,,,,,,,,,,,,,,,,,,,,,,,,,,,,,,,,,,,,,,,,,,,,,,,,,,,,,,,,,,,,,,,,,,,,,,,,,,,,,,,,,,
1764665234.698779,44925,0,4366.538574,4371.538574,4494.102539,4523.717773,4382.307617,4495.256348,4524.743652,4379.358887,4553.077148,4392.05127,4491.153809,4495.256348,4555.512695,4392.436035,4368.717773,4493.717773,4523.589844,4516.538574,4490.897461,4370.641113,4373.333496,4548.333496,4499.487305,4476.922852,4381.666504,4552.692383,4358.205078,4533.717773,4485.128418,4372.94873,4490.769043,4477.436035,2505,1,25,2572,45694,,,,0,4,4,4,4,4,4,4,4,4,4,4,4,4,4,4,4,4,4,4,4,4,4,4,4,4,4,4,4,4,4,4,4,100,,,,,,,,,,,,,,,,,,,,,,,,,,,,,,,,,,,27615,0,0.263248,-0.599976,-0.733032,0.182739,0.965938,0.215847,0.049322,25.5,27.666666,43.833332,,,,,,,,,,,,,,,,,,,,,,,,,,,,,,,,,,,,,,,,,,,,,,,,,,,,,,,,,,,,,,,,,,,,,,,,,,,,,,,,,,,,,,,,,,,,,,,,,,,,,,,,,,,,,,,,,,,,,,,,,,,,,,,,,,,,,,,,,,,,,,,,,,,,,,,,,,,,,,,,
1764665234.702686,44926,0,4365.897461,4374.230957,4497.820313,4523.589844,4384.487305,4493.717773,4526.153809,4381.282227,4554.615234,4379.487305,4490.641113,4494.743652,4552.307617,4390.384766,4368.077148,4493.717773,4524.358887,4513.461426,4490.256348,4367.307617,4372.692383,4544.615234,4500.384766,4479.102539,4380.769043,4554.743652,4360.256348,4535.384766,4484.871582,4375.128418,4496.794922,4481.410156,2649,1,25,2572,45702,,,,0,4,4,4,4,4,4,4,4,4,4,4,4,4,4,4,4,4,4,4,4,4,4,4,4,4,4,4,4,4,4,4,4,100,,,,,,,,,,,,,,,,,,,,,,,,,,,,,,,,,,,,,,,,,,,,,,,,,,,,,,,,,,,,,,,,,,,,,,,,,,,,,,,,,,,,,,,,,,,,,,,,,,,,,,,,,,,,,,,,,,,,,,,,,,,,,,,,,,,,,,,,,,,,,,,,,,,,,,,,,,,,,,,,,,,,,,,,,,,,,,,,,,,,,,,,,,,,,,,,,,,,,,,,,,,,,,
1764665234.706593,44927,0,4363.461426,4374.743652,4500.384766,4522.563965,4382.692383,4491.282227,4525.641113,4379.615234,4554.487305,4367.692383,4486.153809,4492.307617,4546.025879,4387.179688,4366.410156,4492.05127,4522.820313,4509.102539,4489.743652,4364.743652,4372.05127,4541.410156,4500.769043,4478.077148,4372.436035,4555.256348,4361.282227,4536.538574,4484.102539,4374.615234,4502.436035,4485.641113,2819,1,25,2572,45702,,,,0,4,4,4,4,4,4,4,4,4,4,4,4,4,4,4,4,4,4,4,4,4,4,4,4,4,4,4,4,4,4,4,4,100,,,,,,,,,,,,,,,,,,,,,,,,,,,,,,,,,,,,,,,,,,,,,,,,,,,,,,,,,,,,,,,,,,,,,,,,,,,,,,,,,,,,,,,,,,,,,,,,,,,,,,,,,,,,,,,,,,,,,,,,,,,,,,,,,,,,,,,,,,,,,,,,,,,,,,,,,,,,,,,,,,,,,,,,,,,,,,,,,,,,,,,,,,,,,,,,,,,,,,,,,,,,,,
1764665234.710500,44928,0,4361.922852,4373.589844,4501.666504,4520.769043,4379.487305,4489.615234,4522.94873,4375,4552.563965,4362.563965,4478.846191,4489.230957,4539.102539,4383.333496,4365.641113,4488.846191,4520.128418,4505.641113,4490,4365.128418,4372.563965,4541.153809,4501.153809,4475.256348,4363.333496,4553.974121,4361.410156,4536.794922,4484.487305,4373.333496,4504.615234,4488.461426,2758,1,25,2571,45710,,,,0,4,4,4,4,4,4,4,4,4,4,4,4,4,4,4,4,4,4,4,4,4,4,4,4,4,4,4,4,4,4,4,4,100,,,,,,,,,,,,,,,,,,,,,,,,,,,,,,,,,,,,,,,,,,,,,,,,,,,,,,,,,,,,,,,,,,,,,,,,,,,,,,,,,,,,,,,,,,,,,,,,,,,,,,,,,,,,,,,,,,,,,,,,,,,,,,,,,,,,,,,,,,,,,,,,,,,,,,,,,,,,,,,,,,,,,,,,,,,,,,,,,,,,,,,,,,,,,,,,,,,,,,,,,,,,,,
1764665234.714408,44929,0,4363.717773,4372.820313,4502.820313,4518.974121,4378.077148,4490.641113,4520,4370.384766,4550.641113,4367.307617,4473.461426,4488.333496,4535.384766,4380,4367.05127,4486.666504,4519.102539,4505.256348,4491.538574,4368.717773,4375,4544.871582,4502.05127,4473.974121,4361.794922,4552.436035,4362.307617,4537.307617,4487.179688,4373.461426,4503.974121,4489.743652,2924,1,25,2571,45710,,,,0,4,4,4,4,4,4,4,4,4,4,4,4,4,4,4,4,4,4,4,4,4,4,4,4,4,4,4,4,4,4,4,4,100,,,,,,,,,,,,,,,,,,,,,,,,,,,,,,,,,,,27616,0,0.263302,-0.599915,-0.733032,0.182861,0.968868,0.212917,0.038091,25.333334,30.166666,44.5,,,,,,,,,,,,,,,,,,,,,,,,,,,,,,,,,,,,,,,,,,,,,,,,,,,,,,,,,,,,,,,,,,,,,,,,,,,,,,,,,,,,,,,,,,,,,,,,,,,,,,,,,,,,,,,,,,,,,,,,,,,,,,,,,,,,,,,,,,,,,,,,,,,,,,,,,,,,,,,,
1764665234.718315,44930,0,4368.717773,4374.487305,4505,4518.205078,4380.641113,4494.871582,4520,4369.230957,4550.256348,4379.358887,4473.974121,4491.153809,4536.794922,4378.333496,4370.128418,4487.436035,4521.282227,4508.077148,4493.333496,4373.205078,4379.615234,4551.025879,4504.615234,4475.512695,4370.128418,4552.94873,4365.256348,4539.615234,4491.410156,4376.282227,4503.717773,4490.769043,2598,1,25,2572,45717,,,,0,4,4,4,4,4,4,4,4,4,4,4,4,4,4,4,4,4,4,4,4,4,4,4,4,4,4,4,4,4,4,4,4,100,,,,,,,,,,,,,,,,,,,,,,,,,,,,,,,,,,,,,,,,,,,,,,,,,,,,,,,,,,,,,,,,,,,,,,,,,,,,,,,,,,,,,,,,,,,,,,,,,,,,,,,,,,,,,,,,,,,,,,,,,,,,,,,,,,,,,,,,,,,,,,,,,,,,,,,,,,,,,,,,,,,,,,,,,,,,,,,,,,,,,,,,,,,,,,,,,,,,,,,,,,,,,,
1764665234.722222,44931,0,4375.128418,4378.974121,4508.589844,4519.743652,4386.666504,4501.538574,4524.487305,4372.820313,4552.05127,4392.05127,4480.384766,4497.179688,4542.563965,4378.589844,4372.692383,4491.410156,4526.538574,4511.922852,4494.230957,4376.025879,4385.128418,4556.666504,4508.589844,4479.615234,4383.461426,4556.794922,4369.615234,4543.974121,4495.641113,4381.666504,4506.538574,4493.205078,2857,1,25,2572,45717,,,,0,4,4,4,4,4,4,4,4,4,4,4,4,4,4,4,4,4,4,4,4,4,4,4,4,4,4,4,4,4,4,4,4,100,,,,,,,,,,,,,,,,,,,,,,,,,,,,,,,,,,,,,,,,,,,,,,,,,,,,,,,,,,,,,,,,,,,,,,,,,,,,,,,,,,,,,,,,,,,,,,,,,,,,,,,,,,,,,,,,,,,,,,,,,,,,,,,,,,,,,,,,,,,,,,,,,,,,,,,,,,,,,,,,,,,,,,,,,,,,,,,,,,,,,,,,,,,,,,,,,,,,,,,,,,,,,,
1764665234.726129,44932,0,4380.641113,4385.512695,4513.205078,4523.846191,4393.846191,4509.230957,4532.05127,4379.487305,4555.512695,4397.692383,4488.846191,4504.358887,4550,4380.384766,4373.205078,4496.666504,4532.94873,4515.128418,4494.487305,4377.05127,4390.256348,4560.256348,4513.846191,4485,4394.358887,4563.205078,4374.615234,4550.128418,4498.974121,4387.820313,4513.461426,4498.205078,2748,1,25,2573,45725,,,,0,4,4,4,4,4,4,4,4,4,4,4,4,4,4,4,4,4,4,4,4,4,4,4,4,4,4,4,4,4,4,4,4,100,,,,,,,,,,,,,,,,,,,,,,,,,,,,,,,,,,,,,,,,,,,,,,,,,,,,,,,,,,,,,,,,,,,,,,,,,,,,,,,,,,,,,,,,,,,,,,,,,,,,,,,,,,,,,,,,,,,,,,,,,,,,,,,,,,,,,,,,,,,,,,,,,,,,,,,,,,,,,,,,,,,,,,,,,,,,,,,,,,,,,,,,,,,,,,,,,,,,,,,,,,,,,,
1764665234.730036,44933,0,4384.358887,4392.179688,4517.05127,4528.333496,4399.358887,4515.897461,4539.230957,4386.153809,4558.846191,4392.94873,4494.358887,4510.128418,4555.897461,4382.563965,4371.666504,4501.538574,4538.717773,4518.333496,4495.769043,4377.94873,4394.358887,4562.436035,4519.487305,4490.512695,4398.717773,4569.487305,4379.230957,4556.922852,4501.282227,4392.820313,4521.794922,4504.743652,2786,1,25,2573,45725,,,,0,4,4,4,4,4,4,4,4,4,4,4,4,4,4,4,4,4,4,4,4,4,4,4,4,4,4,4,4,4,4,4,4,100,,,,,,,,,,,,,,,,,,,,,,,,,,,,,,,,,,,27617,0,0.26343,-0.599915,-0.732971,0.182922,0.961543,0.213893,0.051764,24.5,27.833334,43.333332,,,,,,,,,,,,,,,,,,,,,,,,,,,,,,,,,,,,,,,,,,,,,,,,,,,,,,,,,,,,,,,,,,,,,,,,,,,,,,,,,,,,,,,,,,,,,,,,,,,,,,,,,,,,,,,,,,,,,,,,,,,,,,,,,,,,,,,,,,,,,,,,,,,,,,,,,,,,,,,,
1764665234.733944,44934,0,4385.769043,4396.025879,4517.94873,4529.743652,4401.153809,4519.102539,4541.922852,4389.615234,4560,4380.641113,4494.102539,4512.820313,4557.692383,4383.461426,4368.846191,4503.717773,4542.05127,4521.922852,4498.717773,4379.615234,4396.922852,4564.102539,4523.461426,4494.871582,4397.563965,4572.563965,4382.307617,4561.794922,4502.692383,4394.615234,4527.436035,4509.615234,2795,1,25,2574,45733,,,,0,4,4,4,4,4,4,4,4,4,4,4,4,4,4,4,4,4,4,4,4,4,4,4,4,4,4,4,4,4,4,4,4,100,,,,,,,,,,,,,,,,,,,,,,,,,,,,,,,,,,,,,,,,,,,,,,,,,,,,,,,,,,,,,,,,,,,,,,,,,,,,,,,,,,,,,,,,,,,,,,,,,,,,,,,,,,,,,,,,,,,,,,,,,,,,,,,,,,,,,,,,,,,,,,,,,,,,,,,,,,,,,,,,,,,,,,,,,,,,,,,,,,,,,,,,,,,,,,,,,,,,,,,,,,,,,,
1764665234.737851,44935,0,4383.846191,4394.871582,4514.102539,4525.128418,4397.94873,4516.666504,4538.589844,4387.05127,4557.563965,4367.05127,4488.589844,4511.666504,4555.256348,4381.666504,4365.384766,4502.179688,4542.05127,4525,4501.410156,4380.128418,4396.666504,4565,4523.333496,4495.641113,4393.589844,4570.384766,4381.538574,4562.179688,4503.077148,4391.922852,4525.641113,4508.205078,2977,1,25,2574,45733,,,,0,4,4,4,4,4,4,4,4,4,4,4,4,4,4,4,4,4,4,4,4,4,4,4,4,4,4,4,4,4,4,4,4,100,,,,,,,,,,,,,,,,,,,,,,,,,,,,,,,,,,,,,,,,,,,,,,,,,,,,,,,,,,,,,,,,,,,,,,,,,,,,,,,,,,,,,,,,,,,,,,,,,,,,,,,,,,,,,,,,,,,,,,,,,,,,,,,,,,,,,,,,,,,,,,,,,,,,,,,,,,,,,,,,,,,,,,,,,,,,,,,,,,,,,,,,,,,,,,,,,,,,,,,,,,,,,,
1764665234.741758,44936,0,4378.333496,4388.974121,4506.410156,4515.512695,4391.538574,4509.871582,4531.153809,4379.230957,4552.179688,4358.589844,4481.410156,4507.94873,4551.410156,4377.94873,4361.922852,4497.94873,4539.358887,4526.794922,4502.179688,4377.692383,4393.333496,4564.615234,4518.589844,4492.307617,4388.846191,4564.487305,4376.410156,4557.820313,4501.922852,4385.769043,4515.897461,4499.615234,2859,1,25,2575,45741,,,,0,4,4,4,4,4,4,4,4,4,4,4,4,4,4,4,4,4,4,4,4,4,4,4,4,4,4,4,4,4,4,4,4,100,,,,,,,,,,,,,,,,,,,,,,,,,,,,,,,,,,,,,,,,,,,,,,,,,,,,,,,,,,,,,,,,,,,,,,,,,,,,,,,,,,,,,,,,,,,,,,,,,,,,,,,,,,,,,,,,,,,,,,,,,,,,,,,,,,,,,,,,,,,,,,,,,,,,,,,,,,,,,,,,,,,,,,,,,,,,,,,,,,,,,,,,,,,,,,,,,,,,,,,,,,,,,,
1764665234.745665,44937,0,4372.563965,4382.94873,4499.871582,4506.922852,4386.538574,4503.974121,4525.256348,4371.410156,4547.692383,4359.487305,4478.077148,4505,4550.769043,4375.769043,4360.641113,4495.384766,4537.436035,4529.487305,4502.05127,4373.461426,4389.230957,4564.102539,4513.205078,4488.589844,4384.743652,4558.717773,4369.615234,4551.922852,4499.615234,4380.128418,4503.846191,4488.974121,2711,1,25,2575,45741,,,,0,4,4,4,4,4,4,4,4,4,4,4,4,4,4,4,4,4,4,4,4,4,4,4,4,4,4,4,4,4,4,4,4,100,,,,,,,,,,,,,,,,,,,,,,,,,,,,,,,,,,,27618,0,0.263345,-0.599915,-0.733032,0.1828,0.961543,0.213893,0.051764,24.5,27,44.166668,,,,,,,,,,,,,,,,,,,,,,,,,,,,,,,,,,,,,,,,,,,,,,,,,,,,,,,,,,,,,,,,,,,,,,,,,,,,,,,,,,,,,,,,,,,,,,,,,,,,,,,,,,,,,,,,,,,,,,,,,,,,,,,,,,,,,,,,,,,,,,,,,,,,,,,,,,,,,,,,
1764665234.749572,44938,0,4371.153809,4381.410156,4499.358887,4506.538574,4387.307617,4505,4526.666504,4370.512695,4549.102539,4369.615234,4482.307617,4506.922852,4556.538574,4378.846191,4364.358887,4499.358887,4540.512695,4536.153809,4504.102539,4371.794922,4388.717773,4565.512695,4512.179688,4490.128418,4383.077148,4557.692383,4366.666504,4549.615234,4497.820313,4379.487305,4497.820313,4484.358887,2277,1,25,2576,45749,,,,0,4,4,4,4,4,4,4,4,4,4,4,4,4,4,4,4,4,4,4,4,4,4,4,4,4,4,4,4,4,4,4,4,100,,,,,,,,,,,,,,,,,,,,,,,,,,,,,,,,,,,,,,,,,,,,,,,,,,,,,,,,,,,,,,,,,,,,,,,,,,,,,,,,,,,,,,,,,,,,,,,,,,,,,,,,,,,,,,,,,,,,,,,,,,,,,,,,,,,,,,,,,,,,,,,,,,,,,,,,,,,,,,,,,,,,,,,,,,,,,,,,,,,,,,,,,,,,,,,,,,,,,,,,,,,,,,
1764665234.753480,44939,0,4376.538574,4385.384766,4505,4515.641113,4394.358887,4513.717773,4535.384766,4378.717773,4557.436035,4384.871582,4493.077148,4514.358887,4567.179688,4387.563965,4373.589844,4510.512695,4549.358887,4546.922852,4510,4375.128418,4393.846191,4570.384766,4518.077148,4498.205078,4385.641113,4562.179688,4370.128418,4552.820313,4498.333496,4384.615234,4501.794922,4489.743652,2688,1,25,2576,45749,,,,0,4,4,4,4,4,4,4,4,4,4,4,4,4,4,4,4,4,4,4,4,4,4,4,4,4,4,4,4,4,4,4,4,100,,,,,,,,,,,,,,,,,,,,,,,,,,,,,,,,,,,,,,,,,,,,,,,,,,,,,,,,,,,,,,,,,,,,,,,,,,,,,,,,,,,,,,,,,,,,,,,,,,,,,,,,,,,,,,,,,,,,,,,,,,,,,,,,,,,,,,,,,,,,,,,,,,,,,,,,,,,,,,,,,,,,,,,,,,,,,,,,,,,,,,,,,,,,,,,,,,,,,,,,,,,,,,
1764665234.757387,44940,0,4385.384766,4391.025879,4511.410156,4528.461426,4402.307617,4524.615234,4545.384766,4390.641113,4567.692383,4398.077148,4503.974121,4523.205078,4576.794922,4397.307617,4384.102539,4522.94873,4559.743652,4556.153809,4516.666504,4381.410156,4401.410156,4576.410156,4526.922852,4507.692383,4390.769043,4568.974121,4377.05127,4558.846191,4501.153809,4391.153809,4511.282227,4500.769043,2489,1,25,2576,45757,,,,0,4,4,4,4,4,4,4,4,4,4,4,4,4,4,4,4,4,4,4,4,4,4,4,4,4,4,4,4,4,4,4,4,100,,,,,,,,,,,,,,,,,,,,,,,,,,,,,,,,,,,,,,,,,,,,,,,,,,,,,,,,,,,,,,,,,,,,,,,,,,,,,,,,,,,,,,,,,,,,,,,,,,,,,,,,,,,,,,,,,,,,,,,,,,,,,,,,,,,,,,,,,,,,,,,,,,,,,,,,,,,,,,,,,,,,,,,,,,,,,,,,,,,,,,,,,,,,,,,,,,,,,,,,,,,,,,
1764665234.761294,44941,0,4391.794922,4393.461426,4512.563965,4537.05127,4405.256348,4530,4549.743652,4397.692383,4573.333496,4403.461426,4508.717773,4527.307617,4579.615234,4402.563965,4390.641113,4529.230957,4565.128418,4557.94873,4519.230957,4385.384766,4405.128418,4579.358887,4532.179688,4511.666504,4395,4573.077148,4381.922852,4562.436035,4504.102539,4393.333496,4518.333496,4508.589844,2227,1,25,2576,45757,,,,0,4,4,4,4,4,4,4,4,4,4,4,4,4,4,4,4,4,4,4,4,4,4,4,4,4,4,4,4,4,4,4,4,100,,,,,,,,,,,,,,,,,,,,,,,,,,,,,,,,,,,27619,0,0.263387,-0.599915,-0.733032,0.182739,0.972287,0.217312,0.052252,23,28.833334,43.5,,,,,,,,,,,,,,,,,,,,,,,,,,,,,,,,,,,,,,,,,,,,,,,,,,,,,,,,,,,,,,,,,,,,,,,,,,,,,,,,,,,,,,,,,,,,,,,,,,,,,,,,,,,,,,,,,,,,,,,,,,,,,,,,,,,,,,,,,,,,,,,,,,,,,,,,,,,,,,,,
1764665234.765201,44942,0,4392.05127,4391.410156,4508.333496,4537.820313,4402.563965,4527.563965,4546.794922,4396.282227,4572.179688,4400.641113,4505.769043,4523.974121,4575,4401.025879,4390.512695,4526.025879,4562.179688,4550.897461,4515.512695,4384.102539,4401.666504,4576.922852,4529.743652,4507.179688,4396.025879,4571.922852,4382.179688,4561.153809,4504.743652,4389.743652,4518.717773,4508.589844,2705,1,25,2576,45764,,,,0,4,4,4,4,4,4,4,4,4,4,4,4,4,4,4,4,4,4,4,4,4,4,4,4,4,4,4,4,4,4,4,4,100,,,,,,,,,,,,,,,,,,,,,,,,,,,,,,,,,,,,,,,,,,,,,,,,,,,,,,,,,,,,,,,,,,,,,,,,,,,,,,,,,,,,,,,,,,,,,,,,,,,,,,,,,,,,,,,,,,,,,,,,,,,,,,,,,,,,,,,,,,,,,,,,,,,,,,,,,,,,,,,,,,,,,,,,,,,,,,,,,,,,,,,,,,,,,,,,,,,,,,,,,,,,,,
1764665234.769108,44943,0,4387.820313,4388.717773,4504.615234,4533.717773,4398.461426,4521.282227,4541.282227,4390.641113,4568.205078,4395,4499.871582,4516.282227,4568.077148,4395.897461,4386.538574,4516.666504,4553.461426,4540.384766,4507.820313,4380.256348,4393.717773,4570.769043,4521.538574,4498.077148,4395,4567.94873,4379.871582,4556.794922,4502.94873,4384.743652,4515,4503.846191,2495,1,25,2576,45764,,,,0,4,4,4,4,4,4,4,4,4,4,4,4,4,4,4,4,4,4,4,4,4,4,4,4,4,4,4,4,4,4,4,4,100,,,,,,,,,,,,,,,,,,,,,,,,,,,,,,,,,,,,,,,,,,,,,,,,,,,,,,,,,,,,,,,,,,,,,,,,,,,,,,,,,,,,,,,,,,,,,,,,,,,,,,,,,,,,,,,,,,,,,,,,,,,,,,,,,,,,,,,,,,,,,,,,,,,,,,,,,,,,,,,,,,,,,,,,,,,,,,,,,,,,,,,,,,,,,,,,,,,,,,,,,,,,,,
1764665234.773016,44944,0,4383.461426,4389.230957,4507.179688,4530.897461,4398.333496,4517.05127,4539.743652,4387.436035,4567.179688,4393.333496,4496.410156,4509.487305,4564.743652,4392.820313,4383.461426,4507.563965,4545.128418,4533.846191,4501.282227,4378.589844,4387.307617,4565.256348,4513.205078,4490.769043,4393.717773,4566.153809,4378.974121,4553.974121,4500.512695,4384.102539,4513.205078,4501.153809,2859,1,25,2576,45772,,,,0,4,4,4,4,4,4,4,4,4,4,4,4,4,4,4,4,4,4,4,4,4,4,4,4,4,4,4,4,4,4,4,4,100,,,,,,,,,,,,,,,,,,,,,,,,,,,,,,,,,,,,,,,,,,,,,,,,,,,,,,,,,,,,,,,,,,,,,,,,,,,,,,,,,,,,,,,,,,,,,,,,,,,,,,,,,,,,,,,,,,,,,,,,,,,,,,,,,,,,,,,,,,,,,,,,,,,,,,,,,,,,,,,,,,,,,,,,,,,,,,,,,,,,,,,,,,,,,,,,,,,,,,,,,,,,,,
1764665234.776923,44945,0,4381.794922,4393.205078,4515.641113,4532.05127,4402.563965,4517.436035,4544.102539,4389.743652,4571.666504,4397.563965,4497.436035,4507.179688,4566.922852,4394.743652,4383.205078,4502.94873,4541.282227,4534.230957,4498.974121,4381.025879,4386.153809,4562.692383,4509.102539,4488.717773,4392.307617,4568.589844,4380.897461,4554.358887,4499.615234,4388.846191,4515.641113,4503.717773,2906,1,25,2576,45772,,,,0,4,4,4,4,4,4,4,4,4,4,4,4,4,4,4,4,4,4,4,4,4,4,4,4,4,4,4,4,4,4,4,4,100,,,,,,,,,,,,,,,,,,,,,,,,,,,,,,,,,,,27620,0,0.263441,-0.599854,-0.733032,0.182861,0.971798,0.214382,0.052252,23.833334,29.166666,43.833332,,,,,,,,,,,,,,,,,,,,,,,,,,,,,,,,,,,,,,,,,,,,,,,,,,,,,,,,,,,,,,,,,,,,,,,,,,,,,,,,,,,,,,,,,,,,,,,,,,,,,,,,,,,,,,,,,,,,,,,,,,,,,,,,,,,,,,,,,,,,,,,,,,,,,,,,,,,,,,,,
1764665234.780830,44946,0,4382.179688,4396.410156,4523.205078,4534.743652,4407.436035,4520.128418,4549.743652,4394.230957,4577.820313,4403.589844,4501.025879,4507.94873,4570.128418,4399.358887,4383.846191,4502.307617,4541.410156,4538.333496,4499.871582,4384.102539,4388.461426,4561.410156,4509.102539,4490.128418,4389.358887,4572.94873,4383.461426,4555.512695,4500.128418,4393.974121,4519.487305,4508.589844,1753,1,25,2576,45780,,,,0,4,4,4,4,4,4,4,4,4,4,4,4,4,4,4,4,4,4,4,4,4,4,4,4,4,4,4,4,4,4,4,4,100,,,,,,,,,,,,,,,,,,,,,,,,,,,,,,,,,,,,,,,,,,,,,,,,,,,,,,,,,,,,,,,,,,,,,,,,,,,,,,,,,,,,,,,,,,,,,,,,,,,,,,,,,,,,,,,,,,,,,,,,,,,,,,,,,,,,,,,,,,,,,,,,,,,,,,,,,,,,,,,,,,,,,,,,,,,,,,,,,,,,,,,,,,,,,,,,,,,,,,,,,,,,,,
1764665234.784737,44947,0,4382.05127,4394.615234,4523.717773,4534.230957,4408.461426,4521.025879,4550,4395.384766,4579.615234,4405.512695,4503.205078,4508.205078,4568.461426,4401.666504,4381.538574,4501.538574,4541.410156,4539.487305,4500,4383.333496,4388.974121,4558.077148,4510,4490.384766,4384.102539,4574.102539,4383.077148,4553.717773,4500.256348,4393.717773,4520.256348,4509.743652,2947,1,25,2576,45780,,,,0,4,4,4,4,4,4,4,4,4,4,4,4,4,4,4,4,4,4,4,4,4,4,4,4,4,4,4,4,4,4,4,4,100,,,,,,,,,,,,,,,,,,,,,,,,,,,,,,,,,,,,,,,,,,,,,,,,,,,,,,,,,,,,,,,,,,,,,,,,,,,,,,,,,,,,,,,,,,,,,,,,,,,,,,,,,,,,,,,,,,,,,,,,,,,,,,,,,,,,,,,,,,,,,,,,,,,,,,,,,,,,,,,,,,,,,,,,,,,,,,,,,,,,,,,,,,,,,,,,,,,,,,,,,,,,,,
1764665234.788644,44948,0,4379.487305,4387.94873,4516.025879,4528.333496,4403.974121,4517.820313,4542.179688,4390.512695,4573.333496,4400,4501.025879,4505.512695,4559.615234,4398.205078,4374.743652,4497.563965,4537.94873,4533.589844,4497.05127,4377.05127,4384.487305,4551.282227,4507.94873,4486.153809,4377.820313,4569.615234,4378.205078,4547.820313,4498.077148,4386.410156,4516.153809,4504.487305,2510,1,25,2576,45788,,,,0,4,4,4,4,4,4,4,4,4,4,4,4,4,4,4,4,4,4,4,4,4,4,4,4,4,4,4,4,4,4,4,4,100,,,,,,,,,,,,,,,,,,,,,,,,,,,,,,,,,,,,,,,,,,,,,,,,,,,,,,,,,,,,,,,,,,,,,,,,,,,,,,,,,,,,,,,,,,,,,,,,,,,,,,,,,,,,,,,,,,,,,,,,,,,,,,,,,,,,,,,,,,,,,,,,,,,,,,,,,,,,,,,,,,,,,,,,,,,,,,,,,,,,,,,,,,,,,,,,,,,,,,,,,,,,,,
1764665234.792552,44949,0,4374.743652,4380.128418,4504.871582,4519.871582,4396.410156,4511.153809,4529.615234,4381.666504,4561.666504,4388.205078,4494.871582,4499.615234,4546.794922,4390.128418,4365.512695,4490.641113,4531.025879,4522.179688,4491.666504,4368.205078,4376.282227,4543.333496,4502.05127,4478.205078,4373.974121,4561.282227,4370.384766,4540.128418,4494.102539,4376.538574,4509.230957,4495.256348,2813,1,25,2576,45788,,,,0,4,4,4,4,4,4,4,4,4,4,4,4,4,4,4,4,4,4,4,4,4,4,4,4,4,4,4,4,4,4,4,4,100,,,,,,,,,,,,,,,,,,,,,,,,,,,,,,,,,,,27621,0,0.263708,-0.599792,-0.73291,0.183167,0.963497,0.217312,0.054694,24.833334,29,42.833332,,,,,,,,,,,,,,,,,,,,,,,,,,,,,,,,,,,,,,,,,,,,,,,,,,,,,,,,,,,,,,,,,,,,,,,,,,,,,,,,,,,,,,,,,,,,,,,,,,,,,,,,,,,,,,,,,,,,,,,,,,,,,,,,,,,,,,,,,,,,,,,,,,,,,,,,,,,,,,,,
1764665234.796459,44950,0,4370.641113,4375.769043,4496.794922,4514.487305,4390.256348,4504.102539,4519.230957,4374.102539,4551.538574,4374.871582,4487.179688,4493.333496,4536.538574,4382.563965,4358.077148,4483.974121,4523.717773,4510.897461,4486.538574,4362.179688,4368.974121,4537.820313,4494.871582,4470.641113,4375.384766,4554.358887,4363.589844,4535.128418,4490.769043,4370.384766,4504.102539,4487.563965,2916,1,25,2576,45796,,,,0,4,4,4,4,4,4,4,4,4,4,4,4,4,4,4,4,4,4,4,4,4,4,4,4,4,4,4,4,4,4,4,4,100,,,,,,,,,,,,,,,,,,,,,,,,,,,,,,,,,,,,,,,,,,,,,,,,,,,,,,,,,,,,,,,,,,,,,,,,,,,,,,,,,,,,,,,,,,,,,,,,,,,,,,,,,,,,,,,,,,,,,,,,,,,,,,,,,,,,,,,,,,,,,,,,,,,,,,,,,,,,,,,,,,,,,,,,,,,,,,,,,,,,,,,,,,,,,,,,,,,,,,,,,,,,,,
1764665234.800366,44951,0,4370.384766,4377.436035,4495.897461,4515.641113,4389.743652,4500.641113,4516.666504,4372.820313,4549.358887,4365.769043,4482.563965,4490.897461,4533.974121,4380.256348,4356.794922,4481.794922,4520.641113,4505.897461,4484.871582,4362.692383,4368.205078,4537.692383,4491.666504,4469.230957,4382.820313,4553.717773,4362.307617,4536.410156,4490.641113,4372.436035,4504.358887,4486.410156,2830,1,25,2576,45796,,,,0,4,4,4,4,4,4,4,4,4,4,4,4,4,4,4,4,4,4,4,4,4,4,4,4,4,4,4,4,4,4,4,4,100,,,,,,,,,,,,,,,,,,,,,,,,,,,,,,,,,,,,,,,,,,,,,,,,,,,,,,,,,,,,,,,,,,,,,,,,,,,,,,,,,,,,,,,,,,,,,,,,,,,,,,,,,,,,,,,,,,,,,,,,,,,,,,,,,,,,,,,,,,,,,,,,,,,,,,,,,,,,,,,,,,,,,,,,,,,,,,,,,,,,,,,,,,,,,,,,,,,,,,,,,,,,,,
1764665234.804273,44952,0,4375.384766,4384.871582,4502.436035,4521.538574,4396.025879,4502.692383,4522.692383,4378.974121,4557.05127,4365.512695,4484.487305,4495.512695,4540,4385,4362.820313,4486.410156,4524.615234,4509.871582,4487.94873,4370.256348,4375.897461,4543.974121,4495.384766,4476.153809,4393.589844,4560.512695,4368.589844,4544.487305,4494.230957,4382.179688,4511.410156,4493.589844,2751,1,25,2571,45803,,,,0,4,4,4,4,4,4,4,4,4,4,4,4,4,4,4,4,4,4,4,4,4,4,4,4,4,4,4,4,4,4,4,4,100,,,,,,,,,,,,,,,,,,,,,,,,,,,,,,,,,,,,,,,,,,,,,,,,,,,,,,,,,,,,,,,,,,,,,,,,,,,,,,,,,,,,,,,,,,,,,,,,,,,,,,,,,,,,,,,,,,,,,,,,,,,,,,,,,,,,,,,,,,,,,,,,,,,,,,,,,,,,,,,,,,,,,,,,,,,,,,,,,,,,,,,,,,,,,,,,,,,,,,,,,,,,,,
1764665234.808180,44953,0,4383.461426,4395.128418,4512.307617,4527.307617,4405.769043,4509.102539,4533.077148,4388.974121,4570.128418,4374.743652,4492.820313,4505.512695,4551.282227,4393.461426,4373.077148,4496.025879,4533.974121,4520.512695,4494.358887,4381.282227,4388.717773,4554.487305,4505,4488.333496,4402.307617,4571.282227,4380.384766,4555.897461,4499.743652,4394.102539,4522.692383,4505.769043,2805,1,25,2571,45803,,,,0,4,4,4,4,4,4,4,4,4,4,4,4,4,4,4,4,4,4,4,4,4,4,4,4,4,4,4,4,4,4,4,4,100,,,,,,,,,,,,,,,,,,,,,,,,,,,,,,,,,,,27622,0,0.263708,-0.599792,-0.73291,0.183167,0.981565,0.219265,0.047369,23.666666,29.833334,43.333332,,,,,,,,,,,,,,,,,,,,,,,,,,,,,,,,,,,,,,,,,,,,,,,,,,,,,,,,,,,,,,,,,,,,,,,,,,,,,,,,,,,,,,,,,,,,,,,,,,,,,,,,,,,,,,,,,,,,,,,,,,,,,,,,,,,,,,,,,,,,,,,,,,,,,,,,,,,,,,,,
1764665234.812088,44954,0,4390.641113,4403.589844,4519.615234,4529.230957,4413.333496,4516.666504,4541.538574,4397.05127,4580,4388.461426,4502.563965,4515.769043,4562.179688,4400.512695,4381.794922,4505.769043,4544.230957,4531.922852,4501.282227,4390.641113,4400.256348,4564.871582,4515.512695,4498.974121,4404.487305,4580.769043,4391.922852,4565.384766,4504.358887,4402.436035,4532.820313,4516.666504,1945,1,25,2569,45811,,,,0,4,4,4,4,4,4,4,4,4,4,4,4,4,4,4,4,4,4,4,4,4,4,4,4,4,4,4,4,4,4,4,4,100,,,,,,,,,,,,,,,,,,,,,,,,,,,,,,,,,,,,,,,,,,,,,,,2.676268,3.618189,0.462732,0.700272,0.577086,2.86654,3.511248,0.349635,0.886981,0.635351,1.28499,3.837024,0.617501,0.803297,0.857623,0.7324,3.812924,0.686018,0.835212,0.709716,1.975564,3.391181,0.43796,0.672202,0.546224,2.1948,4.209758,0.382763,0.650137,0.580004,1.752396,3.519705,0.625125,0.721667,0.694983,2.020952,3.924614,0.697319,0.835714,0.796262,1.169249,3.256021,0.716129,0.601811,0.704374,0.838072,3.504317,0.939782,1.70286,1.238845,1.45513,2.185338,0.384524,0.517105,0.525653,2.494244,3.618831,0.33026,0.593517,0.577223,1.630174,2.649042,0.636351,0.55134,0.57168,0.63837,0.824901,0.499299,0.413512,0.437318,0.191889,0.463935,0.581893,0.661768,0.740053,0.948608,1.203318,0.658796,0.460767,0.463368,2.907064,5.645386,0.774896,0.735404,0.599898,1.041281,2.734007,1.204856,0.832367,0.653031,0.464858,2.39598,0.988087,0.489742,0.362015,0.693375,2.369143,0.890864,0.846316,0.721752,1.670256,3.366452,1.818103,0.908713,0.600801,2.575613,5.10227,1.255304,0.995397,0.639857,3.216731,3.648941,0.457525,0.619347,0.574322,2.721503,2.581292,1.00455,1.185338,0.730269,2.207094,6.063167,1.596825,1.660312,1.763495,2.280417,1.860969,0.608246,0.921239,0.624397,3.222643,2.6767,0.620473,1.068786,0.809574,3.666075,3.662772,0.527877,0.882246,0.620232,2.192333,1.895704,0.214162,0.464878,0.272922,3.803949,2.304757,0.691155,0.935392,0.681961,4.17296,2.261111,0.457505,0.900735,0.675687,3.147626,2.718584,0.498391,0.957418,0.788104
1764665234.815995,44955,0,4393.846191,4406.922852,4520.897461,4526.922852,4415.128418,4522.563965,4544.230957,4398.974121,4580.128418,4399.615234,4508.205078,4521.153809,4568.846191,4402.692383,4385.512695,4510.897461,4551.410156,4538.846191,4506.282227,4395.256348,4405.384766,4571.410156,4521.922852,4503.974121,4401.153809,4586.153809,4398.205078,4569.615234,4506.153809,4404.743652,4537.307617,4521.153809,2626,1,25,2569,45811,,,,0,4,4,4,4,4,4,4,4,4,4,4,4,4,4,4,4,4,4,4,4,4,4,4,4,4,4,4,4,4,4,4,4,100,,,,,,,,,,,,,,,,,,,,,,,,,,,,,,,,,,,,,,,,,,,,,,,,,,,,,,,,,,,,,,,,,,,,,,,,,,,,,,,,,,,,,,,,,,,,,,,,,,,,,,,,,,,,,,,,,,,,,,,,,,,,,,,,,,,,,,,,,,,,,,,,,,,,,,,,,,,,,,,,,,,,,,,,,,,,,,,,,,,,,,,,,,,,,,,,,,,,,,,,,,,,,,
1764665234.819902,44956,0,4393.589844,4405,4517.307617,4523.205078,4411.666504,4525.128418,4542.179688,4395.641113,4571.922852,4403.846191,4507.563965,4520.512695,4570.641113,4401.153809,4384.102539,4511.538574,4554.615234,4541.153809,4509.102539,4395.897461,4404.615234,4573.846191,4523.333496,4504.102539,4397.820313,4587.820313,4399.102539,4569.358887,4505.512695,4402.820313,4535.897461,4519.615234,2681,1,25,2566,45819,,,,0,4,4,4,4,4,4,4,4,4,4,4,4,4,4,4,4,4,4,4,4,4,4,4,4,4,4,4,4,4,4,4,4,100,,,,,,,,,,,,,,,,,,,,,,,,,,,,,,,,,,,,,,,,,,,,,,,,,,,,,,,,,,,,,,,,,,,,,,,,,,,,,,,,,,,,,,,,,,,,,,,,,,,,,,,,,,,,,,,,,,,,,,,,,,,,,,,,,,,,,,,,,,,,,,,,,,,,,,,,,,,,,,,,,,,,,,,,,,,,,,,,,,,,,,,,,,,,,,,,,,,,,,,,,,,,,,
1764665234.823809,44957,0,4392.179688,4400.384766,4513.077148,4520.512695,4406.538574,4524.358887,4539.743652,4391.282227,4562.436035,4401.538574,4502.94873,4516.794922,4568.846191,4399.358887,4381.025879,4510.512695,4555.384766,4541.922852,4511.282227,4395.641113,4402.820313,4574.615234,4521.922852,4502.94873,4399.358887,4588.461426,4397.436035,4568.077148,4503.974121,4400.641113,4532.05127,4515.641113,2498,1,25,2566,45819,,,,0,4,4,4,4,4,4,4,4,4,4,4,4,4,4,4,4,4,4,4,4,4,4,4,4,4,4,4,4,4,4,4,4,100,,,,,,,,,,,,,,,,,,,,,,,,,,,,,,,,,,,27623,0,0.263708,-0.599792,-0.73291,0.183167,0.976193,0.203638,0.057136,23.5,28,43.833332,,,,,,,,,,,,,,,,,,,,,,,,,,,,,,,,,,,,,,,,,,,,,,,,,,,,,,,,,,,,,,,,,,,,,,,,,,,,,,,,,,,,,,,,,,,,,,,,,,,,,,,,,,,,,,,,,,,,,,,,,,,,,,,,,,,,,,,,,,,,,,,,,,,,,,,,,,,,,,,,
1764665234.827716,44958,0,4390.897461,4395.256348,4510.769043,4519.358887,4402.307617,4520.384766,4540.128418,4388.077148,4558.077148,4396.538574,4497.820313,4513.846191,4566.025879,4399.615234,4378.974121,4509.871582,4554.871582,4542.820313,4513.333496,4395.769043,4403.589844,4575,4519.615234,4501.794922,4404.358887,4588.846191,4395.256348,4567.436035,4502.436035,4399.358887,4528.974121,4512.307617,2647,1,25,2562,45827,,,,0,4,4,4,4,4,4,4,4,4,4,4,4,4,4,4,4,4,4,4,4,4,4,4,4,4,4,4,4,4,4,4,4,100,,,,,,,,,,,,,,,,,,,,,,,,,,,,,,,,,,,,,,,,,,,,,,,,,,,,,,,,,,,,,,,,,,,,,,,,,,,,,,,,,,,,,,,,,,,,,,,,,,,,,,,,,,,,,,,,,,,,,,,,,,,,,,,,,,,,,,,,,,,,,,,,,,,,,,,,,,,,,,,,,,,,,,,,,,,,,,,,,,,,,,,,,,,,,,,,,,,,,,,,,,,,,,
1764665234.831624,44959,0,4388.461426,4390.128418,4509.230957,4517.94873,4398.589844,4513.974121,4541.794922,4385.256348,4559.102539,4391.538574,4494.358887,4512.307617,4562.820313,4401.025879,4377.692383,4508.974121,4552.436035,4542.692383,4513.717773,4394.487305,4405.256348,4573.846191,4516.282227,4499.615234,4405.769043,4587.94873,4391.538574,4565.384766,4500.512695,4397.307617,4526.025879,4509.871582,2813,1,25,2562,45827,,,,0,4,4,4,4,4,4,4,4,4,4,4,4,4,4,4,4,4,4,4,4,4,4,4,4,4,4,4,4,4,4,4,4,100,,,,,,,,,,,,,,,,,,,,,,,,,,,,,,,,,,,,,,,,,,,,,,,,,,,,,,,,,,,,,,,,,,,,,,,,,,,,,,,,,,,,,,,,,,,,,,,,,,,,,,,,,,,,,,,,,,,,,,,,,,,,,,,,,,,,,,,,,,,,,,,,,,,,,,,,,,,,,,,,,,,,,,,,,,,,,,,,,,,,,,,,,,,,,,,,,,,,,,,,,,,,,,
1764665234.835531,44960,0,4382.820313,4384.358887,4505.256348,4514.487305,4393.333496,4506.025879,4539.871582,4380,4559.871582,4386.666504,4492.179688,4510.128418,4558.589844,4400.384766,4375.512695,4506.153809,4546.666504,4538.974121,4510.769043,4389.102539,4402.94873,4569.358887,4510.384766,4494.743652,4398.077148,4583.846191,4384.230957,4559.102539,4496.922852,4391.922852,4521.282227,4506.153809,2747,1,25,1792,45835,,,,0,4,4,4,4,4,4,4,4,4,4,4,4,4,4,4,4,4,4,4,4,4,4,4,4,4,4,4,4,4,4,4,4,100,,,,,,,,,,,,,,,,,,,,,,,,,,,,,,,,,,,,,,,,,,,,,,,,,,,,,,,,,,,,,,,,,,,,,,,,,,,,,,,,,,,,,,,,,,,,,,,,,,,,,,,,,,,,,,,,,,,,,,,,,,,,,,,,,,,,,,,,,,,,,,,,,,,,,,,,,,,,,,,,,,,,,,,,,,,,,,,,,,,,,,,,,,,,,,,,,,,,,,,,,,,,,,
1764665234.839438,44961,0,4374.358887,4378.333496,4497.563965,4508.846191,4385.769043,4497.692383,4531.922852,4371.794922,4556.025879,4380.641113,4489.743652,4504.743652,4553.461426,4395.769043,4371.153809,4501.666504,4538.077148,4532.307617,4504.487305,4380.256348,4395.256348,4561.538574,4502.179688,4488.205078,4384.358887,4576.922852,4373.974121,4548.846191,4491.282227,4383.461426,4514.487305,4499.615234,2913,1,25,1792,45835,,,,0,4,4,4,4,4,4,4,4,4,4,4,4,4,4,4,4,4,4,4,4,4,4,4,4,4,4,4,4,4,4,4,4,100,,,,,,,,,,,,,,,,,,,,,,,,,,,,,,,,,,,27624,0,0.26375,-0.599792,-0.73291,0.183105,0.976193,0.2178,0.056159,24.666666,29.166666,46,,,,,,,,,,,,,,,,,,,,,,,,,,,,,,,,,,,,,,,,,,,,,,,,,,,,,,,,,,,,,,,,,,,,,,,,,,,,,,,,,,,,,,,,,,,,,,,,,,,,,,,,,,,,,,,,,,,,,,,,,,,,,,,,,,,,,,,,,,,,,,,,,,,,,,,,,,,,,,,,
1764665234.843345,44962,0,4366.025879,4373.461426,4488.846191,4502.94873,4377.179688,4490.897461,4520.769043,4363.077148,4547.820313,4372.820313,4487.179688,4496.282227,4549.487305,4388.077148,4366.538574,4497.563965,4530.512695,4526.282227,4497.94873,4371.794922,4385.769043,4553.717773,4493.846191,4483.205078,4373.461426,4570,4365.384766,4539.487305,4485.256348,4375.128418,4508.333496,4491.794922,2591,1,25,2048,45842,,,,0,4,4,4,4,4,4,4,4,4,4,4,4,4,4,4,4,4,4,4,4,4,4,4,4,4,4,4,4,4,4,4,4,100,,,,,,,,,,,,,,,,,,,,,,,,,,,,,,,,,,,,,,,,,,,,,,,,,,,,,,,,,,,,,,,,,,,,,,,,,,,,,,,,,,,,,,,,,,,,,,,,,,,,,,,,,,,,,,,,,,,,,,,,,,,,,,,,,,,,,,,,,,,,,,,,,,,,,,,,,,,,,,,,,,,,,,,,,,,,,,,,,,,,,,,,,,,,,,,,,,,,,,,,,,,,,,
1764665234.847252,44963,0,4361.538574,4371.025879,4482.94873,4499.871582,4370.512695,4487.436035,4512.692383,4357.05127,4540.128418,4365.128418,4485.512695,4488.461426,4548.077148,4381.153809,4364.358887,4496.025879,4528.333496,4524.487305,4494.358887,4367.820313,4379.743652,4549.615234,4489.230957,4482.05127,4372.179688,4566.538574,4362.563965,4535.384766,4481.922852,4370.641113,4505.769043,4485.512695,2848,1,25,2048,45842,,,,0,4,4,4,4,4,4,4,4,4,4,4,4,4,4,4,4,4,4,4,4,4,4,4,4,4,4,4,4,4,4,4,4,100,,,,,,,,,,,,,,,,,,,,,,,,,,,,,,,,,,,,,,,,,,,,,,,,,,,,,,,,,,,,,,,,,,,,,,,,,,,,,,,,,,,,,,,,,,,,,,,,,,,,,,,,,,,,,,,,,,,,,,,,,,,,,,,,,,,,,,,,,,,,,,,,,,,,,,,,,,,,,,,,,,,,,,,,,,,,,,,,,,,,,,,,,,,,,,,,,,,,,,,,,,,,,,
1764665234.851160,44964,0,4362.820313,4371.282227,4482.05127,4501.538574,4368.589844,4487.94873,4512.436035,4356.282227,4537.820313,4360.256348,4486.410156,4485.384766,4549.871582,4378.333496,4366.153809,4497.820313,4532.94873,4527.820313,4495.769043,4370.128418,4380.256348,4551.794922,4490.384766,4484.358887,4380.384766,4568.205078,4366.153809,4538.077148,4482.820313,4371.666504,4507.563965,4483.974121,2738,1,25,2304,45850,,,,0,4,4,4,4,4,4,4,4,4,4,4,4,4,4,4,4,4,4,4,4,4,4,4,4,4,4,4,4,4,4,4,4,100,,,,,,,,,,,,,,,,,,,,,,,,,,,,,,,,,,,,,,,,,,,,,,,,,,,,,,,,,,,,,,,,,,,,,,,,,,,,,,,,,,,,,,,,,,,,,,,,,,,,,,,,,,,,,,,,,,,,,,,,,,,,,,,,,,,,,,,,,,,,,,,,,,,,,,,,,,,,,,,,,,,,,,,,,,,,,,,,,,,,,,,,,,,,,,,,,,,,,,,,,,,,,,
1764665234.855067,44965,0,4368.589844,4374.230957,4485.384766,4507.307617,4372.179688,4492.307617,4519.871582,4360.641113,4542.05127,4360.641113,4490.256348,4488.974121,4554.102539,4381.025879,4371.538574,4502.563965,4541.282227,4534.102539,4501.153809,4376.922852,4385.897461,4559.230957,4496.410156,4488.717773,4392.692383,4573.461426,4373.717773,4545,4487.05127,4377.436035,4513.333496,4487.820313,2778,1,25,2304,45850,,,,0,4,4,4,4,4,4,4,4,4,4,4,4,4,4,4,4,4,4,4,4,4,4,4,4,4,4,4,4,4,4,4,4,100,,,,,,,,,,,,,,,,,,,,,,,,,,,,,,,,,,,27625,0,0.263696,-0.599854,-0.73291,0.182983,0.976193,0.2178,0.056159,23.666666,29,46.166668,,,,,,,,,,,,,,,,,,,,,,,,,,,,,,,,,,,,,,,,,,,,,,,,,,,,,,,,,,,,,,,,,,,,,,,,,,,,,,,,,,,,,,,,,,,,,,,,,,,,,,,,,,,,,,,,,,,,,,,,,,,,,,,,,,,,,,,,,,,,,,,,,,,,,,,,,,,,,,,,
1764665234.858974,44966,0,4376.282227,4379.102539,4490.256348,4514.230957,4379.743652,4499.358887,4530.641113,4368.205078,4549.743652,4366.410156,4495.897461,4497.563965,4560,4387.563965,4377.94873,4508.846191,4549.358887,4540.256348,4507.692383,4384.487305,4393.589844,4568.333496,4504.358887,4493.461426,4403.461426,4579.487305,4381.666504,4552.692383,4492.436035,4385.512695,4520.769043,4495.769043,2786,1,25,2560,45858,,,,0,4,4,4,4,4,4,4,4,4,4,4,4,4,4,4,4,4,4,4,4,4,4,4,4,4,4,4,4,4,4,4,4,100,,,,,,,,,,,,,,,,,,,,,,,,,,,,,,,,,,,,,,,,,,,,,,,,,,,,,,,,,,,,,,,,,,,,,,,,,,,,,,,,,,,,,,,,,,,,,,,,,,,,,,,,,,,,,,,,,,,,,,,,,,,,,,,,,,,,,,,,,,,,,,,,,,,,,,,,,,,,,,,,,,,,,,,,,,,,,,,,,,,,,,,,,,,,,,,,,,,,,,,,,,,,,,
1764665234.862881,44967,0,4382.307617,4384.615234,4494.358887,4518.846191,4387.436035,4506.025879,4539.230957,4375.641113,4556.025879,4375.384766,4500.512695,4506.794922,4566.282227,4394.615234,4382.94873,4514.230957,4554.615234,4544.615234,4512.820313,4389.871582,4399.743652,4575.641113,4510.769043,4497.94873,4409.102539,4583.333496,4386.666504,4558.461426,4496.666504,4393.333496,4527.05127,4503.974121,2972,1,25,2560,45858,,,,0,4,4,4,4,4,4,4,4,4,4,4,4,4,4,4,4,4,4,4,4,4,4,4,4,4,4,4,4,4,4,4,4,100,,,,,,,,,,,,,,,,,,,,,,,,,,,,,,,,,,,,,,,,,,,,,,,,,,,,,,,,,,,,,,,,,,,,,,,,,,,,,,,,,,,,,,,,,,,,,,,,,,,,,,,,,,,,,,,,,,,,,,,,,,,,,,,,,,,,,,,,,,,,,,,,,,,,,,,,,,,,,,,,,,,,,,,,,,,,,,,,,,,,,,,,,,,,,,,,,,,,,,,,,,,,,,
1764665234.866788,44968,0,4384.615234,4389.102539,4496.025879,4519.615234,4391.153809,4509.102539,4542.563965,4379.871582,4557.94873,4383.461426,4502.05127,4512.179688,4571.538574,4398.717773,4384.102539,4516.538574,4557.563965,4546.922852,4515.769043,4392.05127,4402.692383,4579.102539,4514.487305,4501.922852,4408.205078,4584.102539,4388.205078,4561.538574,4498.461426,4399.487305,4530.384766,4508.461426,2849,1,25,2560,45866,,,,0,4,4,4,4,4,4,4,4,4,4,4,4,4,4,4,4,4,4,4,4,4,4,4,4,4,4,4,4,4,4,4,4,100,,,,,,,,,,,,,,,,,,,,,,,,,,,,,,,,,,,,,,,,,,,,,,,,,,,,,,,,,,,,,,,,,,,,,,,,,,,,,,,,,,,,,,,,,,,,,,,,,,,,,,,,,,,,,,,,,,,,,,,,,,,,,,,,,,,,,,,,,,,,,,,,,,,,,,,,,,,,,,,,,,,,,,,,,,,,,,,,,,,,,,,,,,,,,,,,,,,,,,,,,,,,,,
1764665234.870696,44969,0,4383.717773,4391.410156,4495.769043,4517.436035,4390.128418,4508.333496,4541.794922,4380.769043,4557.179688,4387.179688,4500.897461,4511.794922,4574.358887,4398.846191,4381.922852,4515.512695,4559.743652,4548.077148,4516.922852,4392.307617,4403.077148,4579.743652,4516.282227,4505.512695,4401.922852,4582.94873,4387.94873,4563.205078,4498.846191,4403.205078,4531.410156,4508.205078,2703,1,25,2560,45866,,,,0,4,4,4,4,4,4,4,4,4,4,4,4,4,4,4,4,4,4,4,4,4,4,4,4,4,4,4,4,4,4,4,4,100,,,,,,,,,,,,,,,,,,,,,,,,,,,,,,,,,,,27626,0,0.263611,-0.599854,-0.732971,0.182861,0.978147,0.217312,0.045904,24,28.666666,44.5,,,,,,,,,,,,,,,,,,,,,,,,,,,,,,,,,,,,,,,,,,,,,,,,,,,,,,,,,,,,,,,,,,,,,,,,,,,,,,,,,,,,,,,,,,,,,,,,,,,,,,,,,,,,,,,,,,,,,,,,,,,,,,,,,,,,,,,,,,,,,,,,,,,,,,,,,,,,,,,,
1764665234.874603,44970,0,4382.563965,4391.922852,4496.282227,4515.256348,4387.563965,4506.410156,4541.410156,4380.384766,4557.307617,4386.538574,4500,4508.205078,4575,4397.179688,4379.615234,4512.820313,4562.179688,4549.358887,4517.436035,4393.205078,4403.077148,4580.512695,4518.589844,4509.358887,4395.384766,4582.05127,4389.487305,4565.641113,4499.743652,4405.128418,4532.307617,4505.769043,2272,1,25,2561,45874,,,,0,4,4,4,4,4,4,4,4,4,4,4,4,4,4,4,4,4,4,4,4,4,4,4,4,4,4,4,4,4,4,4,4,100,,,,,,,,,,,,,,,,,,,,,,,,,,,,,,,,,,,,,,,,,,,,,,,,,,,,,,,,,,,,,,,,,,,,,,,,,,,,,,,,,,,,,,,,,,,,,,,,,,,,,,,,,,,,,,,,,,,,,,,,,,,,,,,,,,,,,,,,,,,,,,,,,,,,,,,,,,,,,,,,,,,,,,,,,,,,,,,,,,,,,,,,,,,,,,,,,,,,,,,,,,,,,,
1764665234.878510,44971,0,4384.358887,4392.820313,4500.641113,4516.282227,4388.205078,4508.077148,4545,4382.05127,4561.282227,4384.871582,4501.538574,4506.282227,4574.871582,4396.794922,4380.384766,4510.897461,4565.384766,4551.025879,4517.563965,4396.282227,4404.615234,4583.717773,4522.820313,4514.102539,4394.358887,4583.461426,4394.871582,4570,4503.205078,4406.538574,4535.769043,4506.153809,2679,1,25,2561,45874,,,,0,4,4,4,4,4,4,4,4,4,4,4,4,4,4,4,4,4,4,4,4,4,4,4,4,4,4,4,4,4,4,4,4,100,,,,,,,,,,,,,,,,,,,,,,,,,,,,,,,,,,,,,,,,,,,,,,,,,,,,,,,,,,,,,,,,,,,,,,,,,,,,,,,,,,,,,,,,,,,,,,,,,,,,,,,,,,,,,,,,,,,,,,,,,,,,,,,,,,,,,,,,,,,,,,,,,,,,,,,,,,,,,,,,,,,,,,,,,,,,,,,,,,,,,,,,,,,,,,,,,,,,,,,,,,,,,,
1764665234.882417,44972,0,4389.230957,4395.512695,4508.077148,4520.769043,4393.205078,4514.487305,4552.05127,4387.05127,4567.94873,4386.410156,4505,4508.461426,4575.256348,4398.846191,4383.974121,4510.384766,4567.820313,4551.538574,4516.666504,4400.128418,4407.05127,4588.589844,4527.692383,4518.333496,4401.025879,4586.410156,4402.05127,4574.871582,4508.846191,4407.94873,4540.897461,4511.025879,2483,1,25,2562,45882,,,,0,4,4,4,4,4,4,4,4,4,4,4,4,4,4,4,4,4,4,4,4,4,4,4,4,4,4,4,4,4,4,4,4,100,,,,,,,,,,,,,,,,,,,,,,,,,,,,,,,,,,,,,,,,,,,,,,,,,,,,,,,,,,,,,,,,,,,,,,,,,,,,,,,,,,,,,,,,,,,,,,,,,,,,,,,,,,,,,,,,,,,,,,,,,,,,,,,,,,,,,,,,,,,,,,,,,,,,,,,,,,,,,,,,,,,,,,,,,,,,,,,,,,,,,,,,,,,,,,,,,,,,,,,,,,,,,,
1764665234.886324,44973,0,4393.846191,4398.717773,4514.615234,4526.410156,4399.615234,4522.820313,4558.333496,4392.307617,4572.436035,4391.538574,4506.666504,4512.179688,4574.743652,4401.153809,4385.769043,4509.358887,4566.538574,4548.205078,4512.820313,4400.384766,4406.410156,4590.641113,4529.358887,4518.461426,4410.256348,4587.692383,4405.769043,4577.179688,4513.589844,4408.333496,4543.717773,4517.05127,2227,1,25,2562,45882,,,,0,4,4,4,4,4,4,4,4,4,4,4,4,4,4,4,4,4,4,4,4,4,4,4,4,4,4,4,4,4,4,4,4,100,,,,,,,,,,,,,,,,,,,,,,,,,,,,,,,,,,,27627,0,0.263569,-0.599854,-0.732971,0.182922,0.972775,0.20901,0.047369,22.666666,28.833334,42.666668,,,,,,,,,,,,,,,,,,,,,,,,,,,,,,,,,,,,,,,,,,,,,,,,,,,,,,,,,,,,,,,,,,,,,,,,,,,,,,,,,,,,,,,,,,,,,,,,,,,,,,,,,,,,,,,,,,,,,,,,,,,,,,,,,,,,,,,,,,,,,,,,,,,,,,,,,,,,,,,,
1764665234.890232,44974,0,4393.717773,4399.230957,4515.128418,4528.846191,4401.922852,4527.307617,4558.717773,4393.589844,4569.871582,4396.538574,4503.589844,4512.820313,4571.025879,4400.256348,4381.153809,4505.512695,4559.743652,4539.743652,4505.384766,4393.846191,4399.871582,4585.769043,4524.743652,4511.666504,4413.205078,4584.230957,4401.282227,4573.846191,4513.717773,4406.025879,4539.871582,4518.333496,2698,1,25,2563,45889,,,,0,4,4,4,4,4,4,4,4,4,4,4,4,4,4,4,4,4,4,4,4,4,4,4,4,4,4,4,4,4,4,4,4,100,,,,,,,,,,,,,,,,,,,,,,,,,,,,,,,,,,,,,,,,,,,,,,,,,,,,,,,,,,,,,,,,,,,,,,,,,,,,,,,,,,,,,,,,,,,,,,,,,,,,,,,,,,,,,,,,,,,,,,,,,,,,,,,,,,,,,,,,,,,,,,,,,,,,,,,,,,,,,,,,,,,,,,,,,,,,,,,,,,,,,,,,,,,,,,,,,,,,,,,,,,,,,,
1764665234.894139,44975,0,4387.179688,4395.512695,4508.333496,4526.025879,4398.333496,4524.487305,4552.05127,4388.974121,4560.384766,4395.769043,4496.410156,4508.461426,4563.974121,4395.128418,4370.512695,4499.102539,4548.717773,4528.717773,4496.410156,4381.922852,4389.102539,4574.230957,4515.256348,4499.358887,4404.615234,4575.769043,4390.256348,4565.256348,4508.205078,4400.641113,4529.615234,4511.922852,2487,1,25,2563,45889,,,,0,4,4,4,4,4,4,4,4,4,4,4,4,4,4,4,4,4,4,4,4,4,4,4,4,4,4,4,4,4,4,4,4,100,,,,,,,,,,,,,,,,,,,,,,,,,,,,,,,,,,,,,,,,,,,,,,,,,,,,,,,,,,,,,,,,,,,,,,,,,,,,,,,,,,,,,,,,,,,,,,,,,,,,,,,,,,,,,,,,,,,,,,,,,,,,,,,,,,,,,,,,,,,,,,,,,,,,,,,,,,,,,,,,,,,,,,,,,,,,,,,,,,,,,,,,,,,,,,,,,,,,,,,,,,,,,,
1764665234.898046,44976,0,4377.563965,4389.487305,4497.820313,4519.871582,4391.153809,4515.512695,4542.179688,4381.666504,4549.615234,4388.205078,4488.846191,4501.794922,4556.410156,4388.589844,4359.743652,4493.077148,4538.205078,4520,4490.256348,4370.897461,4379.615234,4561.666504,4506.025879,4486.794922,4387.692383,4565.769043,4378.846191,4555.769043,4499.743652,4393.589844,4518.077148,4500.897461,2855,1,25,2564,45897,,,,0,4,4,4,4,4,4,4,4,4,4,4,4,4,4,4,4,4,4,4,4,4,4,4,4,4,4,4,4,4,4,4,4,100,,,,,,,,,,,,,,,,,,,,,,,,,,,,,,,,,,,,,,,,,,,,,,,,,,,,,,,,,,,,,,,,,,,,,,,,,,,,,,,,,,,,,,,,,,,,,,,,,,,,,,,,,,,,,,,,,,,,,,,,,,,,,,,,,,,,,,,,,,,,,,,,,,,,,,,,,,,,,,,,,,,,,,,,,,,,,,,,,,,,,,,,,,,,,,,,,,,,,,,,,,,,,,
1764665234.901953,44977,0,4371.025879,4385.128418,4489.615234,4514.358887,4385.128418,4505.384766,4535.128418,4376.922852,4544.487305,4377.692383,4484.871582,4497.179688,4552.307617,4385,4356.025879,4490.769043,4532.820313,4517.820313,4490.128418,4366.666504,4376.282227,4554.871582,4502.05127,4479.615234,4373.077148,4559.102539,4373.589844,4550.897461,4493.077148,4387.436035,4511.666504,4491.153809,2902,1,25,2564,45897,,,,0,4,4,4,4,4,4,4,4,4,4,4,4,4,4,4,4,4,4,4,4,4,4,4,4,4,4,4,4,4,4,4,4,100,,,,,,,,,,,,,,,,,,,,,,,,,,,,,,,,,,,27628,0,0.263472,-0.599915,-0.732971,0.182861,0.976193,0.216823,0.050299,24.5,27.333334,44.166668,,,,,,,,,,,,,,,,,,,,,,,,,,,,,,,,,,,,,,,,,,,,,,,,,,,,,,,,,,,,,,,,,,,,,,,,,,,,,,,,,,,,,,,,,,,,,,,,,,,,,,,,,,,,,,,,,,,,,,,,,,,,,,,,,,,,,,,,,,,,,,,,,,,,,,,,,,,,,,,,
1764665234.905860,44978,0,4371.410156,4384.871582,4487.307617,4512.94873,4383.205078,4500,4534.358887,4377.563965,4547.179688,4370.384766,4485.769043,4497.436035,4553.205078,4386.666504,4362.179688,4492.692383,4534.615234,4522.179688,4495.512695,4370.512695,4379.743652,4556.666504,4504.358887,4480.384766,4371.282227,4558.333496,4375.641113,4552.05127,4491.538574,4384.487305,4512.307617,4487.05127,1753,1,25,2565,45905,,,,0,4,4,4,4,4,4,4,4,4,4,4,4,4,4,4,4,4,4,4,4,4,4,4,4,4,4,4,4,4,4,4,4,100,,,,,,,,,,,,,,,,,,,,,,,,,,,,,,,,,,,,,,,,,,,,,,,,,,,,,,,,,,,,,,,,,,,,,,,,,,,,,,,,,,,,,,,,,,,,,,,,,,,,,,,,,,,,,,,,,,,,,,,,,,,,,,,,,,,,,,,,,,,,,,,,,,,,,,,,,,,,,,,,,,,,,,,,,,,,,,,,,,,,,,,,,,,,,,,,,,,,,,,,,,,,,,
1764665234.909768,44979,0,4378.589844,4388.205078,4490.256348,4515.512695,4385.256348,4502.05127,4539.487305,4382.436035,4554.487305,4370.512695,4489.743652,4501.922852,4557.692383,4392.307617,4374.102539,4497.436035,4541.794922,4530,4502.94873,4378.589844,4386.025879,4563.974121,4510.128418,4486.922852,4383.846191,4562.307617,4381.538574,4556.538574,4494.871582,4385.384766,4517.179688,4488.205078,2943,1,25,2565,45905,,,,0,4,4,4,4,4,4,4,4,4,4,4,4,4,4,4,4,4,4,4,4,4,4,4,4,4,4,4,4,4,4,4,4,100,,,,,,,,,,,,,,,,,,,,,,,,,,,,,,,,,,,,,,,,,,,,,,,,,,,,,,,,,,,,,,,,,,,,,,,,,,,,,,,,,,,,,,,,,,,,,,,,,,,,,,,,,,,,,,,,,,,,,,,,,,,,,,,,,,,,,,,,,,,,,,,,,,,,,,,,,,,,,,,,,,,,,,,,,,,,,,,,,,,,,,,,,,,,,,,,,,,,,,,,,,,,,,
1764665234.913675,44980,0,4388.333496,4392.820313,4495.384766,4519.743652,4389.230957,4509.487305,4546.153809,4388.077148,4561.025879,4377.94873,4494.102539,4507.436035,4562.436035,4397.94873,4384.743652,4503.205078,4550.641113,4537.179688,4508.333496,4385.384766,4391.410156,4571.666504,4515.384766,4494.358887,4402.307617,4567.94873,4386.666504,4560.256348,4500.128418,4389.487305,4521.794922,4491.666504,2510,1,25,2562,45913,,,,0,4,4,4,4,4,4,4,4,4,4,4,4,4,4,4,4,4,4,4,4,4,4,4,4,4,4,4,4,4,4,4,4,100,,,,,,,,,,,,,,,,,,,,,,,,,,,,,,,,,,,,,,,,,,,,,,,,,,,,,,,,,,,,,,,,,,,,,,,,,,,,,,,,,,,,,,,,,,,,,,,,,,,,,,,,,,,,,,,,,,,,,,,,,,,,,,,,,,,,,,,,,,,,,,,,,,,,,,,,,,,,,,,,,,,,,,,,,,,,,,,,,,,,,,,,,,,,,,,,,,,,,,,,,,,,,,
1764665234.917582,44981,0,4395.769043,4396.922852,4499.743652,4523.461426,4393.077148,4517.692383,4550.641113,4391.666504,4563.333496,4389.102539,4496.922852,4511.794922,4566.025879,4400.384766,4388.974121,4508.205078,4557.179688,4541.538574,4510.641113,4388.461426,4394.487305,4576.282227,4518.077148,4498.846191,4414.615234,4572.179688,4388.974121,4561.794922,4504.487305,4395.128418,4524.230957,4494.358887,2811,1,25,2562,45913,,,,0,4,4,4,4,4,4,4,4,4,4,4,4,4,4,4,4,4,4,4,4,4,4,4,4,4,4,4,4,4,4,4,4,100,,,,,,,,,,,,,,,,,,,,,,,,,,,,,,,,,,,27629,0,0.263696,-0.599854,-0.73291,0.182983,0.977658,0.206568,0.059089,25.333334,29,42.833332,,,,,,,,,,,,,,,,,,,,,,,,,,,,,,,,,,,,,,,,,,,,,,,,,,,,,,,,,,,,,,,,,,,,,,,,,,,,,,,,,,,,,,,,,,,,,,,,,,,,,,,,,,,,,,,,,,,,,,,,,,,,,,,,,,,,,,,,,,,,,,,,,,,,,,,,,,,,,,,,
1764665234.921489,44982,0,4398.717773,4399.358887,4502.436035,4525.897461,4395.897461,4522.94873,4551.922852,4392.179688,4561.410156,4399.358887,4498.717773,4513.974121,4568.461426,4399.358887,4386.282227,4511.282227,4560,4542.820313,4510.512695,4388.717773,4396.153809,4577.05127,4518.717773,4499.743652,4414.615234,4574.358887,4389.358887,4562.05127,4506.410156,4400.128418,4525.256348,4495.897461,2919,1,25,2563,45921,,,,0,4,4,4,4,4,4,4,4,4,4,4,4,4,4,4,4,4,4,4,4,4,4,4,4,4,4,4,4,4,4,4,4,100,,,,,,,,,,,,,,,,,,,,,,,,,,,,,,,,,,,,,,,,,,,,,,,,,,,,,,,,,,,,,,,,,,,,,,,,,,,,,,,,,,,,,,,,,,,,,,,,,,,,,,,,,,,,,,,,,,,,,,,,,,,,,,,,,,,,,,,,,,,,,,,,,,,,,,,,,,,,,,,,,,,,,,,,,,,,,,,,,,,,,,,,,,,,,,,,,,,,,,,,,,,,,,
1764665234.925397,44983,0,4397.436035,4399.615234,4503.333496,4526.666504,4397.563965,4524.358887,4551.025879,4390.769043,4557.179688,4404.871582,4500.897461,4514.230957,4569.615234,4396.666504,4380,4510.897461,4559.487305,4540.897461,4509.230957,4388.077148,4397.05127,4575.641113,4518.589844,4498.333496,4405.641113,4575.512695,4389.230957,4562.563965,4507.05127,4402.94873,4526.538574,4497.563965,2836,1,25,2563,45921,,,,0,4,4,4,4,4,4,4,4,4,4,4,4,4,4,4,4,4,4,4,4,4,4,4,4,4,4,4,4,4,4,4,4,100,,,,,,,,,,,,,,,,,,,,,,,,,,,,,,,,,,,,,,,,,,,,,,,,,,,,,,,,,,,,,,,,,,,,,,,,,,,,,,,,,,,,,,,,,,,,,,,,,,,,,,,,,,,,,,,,,,,,,,,,,,,,,,,,,,,,,,,,,,,,,,,,,,,,,,,,,,,,,,,,,,,,,,,,,,,,,,,,,,,,,,,,,,,,,,,,,,,,,,,,,,,,,,
1764665234.929304,44984,0,4394.102539,4397.820313,4502.563965,4525.256348,4397.94873,4523.077148,4549.487305,4389.230957,4552.820313,4403.846191,4503.717773,4513.077148,4568.846191,4394.487305,4373.846191,4506.282227,4556.922852,4536.794922,4507.05127,4387.820313,4396.794922,4573.846191,4518.589844,4496.794922,4397.05127,4576.922852,4389.615234,4563.333496,4507.307617,4403.461426,4528.461426,4499.743652,2753,1,25,2563,45928,,,,0,4,4,4,4,4,4,4,4,4,4,4,4,4,4,4,4,4,4,4,4,4,4,4,4,4,4,4,4,4,4,4,4,100,,,,,,,,,,,,,,,,,,,,,,,,,,,,,,,,,,,,,,,,,,,,,,,,,,,,,,,,,,,,,,,,,,,,,,,,,,,,,,,,,,,,,,,,,,,,,,,,,,,,,,,,,,,,,,,,,,,,,,,,,,,,,,,,,,,,,,,,,,,,,,,,,,,,,,,,,,,,,,,,,,,,,,,,,,,,,,,,,,,,,,,,,,,,,,,,,,,,,,,,,,,,,,
1764665234.933211,44985,0,4391.666504,4395.769043,4500.897461,4522.179688,4397.307617,4521.025879,4548.717773,4388.589844,4549.743652,4397.692383,4506.025879,4511.153809,4565.769043,4393.974121,4370.256348,4498.846191,4554.358887,4532.563965,4504.871582,4387.94873,4395.769043,4572.820313,4518.846191,4496.025879,4396.282227,4579.358887,4390.769043,4564.102539,4508.461426,4403.077148,4530.641113,4501.666504,2810,1,25,2563,45928,,,,0,4,4,4,4,4,4,4,4,4,4,4,4,4,4,4,4,4,4,4,4,4,4,4,4,4,4,4,4,4,4,4,4,100,,,,,,,,,,,,,,,,,,,,,,,,,,,,,,,,,,,27630,0,0.26375,-0.599792,-0.73291,0.183105,0.96838,0.215847,0.048346,24.666666,29.166666,43.5,,,,,,,,,,,,,,,,,,,,,,,,,,,,,,,,,,,,,,,,,,,,,,,,,,,,,,,,,,,,,,,,,,,,,,,,,,,,,,,,,,,,,,,,,,,,,,,,,,,,,,,,,,,,,,,,,,,,,,,,,,,,,,,,,,,,,,,,,,,,,,,,,,,,,,,,,,,,,,,,
1764665234.937118,44986,0,4392.563965,4395.641113,4500,4520.128418,4397.307617,4520.641113,4549.871582,4389.230957,4548.974121,4390.384766,4507.05127,4509.871582,4562.179688,4395,4370.128418,4492.94873,4553.717773,4530.769043,4503.717773,4388.077148,4395.256348,4572.94873,4519.615234,4496.794922,4403.974121,4582.692383,4392.563965,4565,4511.025879,4403.974121,4532.692383,4502.563965,1950,1,25,2564,45936,,,,0,4,4,4,4,4,4,4,4,4,4,4,4,4,4,4,4,4,4,4,4,4,4,4,4,4,4,4,4,4,4,4,4,100,,,,,,,,,,,,,,,,,,,,,,,,,,,,,,,,,,,,,,,,,,,,,,,2.945822,3.052351,0.492593,0.769102,0.545263,3.499815,2.819821,0.357943,0.882882,0.623689,1.627018,3.463293,0.500135,0.828842,0.958235,0.902905,3.656877,0.657472,0.861698,0.753832,2.501434,2.752376,0.423547,0.680621,0.555224,2.747823,3.403163,0.354524,0.725321,0.578676,2.124136,2.749083,0.745175,0.769949,0.68095,2.245947,3.338988,0.792626,0.857745,0.828598,1.364447,3.451338,0.718624,0.589568,0.74749,0.805137,3.357434,0.901855,1.808155,1.221947,1.604867,1.900217,0.449836,0.515166,0.513368,3.148777,3.261994,0.343835,0.63532,0.544548,1.786686,2.317243,0.703503,0.551994,0.565184,0.656643,0.931401,0.410441,0.422569,0.429358,0.184588,0.513296,0.458166,0.717921,0.734239,0.878362,1.215765,0.650492,0.468737,0.473635,3.189139,5.413483,0.646573,0.742256,0.570351,1.204621,2.6685,1.135939,0.766709,0.615888,0.485584,2.123117,0.986015,0.481631,0.35344,0.887814,1.941348,0.849291,0.755135,0.676169,1.795649,3.242673,1.536771,0.884028,0.546492,2.838985,5.463112,1.117415,0.980065,0.623263,3.427675,3.566605,0.422176,0.602025,0.540864,3.057036,2.816054,0.866086,1.121319,0.700769,2.350107,7.105418,1.392306,1.294962,1.644278,2.480456,2.211634,0.46731,0.867672,0.646783,3.677628,2.619732,0.512279,1.069488,0.812006,3.980407,3.700671,0.430019,0.924816,0.610623,2.442271,1.576901,0.207862,0.465422,0.272839,4.215079,2.071274,0.60032,0.958237,0.678405,4.55193,2.462548,0.429852,0.919751,0.680571,2.965313,2.648005,0.424483,0.996712,0.834039
1764665234.941025,44987,0,4397.307617,4398.589844,4500.769043,4521.794922,4398.974121,4523.077148,4553.333496,4390.512695,4550.641113,4386.025879,4506.666504,4511.153809,4560.256348,4397.307617,4372.692383,4492.307617,4556.282227,4533.205078,4504.871582,4388.205078,4396.025879,4574.615234,4521.282227,4499.358887,4414.230957,4586.794922,4395,4566.025879,4513.974121,4407.05127,4534.102539,4501.794922,2632,1,25,2564,45936,,,,0,4,4,4,4,4,4,4,4,4,4,4,4,4,4,4,4,4,4,4,4,4,4,4,4,4,4,4,4,4,4,4,4,100,,,,,,,,,,,,,,,,,,,,,,,,,,,,,,,,,,,,,,,,,,,,,,,,,,,,,,,,,,,,,,,,,,,,,,,,,,,,,,,,,,,,,,,,,,,,,,,,,,,,,,,,,,,,,,,,,,,,,,,,,,,,,,,,,,,,,,,,,,,,,,,,,,,,,,,,,,,,,,,,,,,,,,,,,,,,,,,,,,,,,,,,,,,,,,,,,,,,,,,,,,,,,,
1764665234.944933,44988,0,4403.205078,4402.94873,4502.692383,4527.563965,4402.692383,4528.205078,4557.692383,4391.922852,4554.230957,4386.410156,4505.512695,4515.256348,4562.307617,4399.615234,4376.794922,4498.205078,4561.153809,4538.333496,4507.94873,4388.461426,4397.820313,4577.94873,4523.974121,4503.077148,4420.512695,4591.282227,4397.436035,4567.436035,4516.025879,4410.769043,4534.743652,4500.641113,2685,1,25,2560,45944,,,,0,4,4,4,4,4,4,4,4,4,4,4,4,4,4,4,4,4,4,4,4,4,4,4,4,4,4,4,4,4,4,4,4,100,,,,,,,,,,,,,,,,,,,,,,,,,,,,,,,,,,,,,,,,,,,,,,,,,,,,,,,,,,,,,,,,,,,,,,,,,,,,,,,,,,,,,,,,,,,,,,,,,,,,,,,,,,,,,,,,,,,,,,,,,,,,,,,,,,,,,,,,,,,,,,,,,,,,,,,,,,,,,,,,,,,,,,,,,,,,,,,,,,,,,,,,,,,,,,,,,,,,,,,,,,,,,,
1764665234.948840,44989,0,4407.05127,4406.538574,4504.102539,4534.358887,4406.922852,4533.846191,4560.769043,4393.461426,4558.846191,4390.897461,4505,4521.282227,4568.461426,4400.897461,4380.512695,4507.692383,4566.410156,4544.230957,4511.282227,4388.846191,4400.128418,4582.179688,4526.922852,4507.307617,4421.666504,4595.128418,4399.487305,4569.743652,4516.538574,4412.307617,4535,4500.641113,2505,1,25,2560,45944,,,,0,4,4,4,4,4,4,4,4,4,4,4,4,4,4,4,4,4,4,4,4,4,4,4,4,4,4,4,4,4,4,4,4,100,,,,,,,,,,,,,,,,,,,,,,,,,,,,,,,,,,,27631,0,0.26375,-0.599792,-0.73291,0.183105,0.970822,0.20608,0.055183,23.666666,29,45,,,,,,,,,,,,,,,,,,,,,,,,,,,,,,,,,,,,,,,,,,,,,,,,,,,,,,,,,,,,,,,,,,,,,,,,,,,,,,,,,,,,,,,,,,,,,,,,,,,,,,,,,,,,,,,,,,,,,,,,,,,,,,,,,,,,,,,,,,,,,,,,,,,,,,,,,,,,,,,,
1764665234.952747,44990,0,4407.436035,4408.205078,4504.358887,4538.461426,4410.128418,4538.333496,4561.794922,4395.384766,4563.717773,4397.179688,4506.153809,4526.794922,4576.794922,4400.512695,4382.820313,4516.794922,4570.512695,4549.230957,4513.717773,4389.743652,4402.692383,4586.282227,4529.230957,4510.897461,4420.641113,4597.179688,4400.641113,4573.461426,4516.282227,4410.512695,4535.769043,4502.94873,2652,1,25,1536,45952,,,,0,4,4,4,4,4,4,4,4,4,4,4,4,4,4,4,4,4,4,4,4,4,4,4,4,4,4,4,4,4,4,4,4,100,,,,,,,,,,,,,,,,,,,,,,,,,,,,,,,,,,,,,,,,,,,,,,,,,,,,,,,,,,,,,,,,,,,,,,,,,,,,,,,,,,,,,,,,,,,,,,,,,,,,,,,,,,,,,,,,,,,,,,,,,,,,,,,,,,,,,,,,,,,,,,,,,,,,,,,,,,,,,,,,,,,,,,,,,,,,,,,,,,,,,,,,,,,,,,,,,,,,,,,,,,,,,,
1764665234.956654,44991,0,4406.282227,4408.333496,4502.820313,4537.820313,4411.666504,4540.769043,4561.666504,4397.563965,4567.94873,4402.436035,4509.743652,4529.615234,4584.230957,4398.717773,4382.692383,4521.794922,4573.077148,4552.94873,4515.256348,4391.282227,4405.384766,4588.974121,4530.384766,4513.461426,4419.230957,4597.05127,4400.769043,4578.205078,4516.282227,4406.922852,4537.05127,4506.794922,2821,1,25,1536,45952,,,,0,4,4,4,4,4,4,4,4,4,4,4,4,4,4,4,4,4,4,4,4,4,4,4,4,4,4,4,4,4,4,4,4,100,,,,,,,,,,,,,,,,,,,,,,,,,,,,,,,,,,,,,,,,,,,,,,,,,,,,,,,,,,,,,,,,,,,,,,,,,,,,,,,,,,,,,,,,,,,,,,,,,,,,,,,,,,,,,,,,,,,,,,,,,,,,,,,,,,,,,,,,,,,,,,,,,,,,,,,,,,,,,,,,,,,,,,,,,,,,,,,,,,,,,,,,,,,,,,,,,,,,,,,,,,,,,,
1764665234.960561,44992,0,4405.769043,4407.436035,4500.384766,4533.205078,4411.410156,4540.769043,4561.666504,4399.102539,4570.641113,4404.615234,4514.871582,4529.102539,4588.077148,4396.538574,4379.743652,4521.794922,4574.230957,4555.128418,4516.666504,4392.820313,4407.94873,4589.743652,4529.871582,4514.230957,4416.153809,4595,4399.487305,4582.436035,4516.666504,4403.717773,4538.205078,4509.358887,2753,1,25,1536,45960,,,,0,4,4,4,4,4,4,4,4,4,4,4,4,4,4,4,4,4,4,4,4,4,4,4,4,4,4,4,4,4,4,4,4,100,,,,,,,,,,,,,,,,,,,,,,,,,,,,,,,,,,,,,,,,,,,,,,,,,,,,,,,,,,,,,,,,,,,,,,,,,,,,,,,,,,,,,,,,,,,,,,,,,,,,,,,,,,,,,,,,,,,,,,,,,,,,,,,,,,,,,,,,,,,,,,,,,,,,,,,,,,,,,,,,,,,,,,,,,,,,,,,,,,,,,,,,,,,,,,,,,,,,,,,,,,,,,,
1764665234.964469,44993,0,4406.282227,4406.025879,4497.563965,4527.692383,4409.487305,4539.102539,4562.307617,4398.846191,4570.897461,4402.179688,4519.102539,4526.025879,4587.94873,4395.256348,4375.128418,4518.461426,4573.974121,4555.256348,4517.820313,4393.077148,4409.102539,4588.717773,4527.307617,4512.692383,4408.717773,4592.179688,4397.05127,4584.487305,4516.794922,4402.05127,4537.820313,4507.94873,2917,1,25,1536,45960,,,,0,4,4,4,4,4,4,4,4,4,4,4,4,4,4,4,4,4,4,4,4,4,4,4,4,4,4,4,4,4,4,4,4,100,,,,,,,,,,,,,,,,,,,,,,,,,,,,,,,,,,,27632,0,0.26375,-0.599792,-0.73291,0.183105,0.970822,0.20608,0.055183,24.166666,28.833334,44.666668,,,,,,,,,,,,,,,,,,,,,,,,,,,,,,,,,,,,,,,,,,,,,,,,,,,,,,,,,,,,,,,,,,,,,,,,,,,,,,,,,,,,,,,,,,,,,,,,,,,,,,,,,,,,,,,,,,,,,,,,,,,,,,,,,,,,,,,,,,,,,,,,,,,,,,,,,,,,,,,,
1764665234.968376,44994,0,4406.538574,4404.615234,4495.384766,4523.974121,4406.922852,4536.922852,4562.436035,4396.410156,4569.230957,4396.410156,4520.256348,4522.94873,4585.769043,4395.512695,4371.410156,4514.871582,4572.820313,4553.846191,4517.563965,4391.282227,4408.461426,4586.794922,4523.205078,4508.846191,4397.05127,4589.871582,4394.487305,4584.102539,4516.153809,4401.153809,4535.128418,4502.436035,2597,1,25,1792,45967,,,,0,4,4,4,4,4,4,4,4,4,4,4,4,4,4,4,4,4,4,4,4,4,4,4,4,4,4,4,4,4,4,4,4,100,,,,,,,,,,,,,,,,,,,,,,,,,,,,,,,,,,,,,,,,,,,,,,,,,,,,,,,,,,,,,,,,,,,,,,,,,,,,,,,,,,,,,,,,,,,,,,,,,,,,,,,,,,,,,,,,,,,,,,,,,,,,,,,,,,,,,,,,,,,,,,,,,,,,,,,,,,,,,,,,,,,,,,,,,,,,,,,,,,,,,,,,,,,,,,,,,,,,,,,,,,,,,,
1764665234.972283,44995,0,4405.128418,4403.077148,4493.846191,4523.461426,4404.615234,4535.641113,4561.410156,4393.077148,4567.436035,4389.743652,4517.179688,4522.05127,4583.974121,4397.307617,4371.153809,4513.333496,4571.282227,4551.666504,4515.128418,4387.563965,4406.153809,4585.128418,4519.230957,4504.487305,4386.410156,4588.974121,4393.077148,4582.179688,4514.743652,4400.256348,4531.025879,4495.512695,2852,1,25,1792,45967,,,,0,4,4,4,4,4,4,4,4,4,4,4,4,4,4,4,4,4,4,4,4,4,4,4,4,4,4,4,4,4,4,4,4,100,,,,,,,,,,,,,,,,,,,,,,,,,,,,,,,,,,,,,,,,,,,,,,,,,,,,,,,,,,,,,,,,,,,,,,,,,,,,,,,,,,,,,,,,,,,,,,,,,,,,,,,,,,,,,,,,,,,,,,,,,,,,,,,,,,,,,,,,,,,,,,,,,,,,,,,,,,,,,,,,,,,,,,,,,,,,,,,,,,,,,,,,,,,,,,,,,,,,,,,,,,,,,,
1764665234.976190,44996,0,4402.307617,4401.410156,4492.436035,4524.871582,4402.820313,4535.769043,4559.102539,4390.512695,4566.666504,4384.871582,4510.769043,4523.589844,4583.461426,4398.717773,4373.846191,4513.333496,4569.615234,4548.974121,4511.922852,4383.717773,4402.820313,4583.717773,4517.307617,4501.538574,4382.436035,4588.717773,4392.94873,4579.743652,4513.461426,4399.102539,4526.922852,4491.282227,2746,1,25,2048,45975,,,,0,4,4,4,4,4,4,4,4,4,4,4,4,4,4,4,4,4,4,4,4,4,4,4,4,4,4,4,4,4,4,4,4,100,,,,,,,,,,,,,,,,,,,,,,,,,,,,,,,,,,,,,,,,,,,,,,,,,,,,,,,,,,,,,,,,,,,,,,,,,,,,,,,,,,,,,,,,,,,,,,,,,,,,,,,,,,,,,,,,,,,,,,,,,,,,,,,,,,,,,,,,,,,,,,,,,,,,,,,,,,,,,,,,,,,,,,,,,,,,,,,,,,,,,,,,,,,,,,,,,,,,,,,,,,,,,,
1764665234.980097,44997,0,4398.589844,4398.974121,4491.025879,4525.384766,4401.153809,4536.538574,4556.410156,4389.230957,4566.153809,4382.820313,4504.102539,4525.512695,4582.563965,4397.692383,4376.410156,4512.563965,4567.05127,4545.384766,4509.487305,4380.897461,4399.230957,4581.922852,4517.436035,4501.025879,4387.05127,4587.563965,4393.077148,4577.05127,4512.436035,4398.205078,4523.846191,4491.794922,2785,1,25,2048,45975,,,,0,4,4,4,4,4,4,4,4,4,4,4,4,4,4,4,4,4,4,4,4,4,4,4,4,4,4,4,4,4,4,4,4,100,,,,,,,,,,,,,,,,,,,,,,,,,,,,,,,,,,,27633,0,0.263954,-0.599609,-0.732971,0.183167,0.96545,0.213893,0.047857,23.833334,29.166666,43.833332,,,,,,,,,,,,,,,,,,,,,,,,,,,,,,,,,,,,,,,,,,,,,,,,,,,,,,,,,,,,,,,,,,,,,,,,,,,,,,,,,,,,,,,,,,,,,,,,,,,,,,,,,,,,,,,,,,,,,,,,,,,,,,,,,,,,,,,,,,,,,,,,,,,,,,,,,,,,,,,,
1764665234.984005,44998,0,4395.128418,4396.025879,4490.512695,4523.461426,4398.717773,4536.153809,4554.487305,4388.333496,4564.230957,4383.333496,4500.256348,4525.256348,4579.871582,4393.846191,4375.512695,4509.743652,4563.333496,4541.025879,4508.333496,4379.871582,4396.666504,4579.871582,4518.333496,4501.922852,4396.282227,4584.871582,4392.05127,4573.846191,4511.666504,4398.077148,4522.05127,4496.410156,2791,1,25,2304,45983,,,,0,4,4,4,4,4,4,4,4,4,4,4,4,4,4,4,4,4,4,4,4,4,4,4,4,4,4,4,4,4,4,4,4,100,,,,,,,,,,,,,,,,,,,,,,,,,,,,,,,,,,,,,,,,,,,,,,,,,,,,,,,,,,,,,,,,,,,,,,,,,,,,,,,,,,,,,,,,,,,,,,,,,,,,,,,,,,,,,,,,,,,,,,,,,,,,,,,,,,,,,,,,,,,,,,,,,,,,,,,,,,,,,,,,,,,,,,,,,,,,,,,,,,,,,,,,,,,,,,,,,,,,,,,,,,,,,,
1764665234.987912,44999,0,4393.205078,4394.358887,4492.692383,4521.025879,4396.666504,4533.974121,4553.974121,4387.436035,4560.897461,4386.153809,4501.153809,4522.436035,4575.769043,4389.487305,4371.153809,4506.282227,4559.230957,4537.94873,4508.461426,4381.282227,4396.410156,4578.589844,4518.333496,4502.820313,4404.615234,4582.05127,4390.512695,4570.897461,4511.794922,4399.102539,4522.05127,4502.436035,2981,1,25,2304,45983,,,,0,4,4,4,4,4,4,4,4,4,4,4,4,4,4,4,4,4,4,4,4,4,4,4,4,4,4,4,4,4,4,4,4,100,,,,,,,,,,,,,,,,,,,,,,,,,,,,,,,,,,,,,,,,,,,,,,,,,,,,,,,,,,,,,,,,,,,,,,,,,,,,,,,,,,,,,,,,,,,,,,,,,,,,,,,,,,,,,,,,,,,,,,,,,,,,,,,,,,,,,,,,,,,,,,,,,,,,,,,,,,,,,,,,,,,,,,,,,,,,,,,,,,,,,,,,,,,,,,,,,,,,,,,,,,,,,,
1764665234.991819,45000,0,4393.717773,4396.025879,4498.077148,4521.282227,4396.538574,4530.512695,4554.743652,4387.436035,4558.846191,4391.153809,4505.897461,4518.461426,4572.692383,4388.077148,4366.922852,4504.615234,4556.410156,4537.94873,4509.743652,4385.128418,4398.974121,4579.358887,4517.05127,4502.94873,4408.974121,4581.922852,4390.256348,4570.128418,4513.077148,4400.897461,4523.974121,4507.436035,2860,1,25,2560,45991,,,,0,4,4,4,4,4,4,4,4,4,4,4,4,4,4,4,4,4,4,4,4,4,4,4,4,4,4,4,4,4,4,4,4,100,,,,,,,,,,,,,,,,,,,,,,,,,,,,,,,,,,,,,,,,,,,,,,,,,,,,,,,,,,,,,,,,,,,,,,,,,,,,,,,,,,,,,,,,,,,,,,,,,,,,,,,,,,,,,,,,,,,,,,,,,,,,,,,,,,,,,,,,,,,,,,,,,,,,,,,,,,,,,,,,,,,,,,,,,,,,,,,,,,,,,,,,,,,,,,,,,,,,,,,,,,,,,,
1764665234.995726,45001,0,4395.512695,4400.128418,4504.487305,4524.358887,4398.205078,4527.179688,4554.487305,4388.077148,4560,4397.307617,4510.384766,4515.128418,4572.179688,4390.512695,4365.384766,4505.769043,4555.897461,4540.897461,4511.025879,4389.743652,4402.436035,4581.282227,4515.256348,4501.794922,4410,4584.743652,4391.410156,4571.666504,4515.128418,4402.436035,4526.538574,4509.615234,2712,1,25,2560,45991,,,,0,4,4,4,4,4,4,4,4,4,4,4,4,4,4,4,4,4,4,4,4,4,4,4,4,4,4,4,4,4,4,4,4,100,,,,,,,,,,,,,,,,,,,,,,,,,,,,,,,,,,,27634,0,0.264051,-0.599548,-0.732971,0.183228,0.976193,0.2178,0.041997,24.5,29,44.5,,,,,,,,,,,,,,,,,,,,,,,,,,,,,,,,,,,,,,,,,,,,,,,,,,,,,,,,,,,,,,,,,,,,,,,,,,,,,,,,,,,,,,,,,,,,,,,,,,,,,,,,,,,,,,,,,,,,,,,,,,,,,,,,,,,,,,,,,,,,,,,,,,,,,,,,,,,,,,,,
1764665234.999633,45002,0,4395.641113,4402.94873,4507.436035,4526.794922,4399.230957,4524.871582,4551.025879,4387.692383,4563.077148,4401.282227,4510.128418,4512.436035,4573.333496,4394.230957,4366.922852,4507.692383,4555.641113,4543.717773,4510.512695,4392.05127,4403.333496,4581.666504,4513.333496,4498.717773,4408.461426,4587.692383,4392.05127,4573.077148,4516.153809,4402.563965,4527.563965,4508.461426,2280,1,25,2560,45999,,,,0,4,4,4,4,4,4,4,4,4,4,4,4,4,4,4,4,4,4,4,4,4,4,4,4,4,4,4,4,4,4,4,4,100,,,,,,,,,,,,,,,,,,,,,,,,,,,,,,,,,,,,,,,,,,,,,,,,,,,,,,,,,,,,,,,,,,,,,,,,,,,,,,,,,,,,,,,,,,,,,,,,,,,,,,,,,,,,,,,,,,,,,,,,,,,,,,,,,,,,,,,,,,,,,,,,,,,,,,,,,,,,,,,,,,,,,,,,,,,,,,,,,,,,,,,,,,,,,,,,,,,,,,,,,,,,,,
1764665235.003541,45003,0,4391.922852,4401.410156,4503.717773,4524.743652,4397.307617,4523.077148,4543.846191,4384.615234,4565.128418,4399.871582,4503.589844,4510,4573.461426,4395.769043,4369.487305,4507.692383,4553.333496,4543.077148,4507.563965,4390.128418,4399.871582,4577.94873,4511.666504,4494.615234,4404.615234,4587.436035,4390.641113,4571.153809,4514.487305,4400.512695,4525.897461,4504.743652,2694,1,25,2560,45999,,,,0,4,4,4,4,4,4,4,4,4,4,4,4,4,4,4,4,4,4,4,4,4,4,4,4,4,4,4,4,4,4,4,4,100,,,,,,,,,,,,,,,,,,,,,,,,,,,,,,,,,,,,,,,,,,,,,,,,,,,,,,,,,,,,,,,,,,,,,,,,,,,,,,,,,,,,,,,,,,,,,,,,,,,,,,,,,,,,,,,,,,,,,,,,,,,,,,,,,,,,,,,,,,,,,,,,,,,,,,,,,,,,,,,,,,,,,,,,,,,,,,,,,,,,,,,,,,,,,,,,,,,,,,,,,,,,,,
1764665235.007448,45004,0,4385.897461,4396.794922,4496.025879,4518.589844,4392.94873,4521.538574,4536.666504,4380,4564.743652,4393.974121,4494.615234,4508.205078,4571.410156,4393.974121,4372.05127,4505.256348,4549.487305,4538.846191,4503.846191,4385.512695,4394.615234,4571.153809,4511.025879,4492.563965,4399.487305,4583.846191,4388.846191,4566.922852,4510.769043,4398.333496,4523.461426,4501.538574,2494,1,25,2561,46007,,,,0,4,4,4,4,4,4,4,4,4,4,4,4,4,4,4,4,4,4,4,4,4,4,4,4,4,4,4,4,4,4,4,4,100,,,,,,,,,,,,,,,,,,,,,,,,,,,,,,,,,,,,,,,,,,,,,,,,,,,,,,,,,,,,,,,,,,,,,,,,,,,,,,,,,,,,,,,,,,,,,,,,,,,,,,,,,,,,,,,,,,,,,,,,,,,,,,,,,,,,,,,,,,,,,,,,,,,,,,,,,,,,,,,,,,,,,,,,,,,,,,,,,,,,,,,,,,,,,,,,,,,,,,,,,,,,,,
1764665235.011355,45005,0,4382.307617,4394.230957,4491.153809,4513.333496,4389.871582,4521.153809,4535.128418,4377.563965,4564.230957,4388.077148,4490,4507.692383,4568.846191,4391.666504,4374.615234,4503.077148,4546.922852,4534.487305,4502.563965,4382.307617,4392.179688,4565.769043,4512.05127,4495.897461,4396.153809,4580.512695,4389.615234,4564.487305,4507.820313,4399.230957,4523.717773,4501.922852,2239,1,25,2561,46007,,,,0,4,4,4,4,4,4,4,4,4,4,4,4,4,4,4,4,4,4,4,4,4,4,4,4,4,4,4,4,4,4,4,4,100,,,,,,,,,,,,,,,,,,,,,,,,,,,,,,,,,,,27635,0,0.263923,-0.599548,-0.733032,0.183167,0.976193,0.2178,0.041997,24,28.666666,46.166668,,,,,,,,,,,,,,,,,,,,,,,,,,,,,,,,,,,,,,,,,,,,,,,,,,,,,,,,,,,,,,,,,,,,,,,,,,,,,,,,,,,,,,,,,,,,,,,,,,,,,,,,,,,,,,,,,,,,,,,,,,,,,,,,,,,,,,,,,,,,,,,,,,,,,,,,,,,,,,,,
1764665235.015262,45006,0,4384.615234,4397.307617,4494.102539,4513.461426,4390.641113,4522.94873,4541.025879,4380.256348,4567.05127,4386.410156,4492.94873,4508.974121,4568.589844,4391.666504,4377.05127,4503.974121,4548.333496,4534.102539,4505.256348,4383.461426,4395.128418,4565.512695,4514.487305,4503.846191,4397.692383,4581.025879,4394.102539,4566.538574,4508.589844,4404.102539,4528.333496,4506.922852,2708,1,25,2562,46014,,,,0,4,4,4,4,4,4,4,4,4,4,4,4,4,4,4,4,4,4,4,4,4,4,4,4,4,4,4,4,4,4,4,4,100,,,,,,,,,,,,,,,,,,,,,,,,,,,,,,,,,,,,,,,,,,,,,,,,,,,,,,,,,,,,,,,,,,,,,,,,,,,,,,,,,,,,,,,,,,,,,,,,,,,,,,,,,,,,,,,,,,,,,,,,,,,,,,,,,,,,,,,,,,,,,,,,,,,,,,,,,,,,,,,,,,,,,,,,,,,,,,,,,,,,,,,,,,,,,,,,,,,,,,,,,,,,,,
1764665235.019169,45007,0,4391.410156,4404.615234,4503.333496,4518.461426,4394.871582,4525.897461,4550.512695,4386.922852,4573.589844,4389.615234,4500.897461,4511.025879,4570.384766,4394.358887,4378.205078,4507.307617,4552.94873,4538.205078,4509.871582,4387.307617,4400.641113,4569.871582,4516.666504,4511.282227,4404.358887,4585,4398.846191,4571.410156,4513.077148,4409.487305,4534.487305,4513.461426,2498,1,25,2562,46014,,,,0,4,4,4,4,4,4,4,4,4,4,4,4,4,4,4,4,4,4,4,4,4,4,4,4,4,4,4,4,4,4,4,4,100,,,,,,,,,,,,,,,,,,,,,,,,,,,,,,,,,,,,,,,,,,,,,,,,,,,,,,,,,,,,,,,,,,,,,,,,,,,,,,,,,,,,,,,,,,,,,,,,,,,,,,,,,,,,,,,,,,,,,,,,,,,,,,,,,,,,,,,,,,,,,,,,,,,,,,,,,,,,,,,,,,,,,,,,,,,,,,,,,,,,,,,,,,,,,,,,,,,,,,,,,,,,,,
1764665235.023077,45008,0,4397.692383,4410.897461,4511.922852,4523.974121,4398.589844,4527.436035,4556.410156,4393.461426,4579.743652,4395.256348,4507.179688,4512.179688,4572.307617,4396.666504,4377.05127,4509.358887,4556.794922,4543.205078,4512.94873,4389.615234,4403.589844,4575,4516.794922,4512.436035,4412.05127,4588.077148,4399.102539,4574.102539,4517.692383,4410.897461,4537.307617,4516.666504,2867,1,25,2561,46022,,,,0,4,4,4,4,4,4,4,4,4,4,4,4,4,4,4,4,4,4,4,4,4,4,4,4,4,4,4,4,4,4,4,4,100,,,,,,,,,,,,,,,,,,,,,,,,,,,,,,,,,,,,,,,,,,,,,,,,,,,,,,,,,,,,,,,,,,,,,,,,,,,,,,,,,,,,,,,,,,,,,,,,,,,,,,,,,,,,,,,,,,,,,,,,,,,,,,,,,,,,,,,,,,,,,,,,,,,,,,,,,,,,,,,,,,,,,,,,,,,,,,,,,,,,,,,,,,,,,,,,,,,,,,,,,,,,,,
1764665235.026984,45009,0,4398.717773,4411.538574,4513.333496,4524.358887,4398.461426,4525.512695,4554.743652,4395.256348,4580.128418,4399.102539,4506.410156,4511.410156,4570.897461,4395.512695,4373.846191,4507.307617,4556.282227,4544.358887,4512.179688,4387.05127,4400.641113,4576.025879,4514.358887,4505.641113,4413.846191,4585.384766,4393.333496,4571.282227,4518.077148,4406.025879,4533.846191,4513.846191,2907,1,25,2561,46022,,,,0,4,4,4,4,4,4,4,4,4,4,4,4,4,4,4,4,4,4,4,4,4,4,4,4,4,4,4,4,4,4,4,4,100,,,,,,,,,,,,,,,,,,,,,,,,,,,,,,,,,,,27636,0,0.263839,-0.599548,-0.733093,0.183044,0.97131,0.224637,0.044927,24.166666,27.666666,44.333332,,,,,,,,,,,,,,,,,,,,,,,,,,,,,,,,,,,,,,,,,,,,,,,,,,,,,,,,,,,,,,,,,,,,,,,,,,,,,,,,,,,,,,,,,,,,,,,,,,,,,,,,,,,,,,,,,,,,,,,,,,,,,,,,,,,,,,,,,,,,,,,,,,,,,,,,,,,,,,,,
1764665235.030891,45010,0,4393.205078,4405.897461,4505.897461,4518.077148,4393.717773,4520.384766,4546.794922,4390.128418,4572.692383,4397.563965,4498.205078,4508.205078,4565.384766,4390.769043,4370,4502.179688,4550.512695,4539.358887,4507.820313,4379.358887,4392.94873,4571.282227,4509.615234,4494.871582,4404.102539,4576.025879,4383.461426,4562.94873,4512.94873,4396.794922,4525.128418,4505.769043,1765,1,25,2560,46030,,,,0,4,4,4,4,4,4,4,4,4,4,4,4,4,4,4,4,4,4,4,4,4,4,4,4,4,4,4,4,4,4,4,4,100,,,,,,,,,,,,,,,,,,,,,,,,,,,,,,,,,,,,,,,,,,,,,,,,,,,,,,,,,,,,,,,,,,,,,,,,,,,,,,,,,,,,,,,,,,,,,,,,,,,,,,,,,,,,,,,,,,,,,,,,,,,,,,,,,,,,,,,,,,,,,,,,,,,,,,,,,,,,,,,,,,,,,,,,,,,,,,,,,,,,,,,,,,,,,,,,,,,,,,,,,,,,,,
1764665235.034798,45011,0,4383.846191,4396.666504,4494.230957,4508.077148,4387.05127,4514.615234,4537.94873,4380.256348,4560.384766,4388.974121,4487.179688,4503.974121,4557.692383,4384.871582,4367.307617,4496.922852,4542.307617,4530.384766,4502.307617,4369.615234,4384.230957,4563.461426,4504.230957,4486.538574,4383.333496,4563.974121,4374.358887,4552.820313,4504.871582,4387.820313,4515.256348,4496.538574,2953,1,25,2560,46030,,,,0,4,4,4,4,4,4,4,4,4,4,4,4,4,4,4,4,4,4,4,4,4,4,4,4,4,4,4,4,4,4,4,4,100,,,,,,,,,,,,,,,,,,,,,,,,,,,,,,,,,,,,,,,,,,,,,,,,,,,,,,,,,,,,,,,,,,,,,,,,,,,,,,,,,,,,,,,,,,,,,,,,,,,,,,,,,,,,,,,,,,,,,,,,,,,,,,,,,,,,,,,,,,,,,,,,,,,,,,,,,,,,,,,,,,,,,,,,,,,,,,,,,,,,,,,,,,,,,,,,,,,,,,,,,,,,,,
1764665235.038705,45012,0,4376.153809,4388.461426,4485.641113,4500.512695,4382.05127,4511.153809,4532.820313,4370.897461,4549.358887,4374.871582,4480,4501.282227,4552.05127,4381.025879,4366.666504,4495,4536.282227,4522.94873,4498.589844,4362.563965,4378.333496,4557.692383,4500.128418,4485.128418,4360.128418,4555.128418,4369.487305,4546.538574,4499.230957,4383.589844,4508.974121,4490.256348,2517,1,25,1536,46038,,,,0,4,4,4,4,4,4,4,4,4,4,4,4,4,4,4,4,4,4,4,4,4,4,4,4,4,4,4,4,4,4,4,4,100,,,,,,,,,,,,,,,,,,,,,,,,,,,,,,,,,,,,,,,,,,,,,,,,,,,,,,,,,,,,,,,,,,,,,,,,,,,,,,,,,,,,,,,,,,,,,,,,,,,,,,,,,,,,,,,,,,,,,,,,,,,,,,,,,,,,,,,,,,,,,,,,,,,,,,,,,,,,,,,,,,,,,,,,,,,,,,,,,,,,,,,,,,,,,,,,,,,,,,,,,,,,,,
1764665235.042613,45013,0,4374.615234,4385.641113,4485,4500.128418,4381.282227,4512.05127,4532.820313,4367.692383,4545,4361.025879,4480.641113,4502.436035,4552.307617,4380.641113,4368.589844,4497.692383,4536.282227,4522.307617,4498.846191,4362.05127,4377.94873,4557.563965,4500,4490.256348,4347.563965,4553.974121,4370.512695,4548.205078,4499.102539,4386.410156,4508.461426,4490,2821,1,25,1536,46038,,,,0,4,4,4,4,4,4,4,4,4,4,4,4,4,4,4,4,4,4,4,4,4,4,4,4,4,4,4,4,4,4,4,4,100,,,,,,,,,,,,,,,,,,,,,,,,,,,,,,,,,,,27637,0,0.263723,-0.599487,-0.733215,0.182922,0.963497,0.213893,0.051764,24.5,28.666666,43.333332,,,,,,,,,,,,,,,,,,,,,,,,,,,,,,,,,,,,,,,,,,,,,,,,,,,,,,,,,,,,,,,,,,,,,,,,,,,,,,,,,,,,,,,,,,,,,,,,,,,,,,,,,,,,,,,,,,,,,,,,,,,,,,,,,,,,,,,,,,,,,,,,,,,,,,,,,,,,,,,,
1764665235.046520,45014,0,4379.871582,4388.846191,4492.05127,4507.307617,4385.128418,4516.922852,4536.538574,4372.179688,4548.333496,4354.615234,4487.563965,4507.05127,4559.102539,4383.077148,4372.179688,4503.461426,4542.563965,4529.358887,4503.077148,4367.820313,4382.820313,4562.94873,4504.487305,4498.077148,4353.846191,4559.743652,4375.769043,4556.922852,4503.717773,4394.487305,4512.820313,4495,2931,1,25,1536,46046,,,,0,4,4,4,4,4,4,4,4,4,4,4,4,4,4,4,4,4,4,4,4,4,4,4,4,4,4,4,4,4,4,4,4,100,,,,,,,,,,,,,,,,,,,,,,,,,,,,,,,,,,,,,,,,,,,,,,,,,,,,,,,,,,,,,,,,,,,,,,,,,,,,,,,,,,,,,,,,,,,,,,,,,,,,,,,,,,,,,,,,,,,,,,,,,,,,,,,,,,,,,,,,,,,,,,,,,,,,,,,,,,,,,,,,,,,,,,,,,,,,,,,,,,,,,,,,,,,,,,,,,,,,,,,,,,,,,,
1764665235.050427,45015,0,4388.974121,4395.512695,4501.410156,4517.307617,4391.282227,4523.333496,4540.897461,4380.897461,4555.384766,4359.487305,4495.384766,4513.205078,4569.230957,4386.153809,4376.410156,4508.846191,4551.922852,4540.128418,4509.743652,4376.153809,4390.384766,4570.512695,4512.179688,4504.358887,4376.025879,4568.205078,4382.179688,4567.179688,4509.230957,4403.461426,4518.717773,4502.05127,2843,1,25,1536,46046,,,,0,4,4,4,4,4,4,4,4,4,4,4,4,4,4,4,4,4,4,4,4,4,4,4,4,4,4,4,4,4,4,4,4,100,,,,,,,,,,,,,,,,,,,,,,,,,,,,,,,,,,,,,,,,,,,,,,,,,,,,,,,,,,,,,,,,,,,,,,,,,,,,,,,,,,,,,,,,,,,,,,,,,,,,,,,,,,,,,,,,,,,,,,,,,,,,,,,,,,,,,,,,,,,,,,,,,,,,,,,,,,,,,,,,,,,,,,,,,,,,,,,,,,,,,,,,,,,,,,,,,,,,,,,,,,,,,,
1764665235.054334,45016,0,4396.410156,4401.025879,4507.563965,4524.358887,4396.538574,4527.436035,4543.333496,4388.077148,4560.641113,4373.333496,4498.846191,4518.461426,4577.563965,4387.94873,4379.487305,4511.538574,4560,4548.333496,4515.641113,4382.307617,4397.436035,4576.410156,4519.102539,4506.666504,4401.025879,4574.358887,4386.410156,4572.94873,4511.794922,4408.205078,4522.94873,4507.179688,2767,1,25,512,46053,,,,0,4,4,4,4,4,4,4,4,4,4,4,4,4,4,4,4,4,4,4,4,4,4,4,4,4,4,4,4,4,4,4,4,100,,,,,,,,,,,,,,,,,,,,,,,,,,,,,,,,,,,,,,,,,,,,,,,,,,,,,,,,,,,,,,,,,,,,,,,,,,,,,,,,,,,,,,,,,,,,,,,,,,,,,,,,,,,,,,,,,,,,,,,,,,,,,,,,,,,,,,,,,,,,,,,,,,,,,,,,,,,,,,,,,,,,,,,,,,,,,,,,,,,,,,,,,,,,,,,,,,,,,,,,,,,,,,
1764665235.058241,45017,0,4398.717773,4402.692383,4508.846191,4525.769043,4399.102539,4527.820313,4543.333496,4389.871582,4561.410156,4388.846191,4496.666504,4521.794922,4580.384766,4388.717773,4381.025879,4511.794922,4563.333496,4550.769043,4518.205078,4383.589844,4401.153809,4578.333496,4521.153809,4505.897461,4415.384766,4576.025879,4387.05127,4571.666504,4510.384766,4406.538574,4524.615234,4508.846191,2820,1,25,512,46053,,,,0,4,4,4,4,4,4,4,4,4,4,4,4,4,4,4,4,4,4,4,4,4,4,4,4,4,4,4,4,4,4,4,4,100,,,,,,,,,,,,,,,,,,,,,,,,,,,,,,,,,,,27638,0,0.264085,-0.599365,-0.733154,0.183044,0.974728,0.218777,0.055671,23.166666,29.333334,42.833332,,,,,,,,,,,,,,,,,,,,,,,,,,,,,,,,,,,,,,,,,,,,,,,,,,,,,,,,,,,,,,,,,,,,,,,,,,,,,,,,,,,,,,,,,,,,,,,,,,,,,,,,,,,,,,,,,,,,,,,,,,,,,,,,,,,,,,,,,,,,,,,,,,,,,,,,,,,,,,,,
1764665235.062149,45018,0,4396.025879,4400.384766,4507.179688,4522.94873,4398.846191,4525.641113,4541.538574,4386.538574,4559.743652,4398.717773,4491.410156,4522.307617,4577.436035,4389.871582,4381.025879,4511.922852,4561.538574,4548.461426,4516.538574,4380.897461,4401.025879,4576.282227,4517.563965,4503.589844,4413.717773,4574.102539,4385.384766,4566.025879,4507.05127,4400,4524.230957,4507.820313,1959,1,25,256,46061,,,,0,4,4,4,4,4,4,4,4,4,4,4,4,4,4,4,4,4,4,4,4,4,4,4,4,4,4,4,4,4,4,4,4,100,,,,,,,,,,,,,,,,,,,,,,,,,,,,,,,,,,,,,,,,,,,,,,,3.312173,2.559686,0.549447,0.826527,0.514535,4.498445,2.2857,0.421057,0.862965,0.602932,2.262897,3.047389,0.434484,0.830275,1.035604,1.216089,3.348149,0.642623,0.86604,0.796933,3.2995,2.281149,0.454782,0.686246,0.56425,3.454993,2.730896,0.346521,0.795377,0.592297,2.622491,2.174139,0.849795,0.795114,0.669261,2.505604,2.792245,0.884644,0.843325,0.844193,1.539068,3.485539,0.717638,0.570373,0.786425,0.818494,3.287392,0.861816,1.81422,1.207795,1.718941,1.646913,0.488974,0.516805,0.505363,3.920474,2.932842,0.366967,0.660294,0.525746,1.968689,2.005248,0.785625,0.558566,0.556462,0.751302,0.980602,0.34103,0.436786,0.410551,0.220087,0.582667,0.34594,0.766761,0.713796,0.783987,1.246275,0.648659,0.48391,0.47379,3.519278,4.999719,0.576796,0.74512,0.545789,1.448463,2.594732,1.071827,0.704125,0.565606,0.542803,1.860525,0.995089,0.466609,0.343726,1.120727,1.582575,0.851913,0.67342,0.612752,1.939441,3.13589,1.350289,0.862511,0.494364,3.191267,5.448062,1.088346,0.937066,0.597824,3.662486,3.299003,0.43524,0.593796,0.513903,3.490702,3.040145,0.785672,1.025452,0.675453,2.641266,7.46571,1.199652,1.002261,1.463229,2.715157,2.399884,0.365073,0.782266,0.656224,4.377247,2.612481,0.44579,1.03814,0.807423,4.573328,3.652466,0.394219,0.963428,0.617869,2.774372,1.324645,0.217837,0.451056,0.275798,4.94278,1.879856,0.546129,0.951429,0.671382,5.204861,2.575145,0.435703,0.904197,0.693479,3.234316,2.470822,0.383937,0.993522,0.859777
1764665235.066056,45019,0,4391.666504,4396.666504,4505.769043,4519.615234,4396.922852,4523.589844,4539.487305,4381.794922,4559.102539,4399.615234,4487.563965,4520.512695,4572.179688,4392.563965,4380.256348,4513.333496,4556.922852,4545.128418,4513.205078,4377.05127,4398.589844,4572.692383,4511.025879,4501.538574,4402.179688,4571.153809,4383.333496,4560.128418,4504.871582,4392.692383,4522.563965,4505.641113,2639,1,25,256,46061,,,,0,4,4,4,4,4,4,4,4,4,4,4,4,4,4,4,4,4,4,4,4,4,4,4,4,4,4,4,4,4,4,4,4,100,,,,,,,,,,,,,,,,,,,,,,,,,,,,,,,,,,,,,,,,,,,,,,,,,,,,,,,,,,,,,,,,,,,,,,,,,,,,,,,,,,,,,,,,,,,,,,,,,,,,,,,,,,,,,,,,,,,,,,,,,,,,,,,,,,,,,,,,,,,,,,,,,,,,,,,,,,,,,,,,,,,,,,,,,,,,,,,,,,,,,,,,,,,,,,,,,,,,,,,,,,,,,,
1764665235.069963,45020,0,4389.230957,4393.974121,4505.256348,4518.205078,4394.358887,4523.205078,4538.333496,4379.358887,4560.897461,4394.102539,4488.077148,4517.05127,4568.846191,4396.025879,4379.615234,4515.641113,4553.205078,4543.717773,4511.538574,4374.871582,4395.897461,4570.384766,4505.897461,4500.384766,4391.025879,4568.717773,4381.666504,4557.05127,4505.256348,4387.94873,4519.871582,4502.94873,2695,1,25,512,46069,,,,0,4,4,4,4,4,4,4,4,4,4,4,4,4,4,4,4,4,4,4,4,4,4,4,4,4,4,4,4,4,4,4,4,100,,,,,,,,,,,,,,,,,,,,,,,,,,,,,,,,,,,,,,,,,,,,,,,,,,,,,,,,,,,,,,,,,,,,,,,,,,,,,,,,,,,,,,,,,,,,,,,,,,,,,,,,,,,,,,,,,,,,,,,,,,,,,,,,,,,,,,,,,,,,,,,,,,,,,,,,,,,,,,,,,,,,,,,,,,,,,,,,,,,,,,,,,,,,,,,,,,,,,,,,,,,,,,
1764665235.073870,45021,0,4389.743652,4393.846191,4504.743652,4518.974121,4392.05127,4524.358887,4538.205078,4380.897461,4563.974121,4387.820313,4492.820313,4513.974121,4569.487305,4398.461426,4380,4517.692383,4552.692383,4544.230957,4513.333496,4375.769043,4393.974121,4570.641113,4505,4500,4387.179688,4566.410156,4380.128418,4556.922852,4506.794922,4386.922852,4516.666504,4500,2515,1,25,512,46069,,,,0,4,4,4,4,4,4,4,4,4,4,4,4,4,4,4,4,4,4,4,4,4,4,4,4,4,4,4,4,4,4,4,4,100,,,,,,,,,,,,,,,,,,,,,,,,,,,,,,,,,,,27639,0,0.264085,-0.599365,-0.733154,0.183044,0.990355,0.207057,0.047369,23.833334,29.166666,43.5,,,,,,,,,,,,,,,,,,,,,,,,,,,,,,,,,,,,,,,,,,,,,,,,,,,,,,,,,,,,,,,,,,,,,,,,,,,,,,,,,,,,,,,,,,,,,,,,,,,,,,,,,,,,,,,,,,,,,,,,,,,,,,,,,,,,,,,,,,,,,,,,,,,,,,,,,,,,,,,,
1764665235.077777,45022,0,4391.666504,4396.153809,4503.461426,4520.897461,4390.641113,4525.512695,4538.717773,4385.512695,4566.282227,4386.153809,4499.615234,4512.563965,4572.307617,4398.589844,4381.282227,4518.846191,4554.743652,4545.641113,4516.410156,4378.846191,4393.077148,4572.563965,4507.692383,4499.487305,4390.128418,4563.333496,4378.461426,4558.205078,4506.922852,4387.94873,4513.846191,4496.922852,2661,1,25,768,46077,,,,0,4,4,4,4,4,4,4,4,4,4,4,4,4,4,4,4,4,4,4,4,4,4,4,4,4,4,4,4,4,4,4,4,100,,,,,,,,,,,,,,,,,,,,,,,,,,,,,,,,,,,,,,,,,,,,,,,,,,,,,,,,,,,,,,,,,,,,,,,,,,,,,,,,,,,,,,,,,,,,,,,,,,,,,,,,,,,,,,,,,,,,,,,,,,,,,,,,,,,,,,,,,,,,,,,,,,,,,,,,,,,,,,,,,,,,,,,,,,,,,,,,,,,,,,,,,,,,,,,,,,,,,,,,,,,,,,
1764665235.081685,45023,0,4392.692383,4399.615234,4501.153809,4522.820313,4390.769043,4525.897461,4540,4390,4567.05127,4390.384766,4505,4512.692383,4574.102539,4397.05127,4382.94873,4519.487305,4556.666504,4546.282227,4517.820313,4381.666504,4392.436035,4573.846191,4510.384766,4498.333496,4395.256348,4560,4377.307617,4559.230957,4504.487305,4389.358887,4511.922852,4494.615234,2829,1,25,768,46077,,,,0,4,4,4,4,4,4,4,4,4,4,4,4,4,4,4,4,4,4,4,4,4,4,4,4,4,4,4,4,4,4,4,4,100,,,,,,,,,,,,,,,,,,,,,,,,,,,,,,,,,,,,,,,,,,,,,,,,,,,,,,,,,,,,,,,,,,,,,,,,,,,,,,,,,,,,,,,,,,,,,,,,,,,,,,,,,,,,,,,,,,,,,,,,,,,,,,,,,,,,,,,,,,,,,,,,,,,,,,,,,,,,,,,,,,,,,,,,,,,,,,,,,,,,,,,,,,,,,,,,,,,,,,,,,,,,,,
1764665235.085592,45024,0,4391.538574,4401.666504,4498.333496,4523.717773,4391.922852,4525.512695,4541.666504,4391.025879,4567.692383,4397.820313,4506.666504,4513.205078,4572.563965,4395.256348,4383.589844,4519.230957,4556.025879,4545.256348,4514.743652,4381.794922,4391.538574,4572.692383,4510.128418,4495.897461,4397.563965,4557.307617,4376.153809,4558.461426,4500.897461,4389.743652,4510.128418,4493.461426,2763,1,25,1024,46085,,,,0,4,4,4,4,4,4,4,4,4,4,4,4,4,4,4,4,4,4,4,4,4,4,4,4,4,4,4,4,4,4,4,4,100,,,,,,,,,,,,,,,,,,,,,,,,,,,,,,,,,,,,,,,,,,,,,,,,,,,,,,,,,,,,,,,,,,,,,,,,,,,,,,,,,,,,,,,,,,,,,,,,,,,,,,,,,,,,,,,,,,,,,,,,,,,,,,,,,,,,,,,,,,,,,,,,,,,,,,,,,,,,,,,,,,,,,,,,,,,,,,,,,,,,,,,,,,,,,,,,,,,,,,,,,,,,,,
1764665235.089499,45025,0,4388.077148,4400.256348,4495.512695,4523.333496,4392.307617,4524.871582,4542.94873,4387.692383,4568.589844,4402.94873,4504.102539,4512.436035,4568.077148,4393.846191,4382.05127,4516.922852,4551.538574,4542.179688,4507.563965,4379.102539,4389.487305,4568.589844,4505.512695,4492.179688,4395,4555.512695,4373.974121,4555.128418,4498.205078,4388.205078,4507.436035,4492.179688,2929,1,25,1024,46085,,,,0,4,4,4,4,4,4,4,4,4,4,4,4,4,4,4,4,4,4,4,4,4,4,4,4,4,4,4,4,4,4,4,4,100,,,,,,,,,,,,,,,,,,,,,,,,,,,,,,,,,,,27640,0,0.264308,-0.599304,-0.733093,0.183167,0.97717,0.218777,0.052741,24.5,29.333334,44.166668,,,,,,,,,,,,,,,,,,,,,,,,,,,,,,,,,,,,,,,,,,,,,,,,,,,,,,,,,,,,,,,,,,,,,,,,,,,,,,,,,,,,,,,,,,,,,,,,,,,,,,,,,,,,,,,,,,,,,,,,,,,,,,,,,,,,,,,,,,,,,,,,,,,,,,,,,,,,,,,,
1764665235.093406,45026,0,4383.205078,4395,4492.94873,4521.922852,4390.256348,4524.230957,4542.436035,4381.794922,4569.871582,4401.794922,4498.461426,4509.743652,4561.922852,4392.179688,4378.974121,4511.794922,4544.487305,4536.794922,4499.102539,4374.871582,4386.025879,4562.179688,4498.333496,4487.820313,4388.846191,4554.230957,4370,4549.615234,4497.436035,4384.102539,4503.077148,4489.487305,2605,1,25,1280,46092,,,,0,4,4,4,4,4,4,4,4,4,4,4,4,4,4,4,4,4,4,4,4,4,4,4,4,4,4,4,4,4,4,4,4,100,,,,,,,,,,,,,,,,,,,,,,,,,,,,,,,,,,,,,,,,,,,,,,,,,,,,,,,,,,,,,,,,,,,,,,,,,,,,,,,,,,,,,,,,,,,,,,,,,,,,,,,,,,,,,,,,,,,,,,,,,,,,,,,,,,,,,,,,,,,,,,,,,,,,,,,,,,,,,,,,,,,,,,,,,,,,,,,,,,,,,,,,,,,,,,,,,,,,,,,,,,,,,,
1764665235.097313,45027,0,4378.461426,4388.461426,4490.384766,4520.256348,4386.410156,4522.820313,4539.743652,4377.563965,4570.641113,4394.230957,4492.05127,4506.025879,4556.153809,4389.871582,4376.410156,4504.615234,4537.307617,4530,4493.846191,4371.538574,4382.307617,4555.769043,4492.179688,4483.589844,4382.692383,4553.205078,4365.128418,4543.717773,4497.820313,4378.077148,4498.077148,4484.615234,2862,1,25,1280,46092,,,,0,4,4,4,4,4,4,4,4,4,4,4,4,4,4,4,4,4,4,4,4,4,4,4,4,4,4,4,4,4,4,4,4,100,,,,,,,,,,,,,,,,,,,,,,,,,,,,,,,,,,,,,,,,,,,,,,,,,,,,,,,,,,,,,,,,,,,,,,,,,,,,,,,,,,,,,,,,,,,,,,,,,,,,,,,,,,,,,,,,,,,,,,,,,,,,,,,,,,,,,,,,,,,,,,,,,,,,,,,,,,,,,,,,,,,,,,,,,,,,,,,,,,,,,,,,,,,,,,,,,,,,,,,,,,,,,,
1764665235.101221,45028,0,4375.512695,4384.230957,4488.077148,4519.230957,4382.820313,4520.512695,4536.025879,4377.692383,4570,4384.615234,4487.307617,4502.692383,4552.05127,4387.05127,4376.025879,4497.563965,4532.820313,4524.615234,4494.487305,4370.512695,4380,4552.307617,4489.871582,4481.025879,4379.743652,4553.077148,4361.538574,4540.128418,4497.94873,4372.94873,4494.358887,4478.846191,2755,1,25,1536,46100,,,,0,4,4,4,4,4,4,4,4,4,4,4,4,4,4,4,4,4,4,4,4,4,4,4,4,4,4,4,4,4,4,4,4,100,,,,,,,,,,,,,,,,,,,,,,,,,,,,,,,,,,,,,,,,,,,,,,,,,,,,,,,,,,,,,,,,,,,,,,,,,,,,,,,,,,,,,,,,,,,,,,,,,,,,,,,,,,,,,,,,,,,,,,,,,,,,,,,,,,,,,,,,,,,,,,,,,,,,,,,,,,,,,,,,,,,,,,,,,,,,,,,,,,,,,,,,,,,,,,,,,,,,,,,,,,,,,,
1764665235.105128,45029,0,4375.384766,4384.230957,4486.410156,4518.974121,4382.436035,4518.205078,4533.717773,4382.692383,4568.461426,4378.846191,4486.282227,4501.410156,4550.512695,4385.256348,4378.077148,4493.077148,4531.922852,4523.077148,4500,4372.307617,4380.512695,4553.205078,4491.794922,4481.282227,4381.153809,4554.615234,4361.538574,4540.256348,4497.179688,4371.794922,4494.230957,4475.641113,2795,1,25,1536,46100,,,,0,4,4,4,4,4,4,4,4,4,4,4,4,4,4,4,4,4,4,4,4,4,4,4,4,4,4,4,4,4,4,4,4,100,,,,,,,,,,,,,,,,,,,,,,,,,,,,,,,,,,,27641,0,0.264231,-0.599487,-0.732971,0.183167,0.963985,0.217312,0.049811,23.666666,28.666666,44.166668,,,,,,,,,,,,,,,,,,,,,,,,,,,,,,,,,,,,,,,,,,,,,,,,,,,,,,,,,,,,,,,,,,,,,,,,,,,,,,,,,,,,,,,,,,,,,,,,,,,,,,,,,,,,,,,,,,,,,,,,,,,,,,,,,,,,,,,,,,,,,,,,,,,,,,,,,,,,,,,,
1764665235.109035,45030,0,4377.94873,4388.333496,4486.794922,4520,4386.410156,4517.94873,4534.743652,4390.128418,4567.563965,4379.871582,4489.487305,4502.307617,4551.922852,4386.025879,4380.641113,4492.179688,4534.358887,4526.666504,4506.666504,4376.282227,4383.846191,4557.820313,4496.410156,4484.615234,4385.256348,4557.94873,4365.897461,4543.846191,4496.538574,4375.897461,4499.358887,4477.94873,2798,1,25,1792,46108,,,,0,4,4,4,4,4,4,4,4,4,4,4,4,4,4,4,4,4,4,4,4,4,4,4,4,4,4,4,4,4,4,4,4,100,,,,,,,,,,,,,,,,,,,,,,,,,,,,,,,,,,,,,,,,,,,,,,,,,,,,,,,,,,,,,,,,,,,,,,,,,,,,,,,,,,,,,,,,,,,,,,,,,,,,,,,,,,,,,,,,,,,,,,,,,,,,,,,,,,,,,,,,,,,,,,,,,,,,,,,,,,,,,,,,,,,,,,,,,,,,,,,,,,,,,,,,,,,,,,,,,,,,,,,,,,,,,,
1764665235.112942,45031,0,4382.820313,4394.487305,4490,4522.820313,4393.333496,4520.384766,4539.615234,4397.05127,4569.230957,4386.538574,4496.410156,4505.384766,4555.641113,4390.128418,4382.307617,4494.358887,4538.461426,4533.589844,4511.025879,4381.410156,4388.974121,4563.974121,4501.666504,4490,4390.256348,4561.922852,4373.846191,4549.871582,4498.077148,4383.974121,4508.717773,4485.897461,2988,1,25,1792,46108,,,,0,4,4,4,4,4,4,4,4,4,4,4,4,4,4,4,4,4,4,4,4,4,4,4,4,4,4,4,4,4,4,4,4,100,,,,,,,,,,,,,,,,,,,,,,,,,,,,,,,,,,,,,,,,,,,,,,,,,,,,,,,,,,,,,,,,,,,,,,,,,,,,,,,,,,,,,,,,,,,,,,,,,,,,,,,,,,,,,,,,,,,,,,,,,,,,,,,,,,,,,,,,,,,,,,,,,,,,,,,,,,,,,,,,,,,,,,,,,,,,,,,,,,,,,,,,,,,,,,,,,,,,,,,,,,,,,,
1764665235.116849,45032,0,4388.077148,4400.256348,4495.256348,4526.666504,4400.128418,4524.487305,4546.153809,4401.666504,4573.205078,4394.871582,4503.846191,4509.871582,4560.897461,4395.512695,4382.307617,4497.307617,4542.563965,4540.384766,4511.666504,4386.025879,4393.717773,4568.846191,4505.769043,4495.256348,4394.615234,4565,4382.94873,4556.025879,4502.05127,4392.692383,4519.230957,4495.641113,2870,1,25,2048,46116,,,,0,4,4,4,4,4,4,4,4,4,4,4,4,4,4,4,4,4,4,4,4,4,4,4,4,4,4,4,4,4,4,4,4,100,,,,,,,,,,,,,,,,,,,,,,,,,,,,,,,,,,,,,,,,,,,,,,,,,,,,,,,,,,,,,,,,,,,,,,,,,,,,,,,,,,,,,,,,,,,,,,,,,,,,,,,,,,,,,,,,,,,,,,,,,,,,,,,,,,,,,,,,,,,,,,,,,,,,,,,,,,,,,,,,,,,,,,,,,,,,,,,,,,,,,,,,,,,,,,,,,,,,,,,,,,,,,,
1764665235.120757,45033,0,4391.025879,4403.077148,4499.358887,4529.230957,4402.692383,4526.922852,4550.384766,4402.307617,4576.666504,4400.512695,4507.307617,4513.077148,4565,4398.974121,4380.512695,4498.205078,4544.743652,4542.563965,4508.974121,4387.94873,4395.897461,4569.871582,4507.05127,4496.794922,4396.666504,4565.512695,4389.358887,4559.487305,4506.025879,4397.563965,4525.641113,4501.410156,2721,1,25,2048,46116,,,,0,4,4,4,4,4,4,4,4,4,4,4,4,4,4,4,4,4,4,4,4,4,4,4,4,4,4,4,4,4,4,4,4,100,,,,,,,,,,,,,,,,,,,,,,,,,,,,,,,,,,,27642,0,0.264166,-0.599609,-0.73291,0.183105,0.963985,0.217312,0.049811,23.666666,29.333334,42.833332,,,,,,,,,,,,,,,,,,,,,,,,,,,,,,,,,,,,,,,,,,,,,,,,,,,,,,,,,,,,,,,,,,,,,,,,,,,,,,,,,,,,,,,,,,,,,,,,,,,,,,,,,,,,,,,,,,,,,,,,,,,,,,,,,,,,,,,,,,,,,,,,,,,,,,,,,,,,,,,,
1764665235.124664,45034,0,4389.102539,4401.410156,4498.461426,4527.307617,4398.717773,4525.128418,4548.461426,4397.820313,4575.897461,4401.153809,4503.974121,4512.436035,4564.615234,4397.436035,4376.410156,4495,4542.436035,4537.563965,4504.615234,4385.128418,4393.846191,4565.641113,4504.615234,4492.307617,4395.384766,4562.692383,4389.230957,4557.820313,4506.794922,4395.512695,4524.487305,4499.358887,2288,1,25,2304,46124,,,,0,4,4,4,4,4,4,4,4,4,4,4,4,4,4,4,4,4,4,4,4,4,4,4,4,4,4,4,4,4,4,4,4,100,,,,,,,,,,,,,,,,,,,,,,,,,,,,,,,,,,,,,,,,,,,,,,,,,,,,,,,,,,,,,,,,,,,,,,,,,,,,,,,,,,,,,,,,,,,,,,,,,,,,,,,,,,,,,,,,,,,,,,,,,,,,,,,,,,,,,,,,,,,,,,,,,,,,,,,,,,,,,,,,,,,,,,,,,,,,,,,,,,,,,,,,,,,,,,,,,,,,,,,,,,,,,,
1764665235.128571,45035,0,4381.538574,4394.487305,4490.897461,4520.128418,4388.974121,4518.461426,4539.743652,4388.717773,4569.615234,4396.538574,4494.487305,4507.436035,4557.94873,4390.897461,4369.743652,4488.077148,4535.256348,4526.922852,4499.743652,4377.820313,4387.307617,4556.666504,4499.230957,4482.94873,4390.512695,4557.05127,4381.282227,4551.025879,4502.563965,4387.05127,4516.025879,4489.871582,2701,1,25,2304,46124,,,,0,4,4,4,4,4,4,4,4,4,4,4,4,4,4,4,4,4,4,4,4,4,4,4,4,4,4,4,4,4,4,4,4,100,,,,,,,,,,,,,,,,,,,,,,,,,,,,,,,,,,,,,,,,,,,,,,,,,,,,,,,,,,,,,,,,,,,,,,,,,,,,,,,,,,,,,,,,,,,,,,,,,,,,,,,,,,,,,,,,,,,,,,,,,,,,,,,,,,,,,,,,,,,,,,,,,,,,,,,,,,,,,,,,,,,,,,,,,,,,,,,,,,,,,,,,,,,,,,,,,,,,,,,,,,,,,,
1764665235.132478,45036,0,4370.897461,4384.615234,4479.487305,4510.641113,4377.692383,4509.743652,4528.077148,4378.461426,4560.256348,4389.487305,4483.846191,4500,4547.436035,4382.05127,4362.307617,4480.384766,4525.641113,4515.769043,4495.641113,4369.102539,4378.461426,4546.538574,4492.94873,4473.205078,4383.846191,4551.538574,4369.102539,4542.436035,4495,4376.153809,4504.743652,4477.94873,2500,1,25,2560,46132,,,,0,4,4,4,4,4,4,4,4,4,4,4,4,4,4,4,4,4,4,4,4,4,4,4,4,4,4,4,4,4,4,4,4,100,,,,,,,,,,,,,,,,,,,,,,,,,,,,,,,,,,,,,,,,,,,,,,,,,,,,,,,,,,,,,,,,,,,,,,,,,,,,,,,,,,,,,,,,,,,,,,,,,,,,,,,,,,,,,,,,,,,,,,,,,,,,,,,,,,,,,,,,,,,,,,,,,,,,,,,,,,,,,,,,,,,,,,,,,,,,,,,,,,,,,,,,,,,,,,,,,,,,,,,,,,,,,,
1764665235.136386,45037,0,4361.922852,4375.641113,4470.128418,4503.974121,4369.615234,4502.820313,4519.102539,4371.025879,4553.077148,4382.820313,4477.94873,4493.461426,4538.717773,4375.512695,4357.179688,4475.897461,4518.846191,4509.615234,4493.333496,4363.717773,4371.666504,4539.615234,4488.846191,4468.205078,4378.589844,4549.358887,4358.846191,4536.794922,4488.077148,4368.717773,4496.922852,4470.128418,2243,1,25,2560,46132,,,,0,4,4,4,4,4,4,4,4,4,4,4,4,4,4,4,4,4,4,4,4,4,4,4,4,4,4,4,4,4,4,4,4,100,,,,,,,,,,,,,,,,,,,,,,,,,,,,,,,,,,,27643,0,0.264389,-0.599548,-0.732849,0.183228,0.970333,0.216823,0.042486,23.666666,28.166666,46.166668,,,,,,,,,,,,,,,,,,,,,,,,,,,,,,,,,,,,,,,,,,,,,,,,,,,,,,,,,,,,,,,,,,,,,,,,,,,,,,,,,,,,,,,,,,,,,,,,,,,,,,,,,,,,,,,,,,,,,,,,,,,,,,,,,,,,,,,,,,,,,,,,,,,,,,,,,,,,,,,,
1764665235.140293,45038,0,4358.717773,4371.410156,4467.307617,4503.717773,4367.563965,4501.153809,4516.025879,4369.487305,4552.307617,4378.589844,4478.974121,4491.025879,4536.666504,4374.102539,4357.307617,4477.05127,4519.102539,4510.897461,4493.717773,4364.102539,4370.512695,4538.974121,4488.205078,4470.512695,4377.692383,4552.436035,4355.769043,4536.538574,4485.512695,4367.692383,4496.538574,4469.615234,2713,1,25,2560,46139,,,,0,4,4,4,4,4,4,4,4,4,4,4,4,4,4,4,4,4,4,4,4,4,4,4,4,4,4,4,4,4,4,4,4,100,,,,,,,,,,,,,,,,,,,,,,,,,,,,,,,,,,,,,,,,,,,,,,,,,,,,,,,,,,,,,,,,,,,,,,,,,,,,,,,,,,,,,,,,,,,,,,,,,,,,,,,,,,,,,,,,,,,,,,,,,,,,,,,,,,,,,,,,,,,,,,,,,,,,,,,,,,,,,,,,,,,,,,,,,,,,,,,,,,,,,,,,,,,,,,,,,,,,,,,,,,,,,,
1764665235.144200,45039,0,4362.563965,4372.94873,4471.153809,4509.871582,4370.769043,4503.846191,4518.205078,4373.333496,4558.717773,4377.179688,4484.487305,4493.974121,4542.05127,4377.563965,4362.94873,4482.692383,4526.025879,4518.717773,4497.307617,4369.615234,4375.641113,4545.256348,4491.153809,4478.846191,4381.666504,4558.461426,4360.384766,4541.282227,4488.205078,4371.666504,4502.820313,4475.128418,2506,1,25,2560,46139,,,,0,4,4,4,4,4,4,4,4,4,4,4,4,4,4,4,4,4,4,4,4,4,4,4,4,4,4,4,4,4,4,4,4,100,,,,,,,,,,,,,,,,,,,,,,,,,,,,,,,,,,,,,,,,,,,,,,,,,,,,,,,,,,,,,,,,,,,,,,,,,,,,,,,,,,,,,,,,,,,,,,,,,,,,,,,,,,,,,,,,,,,,,,,,,,,,,,,,,,,,,,,,,,,,,,,,,,,,,,,,,,,,,,,,,,,,,,,,,,,,,,,,,,,,,,,,,,,,,,,,,,,,,,,,,,,,,,
1764665235.148107,45040,0,4370.512695,4378.077148,4477.820313,4518.205078,4376.025879,4507.692383,4522.179688,4379.102539,4568.077148,4378.846191,4490.256348,4500.641113,4551.025879,4382.692383,4371.666504,4490,4535.128418,4528.846191,4503.205078,4377.307617,4384.358887,4555.769043,4496.282227,4488.589844,4388.333496,4564.102539,4368.589844,4548.077148,4493.846191,4376.538574,4511.153809,4482.563965,2873,1,25,2561,46147,,,,0,4,4,4,4,4,4,4,4,4,4,4,4,4,4,4,4,4,4,4,4,4,4,4,4,4,4,4,4,4,4,4,4,100,,,,,,,,,,,,,,,,,,,,,,,,,,,,,,,,,,,,,,,,,,,,,,,,,,,,,,,,,,,,,,,,,,,,,,,,,,,,,,,,,,,,,,,,,,,,,,,,,,,,,,,,,,,,,,,,,,,,,,,,,,,,,,,,,,,,,,,,,,,,,,,,,,,,,,,,,,,,,,,,,,,,,,,,,,,,,,,,,,,,,,,,,,,,,,,,,,,,,,,,,,,,,,
1764665235.152014,45041,0,4377.692383,4383.205078,4482.94873,4523.974121,4380.256348,4509.102539,4524.743652,4383.077148,4575.256348,4383.205078,4493.717773,4507.307617,4558.589844,4386.410156,4379.487305,4496.025879,4541.410156,4537.307617,4509.743652,4383.333496,4392.436035,4566.025879,4502.05127,4495.128418,4394.102539,4566.282227,4375.384766,4553.974121,4498.461426,4378.846191,4516.282227,4487.692383,2908,1,25,2561,46147,,,,0,4,4,4,4,4,4,4,4,4,4,4,4,4,4,4,4,4,4,4,4,4,4,4,4,4,4,4,4,4,4,4,4,100,,,,,,,,,,,,,,,,,,,,,,,,,,,,,,,,,,,27644,0,0.263912,-0.599609,-0.733032,0.182983,0.973752,0.222195,0.041997,23.666666,28.166666,46.166668,,,,,,,,,,,,,,,,,,,,,,,,,,,,,,,,,,,,,,,,,,,,,,,,,,,,,,,,,,,,,,,,,,,,,,,,,,,,,,,,,,,,,,,,,,,,,,,,,,,,,,,,,,,,,,,,,,,,,,,,,,,,,,,,,,,,,,,,,,,,,,,,,,,,,,,,,,,,,,,,
1764665235.155922,45042,0,4381.025879,4386.282227,4484.230957,4524.102539,4382.307617,4508.077148,4525.897461,4383.717773,4576.922852,4389.102539,4495.128418,4510.512695,4562.307617,4387.05127,4383.974121,4499.102539,4543.077148,4542.307617,4515.384766,4385.897461,4396.922852,4572.563965,4507.179688,4496.666504,4395.128418,4565.512695,4378.205078,4557.179688,4499.487305,4378.717773,4515.897461,4488.461426,1768,1,25,1792,46155,,,,0,4,4,4,4,4,4,4,4,4,4,4,4,4,4,4,4,4,4,4,4,4,4,4,4,4,4,4,4,4,4,4,4,100,,,,,,,,,,,,,,,,,,,,,,,,,,,,,,,,,,,,,,,,,,,,,,,,,,,,,,,,,,,,,,,,,,,,,,,,,,,,,,,,,,,,,,,,,,,,,,,,,,,,,,,,,,,,,,,,,,,,,,,,,,,,,,,,,,,,,,,,,,,,,,,,,,,,,,,,,,,,,,,,,,,,,,,,,,,,,,,,,,,,,,,,,,,,,,,,,,,,,,,,,,,,,,
1764665235.159829,45043,0,4380.512695,4386.666504,4482.05127,4519.358887,4382.563965,4507.05127,4527.436035,4381.666504,4573.589844,4392.94873,4496.410156,4509.487305,4563.205078,4384.743652,4384.358887,4499.615234,4542.692383,4544.230957,4518.461426,4385.128418,4397.307617,4574.487305,4510.769043,4494.743652,4390.256348,4563.717773,4377.692383,4557.436035,4497.307617,4377.94873,4511.794922,4485.256348,2960,1,25,1792,46155,,,,0,4,4,4,4,4,4,4,4,4,4,4,4,4,4,4,4,4,4,4,4,4,4,4,4,4,4,4,4,4,4,4,4,100,,,,,,,,,,,,,,,,,,,,,,,,,,,,,,,,,,,,,,,,,,,,,,,,,,,,,,,,,,,,,,,,,,,,,,,,,,,,,,,,,,,,,,,,,,,,,,,,,,,,,,,,,,,,,,,,,,,,,,,,,,,,,,,,,,,,,,,,,,,,,,,,,,,,,,,,,,,,,,,,,,,,,,,,,,,,,,,,,,,,,,,,,,,,,,,,,,,,,,,,,,,,,,
1764665235.163736,45044,0,4378.333496,4385.512695,4478.589844,4512.692383,4382.436035,4507.692383,4530.641113,4378.846191,4568.333496,4391.153809,4498.333496,4507.05127,4563.589844,4380.897461,4382.179688,4498.846191,4543.717773,4544.358887,4518.461426,4383.077148,4395.384766,4573.589844,4512.179688,4492.179688,4381.153809,4562.692383,4376.025879,4555.897461,4494.615234,4378.846191,4508.333496,4480.512695,2524,1,25,768,46163,,,,0,4,4,4,4,4,4,4,4,4,4,4,4,4,4,4,4,4,4,4,4,4,4,4,4,4,4,4,4,4,4,4,4,100,,,,,,,,,,,,,,,,,,,,,,,,,,,,,,,,,,,,,,,,,,,,,,,,,,,,,,,,,,,,,,,,,,,,,,,,,,,,,,,,,,,,,,,,,,,,,,,,,,,,,,,,,,,,,,,,,,,,,,,,,,,,,,,,,,,,,,,,,,,,,,,,,,,,,,,,,,,,,,,,,,,,,,,,,,,,,,,,,,,,,,,,,,,,,,,,,,,,,,,,,,,,,,
1764665235.167643,45045,0,4377.179688,4384.230957,4476.153809,4508.077148,4382.820313,4510.128418,4534.743652,4377.563965,4565.128418,4383.461426,4499.615234,4506.794922,4564.871582,4377.820313,4379.102539,4498.846191,4547.436035,4543.333496,4515.897461,4381.282227,4392.692383,4571.410156,4511.025879,4490.897461,4371.666504,4562.692383,4375.256348,4554.871582,4494.487305,4381.794922,4508.974121,4476.922852,2826,1,25,768,46163,,,,0,4,4,4,4,4,4,4,4,4,4,4,4,4,4,4,4,4,4,4,4,4,4,4,4,4,4,4,4,4,4,4,4,100,,,,,,,,,,,,,,,,,,,,,,,,,,,,,,,,,,,27645,0,0.263646,-0.59967,-0.733093,0.182922,0.970822,0.212917,0.045416,25,28.833334,46,,,,,,,,,,,,,,,,,,,,,,,,,,,,,,,,,,,,,,,,,,,,,,,,,,,,,,,,,,,,,,,,,,,,,,,,,,,,,,,,,,,,,,,,,,,,,,,,,,,,,,,,,,,,,,,,,,,,,,,,,,,,,,,,,,,,,,,,,,,,,,,,,,,,,,,,,,,,,,,,
1764665235.171550,45046,0,4378.333496,4384.102539,4476.410156,4507.307617,4383.589844,4512.307617,4537.820313,4378.461426,4565.384766,4374.102539,4499.102539,4510.128418,4566.666504,4377.179688,4376.282227,4500,4551.410156,4541.153809,4511.794922,4379.358887,4390.256348,4569.230957,4508.333496,4490.256348,4366.410156,4562.94873,4375.897461,4555.512695,4497.179688,4385.128418,4512.94873,4476.282227,2932,1,25,512,46171,,,,0,4,4,4,4,4,4,4,4,4,4,4,4,4,4,4,4,4,4,4,4,4,4,4,4,4,4,4,4,4,4,4,4,100,,,,,,,,,,,,,,,,,,,,,,,,,,,,,,,,,,,,,,,,,,,,,,,,,,,,,,,,,,,,,,,,,,,,,,,,,,,,,,,,,,,,,,,,,,,,,,,,,,,,,,,,,,,,,,,,,,,,,,,,,,,,,,,,,,,,,,,,,,,,,,,,,,,,,,,,,,,,,,,,,,,,,,,,,,,,,,,,,,,,,,,,,,,,,,,,,,,,,,,,,,,,,,
1764665235.175458,45047,0,4380.897461,4385.256348,4478.077148,4509.230957,4383.846191,4513.077148,4538.461426,4380.256348,4568.461426,4369.743652,4497.307617,4514.615234,4567.820313,4378.846191,4374.102539,4500.769043,4552.307617,4537.692383,4507.692383,4375.641113,4387.820313,4566.922852,4505.512695,4488.333496,4367.563965,4562.179688,4377.179688,4557.436035,4500.512695,4386.282227,4516.153809,4477.563965,2845,1,25,512,46171,,,,0,4,4,4,4,4,4,4,4,4,4,4,4,4,4,4,4,4,4,4,4,4,4,4,4,4,4,4,4,4,4,4,4,100,,,,,,,,,,,,,,,,,,,,,,,,,,,,,,,,,,,,,,,,,,,,,,,,,,,,,,,,,,,,,,,,,,,,,,,,,,,,,,,,,,,,,,,,,,,,,,,,,,,,,,,,,,,,,,,,,,,,,,,,,,,,,,,,,,,,,,,,,,,,,,,,,,,,,,,,,,,,,,,,,,,,,,,,,,,,,,,,,,,,,,,,,,,,,,,,,,,,,,,,,,,,,,
1764665235.179365,45048,0,4382.563965,4386.794922,4478.846191,4511.282227,4382.436035,4512.307617,4536.794922,4380.512695,4571.666504,4373.461426,4495.641113,4516.153809,4567.94873,4380.769043,4371.922852,4498.974121,4548.461426,4533.846191,4504.358887,4369.871582,4384.102539,4564.102539,4503.717773,4484.743652,4373.461426,4558.974121,4377.436035,4558.461426,4501.410156,4383.846191,4515.256348,4478.077148,2764,1,25,768,46178,,,,0,4,4,4,4,4,4,4,4,4,4,4,4,4,4,4,4,4,4,4,4,4,4,4,4,4,4,4,4,4,4,4,4,100,,,,,,,,,,,,,,,,,,,,,,,,,,,,,,,,,,,,,,,,,,,,,,,,,,,,,,,,,,,,,,,,,,,,,,,,,,,,,,,,,,,,,,,,,,,,,,,,,,,,,,,,,,,,,,,,,,,,,,,,,,,,,,,,,,,,,,,,,,,,,,,,,,,,,,,,,,,,,,,,,,,,,,,,,,,,,,,,,,,,,,,,,,,,,,,,,,,,,,,,,,,,,,
1764665235.183272,45049,0,4382.05127,4387.307617,4476.538574,4511.666504,4379.102539,4511.410156,4534.358887,4378.461426,4572.179688,4382.563965,4496.025879,4512.820313,4566.922852,4380.897461,4369.487305,4493.717773,4541.666504,4530.256348,4501.794922,4363.461426,4378.205078,4560.512695,4502.563965,4480.512695,4379.487305,4553.717773,4375.641113,4556.922852,4499.102539,4378.205078,4509.871582,4476.153809,2820,1,25,768,46178,,,,0,4,4,4,4,4,4,4,4,4,4,4,4,4,4,4,4,4,4,4,4,4,4,4,4,4,4,4,4,4,4,4,4,100,,,,,,,,,,,,,,,,,,,,,,,,,,,,,,,,,,,27646,0,0.263815,-0.59967,-0.733032,0.182922,0.97131,0.214382,0.043462,23.666666,27.833334,44.166668,,,,,,,,,,,,,,,,,,,,,,,,,,,,,,,,,,,,,,,,,,,,,,,,,,,,,,,,,,,,,,,,,,,,,,,,,,,,,,,,,,,,,,,,,,,,,,,,,,,,,,,,,,,,,,,,,,,,,,,,,,,,,,,,,,,,,,,,,,,,,,,,,,,,,,,,,,,,,,,,
1764665235.187179,45050,0,4379.487305,4386.922852,4472.563965,4510.512695,4375.769043,4511.794922,4532.94873,4375.769043,4569.871582,4390.256348,4498.717773,4507.05127,4565,4378.846191,4367.05127,4487.436035,4536.153809,4528.205078,4499.871582,4359.102539,4371.538574,4557.179688,4501.538574,4478.333496,4382.692383,4548.717773,4372.563965,4553.077148,4495.897461,4372.436035,4503.589844,4472.563965,1958,1,25,1024,46186,,,,0,4,4,4,4,4,4,4,4,4,4,4,4,4,4,4,4,4,4,4,4,4,4,4,4,4,4,4,4,4,4,4,4,100,0.972656,100,4,4,4,4,4,4,4,4,4,4,4,4,4,4,4,4,4,4,4,4,4,4,4,4,4,4,4,4,4,4,4,4,,,,,,,,,,,,,3.724466,2.100245,0.619816,0.85615,0.480908,5.705841,1.835881,0.537751,0.827011,0.566577,3.118934,2.547094,0.432108,0.809336,1.053146,1.614513,2.861227,0.639407,0.844583,0.810181,4.249959,1.900813,0.538857,0.686135,0.562592,4.229589,2.156566,0.382247,0.846077,0.606395,3.143051,1.773897,0.915043,0.803335,0.651624,2.757041,2.291723,0.948457,0.796324,0.823746,1.702628,3.275397,0.716945,0.548748,0.799305,0.861259,3.225304,0.819584,1.749085,1.200255,1.746704,1.426151,0.4955,0.520505,0.495276,4.669989,2.613769,0.407927,0.669183,0.511889,2.160389,1.731777,0.856901,0.578679,0.534074,0.947711,0.96191,0.297164,0.454578,0.378528,0.279714,0.648293,0.266412,0.808257,0.674232,0.676657,1.315819,0.638682,0.507316,0.457479,3.844112,4.348847,0.550435,0.748663,0.521118,1.733895,2.542282,1.009407,0.65554,0.503467,0.632936,1.618144,0.977112,0.450333,0.327531,1.34049,1.303507,0.875245,0.620444,0.535839,2.063095,2.933587,1.22933,0.840814,0.444508,3.548939,4.936469,1.110562,0.881665,0.555549,3.873803,2.80915,0.49107,0.602805,0.486747,3.929918,3.053042,0.764515,0.922285,0.645434,2.968675,6.949765,1.094366,0.822308,1.252073,2.88119,2.346353,0.311854,0.686541,0.639148,5.089729,2.4831,0.43604,0.985288,0.778608,5.23914,3.344558,0.439702,0.986344,0.625115,3.122405,1.099255,0.247346,0.422508,0.275721,5.876129,1.65388,0.550223,0.92286,0.648611,5.959588,2.476956,0.481959,0.863876,0.695045,3.910226,2.14305,0.392722,0.954097,0.84468
1764665235.191086,45051,0,4378.077148,4387.563965,4470.769043,4510.641113,4375.769043,4514.358887,4534.230957,4376.666504,4567.05127,4392.94873,4502.436035,4503.846191,4563.846191,4376.794922,4366.153809,4484.743652,4535.769043,4529.230957,4499.487305,4359.102539,4366.922852,4556.153809,4501.538574,4480,4384.358887,4547.05127,4370.641113,4550,4495.641113,4371.282227,4501.153809,4470.256348,2638,1,25,1024,46186,,,,0,4,4,4,4,4,4,4,4,4,4,4,4,4,4,4,4,4,4,4,4,4,4,4,4,4,4,4,4,4,4,4,4,100,,,,,,,,,,,,,,,,,,,,,,,,,,,,,,,,,,,,,,,,,,,,,,,,,,,,,,,,,,,,,,,,,,,,,,,,,,,,,,,,,,,,,,,,,,,,,,,,,,,,,,,,,,,,,,,,,,,,,,,,,,,,,,,,,,,,,,,,,,,,,,,,,,,,,,,,,,,,,,,,,,,,,,,,,,,,,,,,,,,,,,,,,,,,,,,,,,,,,,,,,,,,,,
1764665235.194994,45052,0,4381.410156,4392.05127,4475.641113,4514.871582,4382.307617,4520.128418,4538.974121,4383.846191,4567.692383,4392.563965,4505.769043,4507.692383,4565.256348,4377.94873,4368.717773,4488.077148,4541.922852,4533.974121,4501.538574,4363.717773,4367.563965,4559.358887,4503.974121,4486.025879,4388.846191,4551.153809,4373.461426,4551.025879,4500.897461,4377.94873,4505.769043,4472.563965,2694,1,25,1280,46194,,,,0,4,4,4,4,4,4,4,4,4,4,4,4,4,4,4,4,4,4,4,4,4,4,4,4,4,4,4,4,4,4,4,4,100,,,,,,,,,,,,,,,,,,,,,,,,,,,,,,,,,,,,,,,,,,,,,,,,,,,,,,,,,,,,,,,,,,,,,,,,,,,,,,,,,,,,,,,,,,,,,,,,,,,,,,,,,,,,,,,,,,,,,,,,,,,,,,,,,,,,,,,,,,,,,,,,,,,,,,,,,,,,,,,,,,,,,,,,,,,,,,,,,,,,,,,,,,,,,,,,,,,,,,,,,,,,,,
1764665235.198901,45053,0,4390.384766,4401.153809,4487.692383,4523.974121,4394.743652,4528.589844,4547.05127,4396.410156,4573.846191,4395.384766,4508.461426,4517.94873,4569.743652,4384.230957,4374.871582,4496.153809,4552.436035,4540.256348,4505.256348,4371.282227,4373.974121,4565.769043,4509.615234,4494.230957,4398.077148,4559.871582,4381.410156,4557.563965,4510.384766,4391.282227,4516.282227,4480.769043,2515,1,25,1280,46194,,,,0,4,4,4,4,4,4,4,4,4,4,4,4,4,4,4,4,4,4,4,4,4,4,4,4,4,4,4,4,4,4,4,4,100,,,,,,,,,,,,,,,,,,,,,,,,,,,,,,,,,,,27647,0,0.263996,-0.599609,-0.733032,0.182861,0.977658,0.221707,0.059578,24.666666,28.333334,44.333332,,,,,,,,,,,,,,,,,,,,,,,,,,,,,,,,,,,,,,,,,,,,,,,,,,,,,,,,,,,,,,,,,,,,,,,,,,,,,,,,,,,,,,,,,,,,,,,,,,,,,,,,,,,,,,,,,,,,,,,,,,,,,,,,,,,,,,,,,,,,,,,,,,,,,,,,,,,,,,,,
1764665235.202808,45054,0,4401.538574,4412.05127,4502.179688,4535.256348,4408.846191,4537.563965,4556.025879,4409.230957,4583.717773,4404.358887,4511.538574,4529.743652,4575.256348,4393.846191,4382.179688,4504.743652,4561.666504,4544.230957,4508.461426,4378.077148,4382.692383,4571.794922,4516.538574,4501.153809,4409.358887,4569.487305,4391.410156,4567.05127,4519.615234,4405.256348,4527.692383,4492.307617,2661,1,25,1536,46202,,,,0,4,4,4,4,4,4,4,4,4,4,4,4,4,4,4,4,4,4,4,4,4,4,4,4,4,4,4,4,4,4,4,4,100,,,,,,,,,,,,,,,,,,,,,,,,,,,,,,,,,,,,,,,,,,,,,,,,,,,,,,,,,,,,,,,,,,,,,,,,,,,,,,,,,,,,,,,,,,,,,,,,,,,,,,,,,,,,,,,,,,,,,,,,,,,,,,,,,,,,,,,,,,,,,,,,,,,,,,,,,,,,,,,,,,,,,,,,,,,,,,,,,,,,,,,,,,,,,,,,,,,,,,,,,,,,,,
1764665235.206715,45055,0,4408.589844,4419.358887,4511.922852,4543.974121,4418.205078,4543.461426,4562.179688,4416.153809,4592.436035,4415.897461,4514.615234,4536.538574,4578.333496,4401.922852,4386.025879,4509.358887,4564.871582,4543.717773,4508.589844,4381.410156,4388.589844,4573.846191,4521.153809,4503.846191,4416.666504,4575.512695,4398.205078,4574.358887,4523.846191,4412.436035,4533.717773,4500.897461,2830,1,25,1536,46202,,,,0,4,4,4,4,4,4,4,4,4,4,4,4,4,4,4,4,4,4,4,4,4,4,4,4,4,4,4,4,4,4,4,4,100,,,,,,,,,,,,,,,,,,,,,,,,,,,,,,,,,,,,,,,,,,,,,,,,,,,,,,,,,,,,,,,,,,,,,,,,,,,,,,,,,,,,,,,,,,,,,,,,,,,,,,,,,,,,,,,,,,,,,,,,,,,,,,,,,,,,,,,,,,,,,,,,,,,,,,,,,,,,,,,,,,,,,,,,,,,,,,,,,,,,,,,,,,,,,,,,,,,,,,,,,,,,,,
1764665235.210622,45056,0,4407.307617,4418.717773,4511.794922,4546.025879,4418.846191,4543.974121,4562.436035,4413.846191,4594.871582,4421.410156,4515.769043,4534.871582,4576.666504,4403.205078,4383.846191,4508.205078,4560.641113,4539.230957,4505.256348,4380.641113,4388.461426,4570.641113,4520.256348,4501.282227,4415.769043,4576.025879,4397.563965,4574.871582,4521.538574,4408.717773,4530.641113,4501.153809,2754,1,25,1792,46210,,,,0,4,4,4,4,4,4,4,4,4,4,4,4,4,4,4,4,4,4,4,4,4,4,4,4,4,4,4,4,4,4,4,4,100,,,,,,,,,,,,,,,,,,,,,,,,,,,,,,,,,,,,,,,,,,,,,,,,,,,,,,,,,,,,,,,,,,,,,,,,,,,,,,,,,,,,,,,,,,,,,,,,,,,,,,,,,,,,,,,,,,,,,,,,,,,,,,,,,,,,,,,,,,,,,,,,,,,,,,,,,,,,,,,,,,,,,,,,,,,,,,,,,,,,,,,,,,,,,,,,,,,,,,,,,,,,,,
1764665235.214530,45057,0,4398.717773,4410.641113,4502.436035,4540.384766,4411.794922,4539.230957,4556.538574,4404.102539,4588.974121,4415.384766,4513.205078,4526.922852,4570.256348,4396.282227,4376.666504,4502.179688,4551.666504,4534.230957,4500.897461,4377.436035,4383.333496,4564.615234,4513.333496,4495.128418,4407.436035,4572.436035,4390,4567.820313,4514.743652,4396.538574,4519.871582,4493.077148,2921,1,25,1792,46210,,,,0,4,4,4,4,4,4,4,4,4,4,4,4,4,4,4,4,4,4,4,4,4,4,4,4,4,4,4,4,4,4,4,4,100,,,,,,,,,,,,,,,,,,,,,,,,,,,,,,,,,,,27648,0,0.263773,-0.59967,-0.733093,0.182739,0.966427,0.208522,0.045904,22.333334,27,43.666668,,,,,,,,,,,,,,,,,,,,,,,,,,,,,,,,,,,,,,,,,,,,,,,,,,,,,,,,,,,,,,,,,,,,,,,,,,,,,,,,,,,,,,,,,,,,,,,,,,,,,,,,,,,,,,,,,,,,,,,,,,,,,,,,,,,,,,,,,,,,,,,,,,,,,,,,,,,,,,,,
1764665235.218437,45058,0,4388.205078,4400.256348,4490.384766,4530.384766,4402.179688,4532.94873,4547.179688,4392.692383,4577.94873,4400.512695,4507.436035,4518.717773,4561.666504,4384.871582,4368.461426,4494.615234,4542.820313,4531.282227,4498.846191,4374.358887,4377.820313,4559.102539,4503.205078,4488.974121,4397.307617,4567.94873,4380,4557.307617,4507.94873,4383.205078,4507.563965,4482.05127,2595,1,25,2048,46217,,,,0,4,4,4,4,4,4,4,4,4,4,4,4,4,4,4,4,4,4,4,4,4,4,4,4,4,4,4,4,4,4,4,4,100,,,,,,,,,,,,,,,,,,,,,,,,,,,,,,,,,,,,,,,,,,,,,,,,,,,,,,,,,,,,,,,,,,,,,,,,,,,,,,,,,,,,,,,,,,,,,,,,,,,,,,,,,,,,,,,,,,,,,,,,,,,,,,,,,,,,,,,,,,,,,,,,,,,,,,,,,,,,,,,,,,,,,,,,,,,,,,,,,,,,,,,,,,,,,,,,,,,,,,,,,,,,,,
1764665235.222344,45059,0,4382.307617,4393.589844,4482.94873,4522.179688,4396.153809,4528.974121,4539.487305,4386.025879,4568.589844,4387.436035,4502.179688,4514.743652,4555,4375.641113,4363.461426,4489.230957,4537.820313,4531.666504,4501.025879,4373.205078,4376.794922,4557.563965,4495.384766,4486.025879,4391.794922,4565.769043,4373.589844,4549.743652,4504.615234,4376.153809,4501.153809,4475.512695,2854,1,25,2048,46217,,,,0,4,4,4,4,4,4,4,4,4,4,4,4,4,4,4,4,4,4,4,4,4,4,4,4,4,4,4,4,4,4,4,4,100,,,,,,,,,,,,,,,,,,,,,,,,,,,,,,,,,,,,,,,,,,,,,,,,,,,,,,,,,,,,,,,,,,,,,,,,,,,,,,,,,,,,,,,,,,,,,,,,,,,,,,,,,,,,,,,,,,,,,,,,,,,,,,,,,,,,,,,,,,,,,,,,,,,,,,,,,,,,,,,,,,,,,,,,,,,,,,,,,,,,,,,,,,,,,,,,,,,,,,,,,,,,,,
1764665235.226251,45060,0,4383.846191,4393.846191,4483.717773,4520.256348,4396.666504,4528.846191,4537.05127,4387.179688,4566.025879,4385.512695,4500.769043,4515.512695,4553.205078,4373.333496,4363.974121,4487.820313,4537.94873,4534.615234,4506.410156,4374.615234,4381.410156,4560.641113,4493.717773,4487.179688,4393.589844,4567.436035,4373.717773,4548.717773,4505.769043,4378.333496,4503.974121,4476.922852,2747,1,25,2304,46225,,,,0,4,4,4,4,4,4,4,4,4,4,4,4,4,4,4,4,4,4,4,4,4,4,4,4,4,4,4,4,4,4,4,4,100,,,,,,,,,,,,,,,,,,,,,,,,,,,,,,,,,,,,,,,,,,,,,,,,,,,,,,,,,,,,,,,,,,,,,,,,,,,,,,,,,,,,,,,,,,,,,,,,,,,,,,,,,,,,,,,,,,,,,,,,,,,,,,,,,,,,,,,,,,,,,,,,,,,,,,,,,,,,,,,,,,,,,,,,,,,,,,,,,,,,,,,,,,,,,,,,,,,,,,,,,,,,,,
1764665235.230158,45061,0,4390,4398.589844,4489.615234,4523.846191,4401.025879,4531.153809,4539.487305,4393.589844,4570.641113,4395.384766,4504.102539,4517.692383,4556.282227,4377.820313,4369.358887,4489.230957,4541.538574,4538.333496,4512.436035,4377.820313,4389.615234,4566.153809,4498.589844,4490.897461,4400.128418,4572.307617,4379.102539,4553.333496,4508.974121,4386.538574,4513.077148,4484.102539,2787,1,25,2304,46225,,,,0,4,4,4,4,4,4,4,4,4,4,4,4,4,4,4,4,4,4,4,4,4,4,4,4,4,4,4,4,4,4,4,4,100,,,,,,,,,,,,,,,,,,,,,,,,,,,,,,,,,,,27649,0,0.263506,-0.599731,-0.733154,0.182678,0.966427,0.208522,0.045904,23.666666,28.666666,44.166668,,,,,,,,,,,,,,,,,,,,,,,,,,,,,,,,,,,,,,,,,,,,,,,,,,,,,,,,,,,,,,,,,,,,,,,,,,,,,,,,,,,,,,,,,,,,,,,,,,,,,,,,,,,,,,,,,,,,,,,,,,,,,,,,,,,,,,,,,,,,,,,,,,,,,,,,,,,,,,,,
1764665235.234066,45062,0,4395,4402.563965,4493.589844,4528.077148,4403.717773,4532.307617,4543.077148,4398.461426,4577.563965,4407.94873,4509.358887,4517.94873,4561.666504,4383.461426,4375.769043,4491.025879,4545.384766,4541.025879,4516.282227,4381.410156,4396.538574,4571.153809,4505.897461,4494.487305,4405.769043,4577.179688,4385,4559.102539,4510.897461,4393.717773,4521.282227,4490,2792,1,25,2560,46233,,,,0,4,4,4,4,4,4,4,4,4,4,4,4,4,4,4,4,4,4,4,4,4,4,4,4,4,4,4,4,4,4,4,4,100,,,,,,,,,,,,,,,,,,,,,,,,,,,,,,,,,,,,,,,,,,,,,,,,,,,,,,,,,,,,,,,,,,,,,,,,,,,,,,,,,,,,,,,,,,,,,,,,,,,,,,,,,,,,,,,,,,,,,,,,,,,,,,,,,,,,,,,,,,,,,,,,,,,,,,,,,,,,,,,,,,,,,,,,,,,,,,,,,,,,,,,,,,,,,,,,,,,,,,,,,,,,,,
1764665235.237973,45063,0,4395,4401.538574,4490.769043,4528.077148,4400,4530.384766,4543.974121,4396.410156,4581.410156,4411.922852,4512.307617,4516.410156,4565.897461,4385.256348,4379.743652,4492.05127,4546.538574,4541.794922,4517.179688,4383.717773,4398.589844,4573.589844,4511.153809,4496.794922,4406.025879,4578.846191,4386.794922,4561.922852,4510,4394.487305,4522.692383,4489.358887,2983,1,25,2560,46233,,,,0,4,4,4,4,4,4,4,4,4,4,4,4,4,4,4,4,4,4,4,4,4,4,4,4,4,4,4,4,4,4,4,4,100,,,,,,,,,,,,,,,,,,,,,,,,,,,,,,,,,,,,,,,,,,,,,,,,,,,,,,,,,,,,,,,,,,,,,,,,,,,,,,,,,,,,,,,,,,,,,,,,,,,,,,,,,,,,,,,,,,,,,,,,,,,,,,,,,,,,,,,,,,,,,,,,,,,,,,,,,,,,,,,,,,,,,,,,,,,,,,,,,,,,,,,,,,,,,,,,,,,,,,,,,,,,,,
