title:Neutral1, start timestamp:1764665195.227241, stop timestamp:1764665203.942667, headset type:FLEX2, headset serial:F30002B4, headset firmware:2f10, channels:283, sampling rate:eeg_256;mot_64;pow_8, samples:2231      , version:2.2, ,,,,,,,,,,,,,,,,,,,,,,,,,,,,,,,,,,,,,,,,,,,,,,,,,,,,,,,,,,,,,,,,,,,,,,,,,,,,,,,,,,,,,,,,,,,,,,,,,,,,,,,,,,,,,,,,,,,,,,,,,,,,,,,,,,,,,,,,,,,,,,,,,,,,,,,,,,,,,,,,,,,,,,,,,,,,,,,,,,,,,,,,,,,,,,,,,,,,,,,,,,,,,,,,,,,,,,,,,,,,,,,,,,,,,,,,,,,,,,,,,,,,,,,,,,,,,,,,,,,,,,,,,,,,,,,,,
Timestamp,OriginalTimestamp,EEG.Counter,EEG.Interpolated,EEG.Cz,EEG.Fz,EEG.Fp1,EEG.F7,EEG.F3,EEG.FC1,EEG.C3,EEG.FC5,EEG.FT9,EEG.T7,EEG.CP5,EEG.CP1,EEG.P3,EEG.P7,EEG.PO9,EEG.O1,EEG.Pz,EEG.Oz,EEG.O2,EEG.PO10,EEG.P8,EEG.P4,EEG.CP2,EEG.CP6,EEG.T8,EEG.FT10,EEG.FC6,EEG.C4,EEG.FC2,EEG.F4,EEG.F8,EEG.Fp2,EEG.RawCq,EEG.Battery,EEG.BatteryPercent,EEG.FwBufferSize,EEG.FwClockTime,MarkerIndex,MarkerType,MarkerValueInt,EEG.MarkerHardware,CQ.Cz,CQ.Fz,CQ.Fp1,CQ.F7,CQ.F3,CQ.FC1,CQ.C3,CQ.FC5,CQ.FT9,CQ.T7,CQ.CP5,CQ.CP1,CQ.P3,CQ.P7,CQ.PO9,CQ.O1,CQ.Pz,CQ.Oz,CQ.O2,CQ.PO10,CQ.P8,CQ.P4,CQ.CP2,CQ.CP6,CQ.T8,CQ.FT10,CQ.FC6,CQ.C4,CQ.FC2,CQ.F4,CQ.F8,CQ.Fp2,CQ.Overall,EQ.SampleRateQuality,EQ.OVERALL,EQ.Cz,EQ.Fz,EQ.Fp1,EQ.F7,EQ.F3,EQ.FC1,EQ.C3,EQ.FC5,EQ.FT9,EQ.T7,EQ.CP5,EQ.CP1,EQ.P3,EQ.P7,EQ.PO9,EQ.O1,EQ.Pz,EQ.Oz,EQ.O2,EQ.PO10,EQ.P8,EQ.P4,EQ.CP2,EQ.CP6,EQ.T8,EQ.FT10,EQ.FC6,EQ.C4,EQ.FC2,EQ.F4,EQ.F8,EQ.Fp2,MOT.CounterMems,MOT.InterpolatedMems,MOT.Q0,MOT.Q1,MOT.Q2,MOT.Q3,MOT.AccX,MOT.AccY,MOT.AccZ,MOT.MagX,MOT.MagY,MOT.MagZ,POW.Cz.Theta,POW.Cz.Alpha,POW.Cz.BetaL,POW.Cz.BetaH,POW.Cz.Gamma,POW.Fz.Theta,POW.Fz.Alpha,POW.Fz.BetaL,POW.Fz.BetaH,POW.Fz.Gamma,POW.Fp1.Theta,POW.Fp1.Alpha,POW.Fp1.BetaL,POW.Fp1.BetaH,POW.Fp1.Gamma,POW.F7.Theta,POW.F7.Alpha,POW.F7.BetaL,POW.F7.BetaH,POW.F7.Gamma,POW.F3.Theta,POW.F3.Alpha,POW.F3.BetaL,POW.F3.BetaH,POW.F3.Gamma,POW.FC1.Theta,POW.FC1.Alpha,POW.FC1.BetaL,POW.FC1.BetaH,POW.FC1.Gamma,POW.C3.Theta,POW.C3.Alpha,POW.C3.BetaL,POW.C3.BetaH,POW.C3.Gamma,POW.FC5.Theta,POW.FC5.Alpha,POW.FC5.BetaL,POW.FC5.BetaH,POW.FC5.Gamma,POW.FT9.Theta,POW.FT9.Alpha,POW.FT9.BetaL,POW.FT9.BetaH,POW.FT9.Gamma,POW.T7.Theta,POW.T7.Alpha,POW.T7.BetaL,POW.T7.BetaH,POW.T7.Gamma,POW.CP5.Theta,POW.CP5.Alpha,POW.CP5.BetaL,POW.CP5.BetaH,POW.CP5.Gamma,POW.CP1.Theta,POW.CP1.Alpha,POW.CP1.BetaL,POW.CP1.BetaH,POW.CP1.Gamma,POW.P3.Theta,POW.P3.Alpha,POW.P3.BetaL,POW.P3.BetaH,POW.P3.Gamma,POW.P7.Theta,POW.P7.Alpha,POW.P7.BetaL,POW.P7.BetaH,POW.P7.Gamma,POW.PO9.Theta,POW.PO9.Alpha,POW.PO9.BetaL,POW.PO9.BetaH,POW.PO9.Gamma,POW.O1.Theta,POW.O1.Alpha,POW.O1.BetaL,POW.O1.BetaH,POW.O1.Gamma,POW.Pz.Theta,POW.Pz.Alpha,POW.Pz.BetaL,POW.Pz.BetaH,POW.Pz.Gamma,POW.Oz.Theta,POW.Oz.Alpha,POW.Oz.BetaL,POW.Oz.BetaH,POW.Oz.Gamma,POW.O2.Theta,POW.O2.Alpha,POW.O2.BetaL,POW.O2.BetaH,POW.O2.Gamma,POW.PO10.Theta,POW.PO10.Alpha,POW.PO10.BetaL,POW.PO10.BetaH,POW.PO10.Gamma,POW.P8.Theta,POW.P8.Alpha,POW.P8.BetaL,POW.P8.BetaH,POW.P8.Gamma,POW.P4.Theta,POW.P4.Alpha,POW.P4.BetaL,POW.P4.BetaH,POW.P4.Gamma,POW.CP2.Theta,POW.CP2.Alpha,POW.CP2.BetaL,POW.CP2.BetaH,POW.CP2.Gamma,POW.CP6.Theta,POW.CP6.Alpha,POW.CP6.BetaL,POW.CP6.BetaH,POW.CP6.Gamma,POW.T8.Theta,POW.T8.Alpha,POW.T8.BetaL,POW.T8.BetaH,POW.T8.Gamma,POW.FT10.Theta,POW.FT10.Alpha,POW.FT10.BetaL,POW.FT10.BetaH,POW.FT10.Gamma,POW.FC6.Theta,POW.FC6.Alpha,POW.FC6.BetaL,POW.FC6.BetaH,POW.FC6.Gamma,POW.C4.Theta,POW.C4.Alpha,POW.C4.BetaL,POW.C4.BetaH,POW.C4.Gamma,POW.FC2.Theta,POW.FC2.Alpha,POW.FC2.BetaL,POW.FC2.BetaH,POW.FC2.Gamma,POW.F4.Theta,POW.F4.Alpha,POW.F4.BetaL,POW.F4.BetaH,POW.F4.Gamma,POW.F8.Theta,POW.F8.Alpha,POW.F8.BetaL,POW.F8.BetaH,POW.F8.Gamma,POW.Fp2.Theta,POW.Fp2.Alpha,POW.Fp2.BetaL,POW.Fp2.BetaH,POW.Fp2.Gamma
1764665197.556566,1764665197.554193,35417,0,4377.563965,4397.563965,4492.820313,4520.897461,4390.897461,4511.794922,4542.05127,4378.077148,4570,4382.820313,4491.538574,4511.794922,4573.717773,4406.794922,4382.179688,4511.282227,4544.743652,4543.333496,4509.487305,4383.589844,4396.666504,4570.769043,4525.512695,4509.230957,4396.666504,4572.820313,4389.358887,4558.589844,4502.692383,4403.846191,4510.384766,4492.94873,2818,1,26,2564,8558,1,1,3,0,4,4,4,4,4,4,4,4,4,4,4,4,4,4,4,4,4,4,4,4,4,4,4,4,4,4,4,4,4,4,4,4,100,,,,,,,,,,,,,,,,,,,,,,,,,,,,,,,,,,,25238,0,0.253696,-0.610962,-0.722473,0.200989,0.984495,0.168478,0.030277,23.166666,29.833334,44.5,,,,,,,,,,,,,,,,,,,,,,,,,,,,,,,,,,,,,,,,,,,,,,,,,,,,,,,,,,,,,,,,,,,,,,,,,,,,,,,,,,,,,,,,,,,,,,,,,,,,,,,,,,,,,,,,,,,,,,,,,,,,,,,,,,,,,,,,,,,,,,,,,,,,,,,,,,,,,,,,
1764665197.560474,1764665197.558100,35418,0,4370.512695,4389.871582,4488.461426,4516.794922,4388.077148,4504.487305,4537.179688,4374.230957,4570.384766,4385.256348,4488.974121,4504.615234,4566.794922,4400.641113,4377.94873,4503.333496,4537.307617,4535.769043,4503.333496,4373.974121,4388.974121,4562.94873,4518.333496,4501.153809,4389.102539,4571.153809,4383.846191,4552.307617,4497.179688,4397.820313,4510.384766,4490.769043,1959,1,26,2565,8566,,,,0,4,4,4,4,4,4,4,4,4,4,4,4,4,4,4,4,4,4,4,4,4,4,4,4,4,4,4,4,4,4,4,4,100,,,,,,,,,,,,,,,,,,,,,,,,,,,,,,,,,,,,,,,,,,,,,,,1.002258,1.05516,0.726697,1.25366,0.841377,2.086336,0.545084,0.921198,1.208894,0.816936,2.904496,0.711992,1.362057,1.259598,0.881047,1.058797,0.44255,0.81369,1.555899,0.793725,1.419823,0.626653,1.596756,1.098426,0.782598,1.279999,0.704771,0.700533,0.95239,0.651313,1.018315,0.523716,0.81035,1.15354,0.781015,1.191423,0.452278,0.751605,0.95688,0.914822,0.727622,0.665197,0.556677,1.462094,1.028919,1.632181,1.117531,1.168875,2.032772,1.644557,0.563273,0.57486,0.321568,0.734802,0.656864,0.955535,1.090109,0.77264,1.183576,0.783072,0.666253,0.455534,0.31683,0.910364,0.725594,0.57206,0.661763,0.387064,0.795225,0.540127,0.459797,0.611784,0.233978,1.120738,0.774563,1.004081,0.504117,0.409427,0.871806,0.537041,1.036705,1.137707,0.791284,1.321021,0.777772,0.969136,0.895638,0.443893,1.453416,0.624254,0.487968,0.507026,0.275268,0.902248,0.402422,0.851247,0.595496,0.41707,1.02867,0.773325,1.24183,0.830871,0.676453,1.269878,0.667737,1.2094,1.083471,0.443126,1.134885,0.788789,1.16196,1.111205,0.706282,1.368363,0.641263,1.623453,1.042973,0.583174,1.18608,0.719169,1.091533,1.555001,1.178142,1.540161,2.324394,2.25713,0.918978,0.983597,0.997513,0.705346,0.891835,0.647231,0.785959,1.577231,0.888622,1.344233,1.103112,0.847634,1.499947,0.8922,0.668967,0.474613,0.349506,0.706856,0.309773,1.568247,0.462224,0.579297,1.20927,0.899825,1.132451,0.625208,1.018196,1.298502,0.780389,1.936134,0.755924,0.775978,1.052001,1.076966
1764665197.564382,1764665197.562008,35419,0,4367.692383,4385,4487.94873,4516.794922,4387.179688,4502.692383,4534.358887,4373.077148,4572.179688,4384.743652,4489.358887,4501.666504,4563.077148,4397.307617,4377.692383,4500.128418,4535,4532.05127,4502.05127,4369.743652,4385.256348,4559.743652,4514.615234,4497.436035,4385.897461,4570.128418,4380.641113,4549.230957,4494.743652,4393.205078,4514.871582,4491.153809,2639,1,26,2565,8566,,,,0,4,4,4,4,4,4,4,4,4,4,4,4,4,4,4,4,4,4,4,4,4,4,4,4,4,4,4,4,4,4,4,4,100,,,,,,,,,,,,,,,,,,,,,,,,,,,,,,,,,,,,,,,,,,,,,,,,,,,,,,,,,,,,,,,,,,,,,,,,,,,,,,,,,,,,,,,,,,,,,,,,,,,,,,,,,,,,,,,,,,,,,,,,,,,,,,,,,,,,,,,,,,,,,,,,,,,,,,,,,,,,,,,,,,,,,,,,,,,,,,,,,,,,,,,,,,,,,,,,,,,,,,,,,,,,,,
1764665197.568291,1764665197.565915,35420,0,4371.282227,4385.384766,4490.897461,4520,4388.717773,4506.410156,4535.641113,4375.256348,4573.974121,4381.794922,4492.436035,4504.358887,4563.846191,4397.307617,4381.794922,4502.436035,4538.205078,4533.461426,4505,4372.94873,4387.436035,4561.666504,4515.897461,4499.102539,4389.230957,4570,4381.025879,4551.410156,4496.922852,4391.538574,4519.871582,4492.692383,2691,1,26,2566,8574,,,,0,4,4,4,4,4,4,4,4,4,4,4,4,4,4,4,4,4,4,4,4,4,4,4,4,4,4,4,4,4,4,4,4,100,,,,,,,,,,,,,,,,,,,,,,,,,,,,,,,,,,,,,,,,,,,,,,,,,,,,,,,,,,,,,,,,,,,,,,,,,,,,,,,,,,,,,,,,,,,,,,,,,,,,,,,,,,,,,,,,,,,,,,,,,,,,,,,,,,,,,,,,,,,,,,,,,,,,,,,,,,,,,,,,,,,,,,,,,,,,,,,,,,,,,,,,,,,,,,,,,,,,,,,,,,,,,,
1764665197.572199,1764665197.569823,35421,0,4378.333496,4389.230957,4493.205078,4522.563965,4390.641113,4511.282227,4538.717773,4378.589844,4573.589844,4377.94873,4495.512695,4509.487305,4566.538574,4398.717773,4386.922852,4507.179688,4542.820313,4537.436035,4508.333496,4379.230957,4391.922852,4565.512695,4519.743652,4502.563965,4397.692383,4569.487305,4382.820313,4556.410156,4500.897461,4391.538574,4521.410156,4492.307617,2509,1,26,2566,8574,,,,0,4,4,4,4,4,4,4,4,4,4,4,4,4,4,4,4,4,4,4,4,4,4,4,4,4,4,4,4,4,4,4,4,100,,,,,,,,,,,,,,,,,,,,,,,,,,,,,,,,,,,25239,0,0.25359,-0.610962,-0.722595,0.200684,0.980588,0.173361,0.020999,23.166666,29.333334,44.166668,,,,,,,,,,,,,,,,,,,,,,,,,,,,,,,,,,,,,,,,,,,,,,,,,,,,,,,,,,,,,,,,,,,,,,,,,,,,,,,,,,,,,,,,,,,,,,,,,,,,,,,,,,,,,,,,,,,,,,,,,,,,,,,,,,,,,,,,,,,,,,,,,,,,,,,,,,,,,,,,
1764665197.576107,1764665197.573730,35422,0,4382.820313,4391.922852,4490.769043,4521.538574,4391.025879,4512.94873,4539.102539,4380,4569.871582,4374.230957,4496.153809,4512.692383,4567.563965,4398.717773,4388.205078,4510,4544.487305,4539.743652,4508.333496,4381.922852,4393.974121,4566.666504,4521.666504,4502.692383,4405.769043,4566.282227,4382.179688,4558.974121,4502.692383,4390.512695,4517.307617,4487.820313,2652,1,26,2567,8582,,,,0,4,4,4,4,4,4,4,4,4,4,4,4,4,4,4,4,4,4,4,4,4,4,4,4,4,4,4,4,4,4,4,4,100,,,,,,,,,,,,,,,,,,,,,,,,,,,,,,,,,,,,,,,,,,,,,,,,,,,,,,,,,,,,,,,,,,,,,,,,,,,,,,,,,,,,,,,,,,,,,,,,,,,,,,,,,,,,,,,,,,,,,,,,,,,,,,,,,,,,,,,,,,,,,,,,,,,,,,,,,,,,,,,,,,,,,,,,,,,,,,,,,,,,,,,,,,,,,,,,,,,,,,,,,,,,,,
1764665197.580016,1764665197.577638,35423,0,4380.128418,4390.128418,4483.333496,4516.282227,4388.461426,4510.128418,4535.256348,4377.179688,4563.717773,4371.410156,4493.461426,4511.410156,4565.256348,4396.025879,4383.589844,4508.974121,4541.410156,4538.589844,4504.358887,4378.077148,4390.769043,4562.820313,4518.846191,4497.563965,4407.307617,4560.512695,4377.05127,4555.512695,4500,4387.05127,4509.615234,4480,2825,1,26,2567,8582,,,,0,4,4,4,4,4,4,4,4,4,4,4,4,4,4,4,4,4,4,4,4,4,4,4,4,4,4,4,4,4,4,4,4,100,,,,,,,,,,,,,,,,,,,,,,,,,,,,,,,,,,,,,,,,,,,,,,,,,,,,,,,,,,,,,,,,,,,,,,,,,,,,,,,,,,,,,,,,,,,,,,,,,,,,,,,,,,,,,,,,,,,,,,,,,,,,,,,,,,,,,,,,,,,,,,,,,,,,,,,,,,,,,,,,,,,,,,,,,,,,,,,,,,,,,,,,,,,,,,,,,,,,,,,,,,,,,,
1764665197.583924,1764665197.581545,35424,1,4373.077148,4386.624023,4480.256348,4512.222168,4384.743652,4507.905762,4533.418945,4373.846191,4562.136719,4369.273438,4491.624023,4508.248047,4564.187988,4393.931641,4380.341797,4506.495605,4538.119629,4536.495605,4502.265137,4375.641113,4387.478516,4559.529785,4514.786133,4493.675293,4395.427246,4557.692383,4372.606934,4548.461426,4496.111328,4384.487305,4506.410156,4479.060059,0,1,26,0,0,,,,0,4,4,4,4,4,4,4,4,4,4,4,4,4,4,4,4,4,4,4,4,4,4,4,4,4,4,4,4,4,4,4,4,100,,,,,,,,,,,,,,,,,,,,,,,,,,,,,,,,,,,,,,,,,,,,,,,,,,,,,,,,,,,,,,,,,,,,,,,,,,,,,,,,,,,,,,,,,,,,,,,,,,,,,,,,,,,,,,,,,,,,,,,,,,,,,,,,,,,,,,,,,,,,,,,,,,,,,,,,,,,,,,,,,,,,,,,,,,,,,,,,,,,,,,,,,,,,,,,,,,,,,,,,,,,,,,
1764665197.587832,1764665197.585452,35425,1,4366.025879,4383.119629,4477.179688,4508.162598,4381.025879,4505.683594,4531.581055,4370.512695,4560.555664,4367.136719,4489.786133,4505.085449,4563.119629,4391.837402,4377.094238,4504.01709,4534.829102,4534.401855,4500.170898,4373.205078,4384.187988,4556.239258,4510.726563,4489.786133,4383.546875,4554.871582,4368.162598,4541.410156,4492.222168,4381.922852,4503.205078,4478.119629,0,1,26,0,0,,,,0,4,4,4,4,4,4,4,4,4,4,4,4,4,4,4,4,4,4,4,4,4,4,4,4,4,4,4,4,4,4,4,4,100,,,,,,,,,,,,,,,,,,,,,,,,,,,,,,,,,,,,,,,,,,,,,,,,,,,,,,,,,,,,,,,,,,,,,,,,,,,,,,,,,,,,,,,,,,,,,,,,,,,,,,,,,,,,,,,,,,,,,,,,,,,,,,,,,,,,,,,,,,,,,,,,,,,,,,,,,,,,,,,,,,,,,,,,,,,,,,,,,,,,,,,,,,,,,,,,,,,,,,,,,,,,,,
1764665197.591740,1764665197.589360,35426,0,4358.974121,4379.615234,4474.102539,4504.102539,4377.307617,4503.461426,4529.743652,4367.179688,4558.974121,4365,4487.94873,4501.922852,4562.05127,4389.743652,4373.846191,4501.538574,4531.538574,4532.307617,4498.077148,4370.769043,4380.897461,4552.94873,4506.666504,4485.897461,4371.666504,4552.05127,4363.717773,4534.358887,4488.333496,4379.358887,4500,4477.179688,2601,1,26,2569,8597,,,,0,4,4,4,4,4,4,4,4,4,4,4,4,4,4,4,4,4,4,4,4,4,4,4,4,4,4,4,4,4,4,4,4,100,,,,,,,,,,,,,,,,,,,,,,,,,,,,,,,,,,,,,,,,,,,,,,,,,,,,,,,,,,,,,,,,,,,,,,,,,,,,,,,,,,,,,,,,,,,,,,,,,,,,,,,,,,,,,,,,,,,,,,,,,,,,,,,,,,,,,,,,,,,,,,,,,,,,,,,,,,,,,,,,,,,,,,,,,,,,,,,,,,,,,,,,,,,,,,,,,,,,,,,,,,,,,,
1764665197.595649,1764665197.593267,35427,0,4363.461426,4383.461426,4481.410156,4507.179688,4380,4507.436035,4536.410156,4372.563965,4565.256348,4363.974121,4492.179688,4505.641113,4566.794922,4393.589844,4383.077148,4505.512695,4536.410156,4536.666504,4503.205078,4378.333496,4386.922852,4559.743652,4510.897461,4490.384766,4365.256348,4556.025879,4369.358887,4536.922852,4491.538574,4384.487305,4504.358887,4486.153809,2854,1,26,2569,8597,,,,0,4,4,4,4,4,4,4,4,4,4,4,4,4,4,4,4,4,4,4,4,4,4,4,4,4,4,4,4,4,4,4,4,100,,,,,,,,,,,,,,,,,,,,,,,,,,,,,,,,,,,,,,,,,,,,,,,,,,,,,,,,,,,,,,,,,,,,,,,,,,,,,,,,,,,,,,,,,,,,,,,,,,,,,,,,,,,,,,,,,,,,,,,,,,,,,,,,,,,,,,,,,,,,,,,,,,,,,,,,,,,,,,,,,,,,,,,,,,,,,,,,,,,,,,,,,,,,,,,,,,,,,,,,,,,,,,
1764665197.599557,1764665197.597175,35428,0,4371.282227,4388.333496,4487.563965,4511.025879,4384.871582,4510.256348,4541.794922,4378.846191,4569.871582,4365.128418,4495.384766,4510.384766,4570.256348,4397.692383,4393.333496,4510.897461,4542.436035,4541.153809,4507.820313,4384.487305,4394.102539,4567.307617,4516.153809,4494.358887,4368.589844,4559.230957,4377.05127,4542.436035,4496.153809,4390.256348,4508.205078,4492.820313,2753,1,26,2570,8605,,,,0,4,4,4,4,4,4,4,4,4,4,4,4,4,4,4,4,4,4,4,4,4,4,4,4,4,4,4,4,4,4,4,4,100,,,,,,,,,,,,,,,,,,,,,,,,,,,,,,,,,,,,,,,,,,,,,,,,,,,,,,,,,,,,,,,,,,,,,,,,,,,,,,,,,,,,,,,,,,,,,,,,,,,,,,,,,,,,,,,,,,,,,,,,,,,,,,,,,,,,,,,,,,,,,,,,,,,,,,,,,,,,,,,,,,,,,,,,,,,,,,,,,,,,,,,,,,,,,,,,,,,,,,,,,,,,,,
1764665197.603465,1764665197.601082,35429,0,4375.897461,4390,4488.589844,4512.94873,4387.307617,4509.102539,4541.153809,4380.769043,4568.461426,4368.846191,4494.615234,4512.563965,4568.717773,4399.743652,4398.461426,4513.461426,4544.871582,4541.410156,4508.205078,4384.102539,4398.205078,4570.512695,4518.333496,4494.871582,4377.692383,4558.974121,4381.538574,4545.897461,4498.461426,4392.563965,4508.589844,4493.205078,2789,1,26,2570,8605,,,,0,4,4,4,4,4,4,4,4,4,4,4,4,4,4,4,4,4,4,4,4,4,4,4,4,4,4,4,4,4,4,4,4,100,,,,,,,,,,,,,,,,,,,,,,,,,,,,,,,,,,,25241,0,0.252913,-0.611206,-0.722778,0.200134,0.989379,0.160176,0.028812,23.833334,29.166666,43.5,,,,,,,,,,,,,,,,,,,,,,,,,,,,,,,,,,,,,,,,,,,,,,,,,,,,,,,,,,,,,,,,,,,,,,,,,,,,,,,,,,,,,,,,,,,,,,,,,,,,,,,,,,,,,,,,,,,,,,,,,,,,,,,,,,,,,,,,,,,,,,,,,,,,,,,,,,,,,,,,
1764665197.607373,1764665197.604990,35430,0,4373.077148,4386.538574,4483.717773,4511.282227,4384.358887,4503.846191,4533.461426,4375.512695,4560.769043,4373.846191,4489.358887,4509.743652,4562.436035,4399.102539,4395.641113,4510.512695,4541.025879,4535.769043,4503.461426,4376.922852,4397.692383,4567.307617,4516.282227,4491.410156,4385.897461,4555.384766,4380,4544.230957,4495.897461,4389.871582,4504.487305,4487.307617,2797,1,26,2567,8613,,,,0,4,4,4,4,4,4,4,4,4,4,4,4,4,4,4,4,4,4,4,4,4,4,4,4,4,4,4,4,4,4,4,4,100,,,,,,,,,,,,,,,,,,,,,,,,,,,,,,,,,,,,,,,,,,,,,,,,,,,,,,,,,,,,,,,,,,,,,,,,,,,,,,,,,,,,,,,,,,,,,,,,,,,,,,,,,,,,,,,,,,,,,,,,,,,,,,,,,,,,,,,,,,,,,,,,,,,,,,,,,,,,,,,,,,,,,,,,,,,,,,,,,,,,,,,,,,,,,,,,,,,,,,,,,,,,,,
1764665197.611282,1764665197.608897,35431,0,4364.487305,4379.487305,4475.512695,4506.410156,4376.282227,4497.436035,4522.692383,4365.256348,4550,4377.179688,4481.666504,4502.94873,4554.230957,4396.922852,4386.282227,4502.563965,4532.307617,4526.410156,4496.666504,4367.05127,4393.717773,4560.128418,4511.410156,4485.769043,4387.94873,4550.384766,4372.94873,4538.589844,4489.358887,4383.846191,4497.820313,4478.589844,2977,1,26,2567,8613,,,,0,4,4,4,4,4,4,4,4,4,4,4,4,4,4,4,4,4,4,4,4,4,4,4,4,4,4,4,4,4,4,4,4,100,,,,,,,,,,,,,,,,,,,,,,,,,,,,,,,,,,,,,,,,,,,,,,,,,,,,,,,,,,,,,,,,,,,,,,,,,,,,,,,,,,,,,,,,,,,,,,,,,,,,,,,,,,,,,,,,,,,,,,,,,,,,,,,,,,,,,,,,,,,,,,,,,,,,,,,,,,,,,,,,,,,,,,,,,,,,,,,,,,,,,,,,,,,,,,,,,,,,,,,,,,,,,,
1764665197.615190,1764665197.612804,35432,0,4356.025879,4372.563965,4468.077148,4500.641113,4368.205078,4493.717773,4515.256348,4355.128418,4541.410156,4377.05127,4475.641113,4495.641113,4548.333496,4394.743652,4376.410156,4494.487305,4523.205078,4518.974121,4492.692383,4360.641113,4389.358887,4553.461426,4506.538574,4481.282227,4383.333496,4547.436035,4364.615234,4532.563965,4482.692383,4378.077148,4491.922852,4471.666504,2864,1,26,2566,8621,,,,0,4,4,4,4,4,4,4,4,4,4,4,4,4,4,4,4,4,4,4,4,4,4,4,4,4,4,4,4,4,4,4,4,100,,,,,,,,,,,,,,,,,,,,,,,,,,,,,,,,,,,,,,,,,,,,,,,,,,,,,,,,,,,,,,,,,,,,,,,,,,,,,,,,,,,,,,,,,,,,,,,,,,,,,,,,,,,,,,,,,,,,,,,,,,,,,,,,,,,,,,,,,,,,,,,,,,,,,,,,,,,,,,,,,,,,,,,,,,,,,,,,,,,,,,,,,,,,,,,,,,,,,,,,,,,,,,
1764665197.619098,1764665197.616712,35433,0,4354.358887,4369.871582,4465.769043,4497.307617,4366.794922,4495.128418,4516.025879,4351.666504,4539.230957,4373.717773,4475.256348,4493.205078,4548.333496,4394.230957,4372.436035,4492.94873,4519.871582,4518.461426,4495.128418,4361.922852,4387.563965,4551.794922,4504.871582,4480.512695,4375.769043,4548.974121,4361.153809,4531.153809,4480.512695,4376.666504,4490.384766,4470.897461,2715,1,26,2566,8621,,,,0,4,4,4,4,4,4,4,4,4,4,4,4,4,4,4,4,4,4,4,4,4,4,4,4,4,4,4,4,4,4,4,4,100,,,,,,,,,,,,,,,,,,,,,,,,,,,,,,,,,,,25242,0,0.253063,-0.611328,-0.722656,0.200012,0.98303,0.156757,0.023929,21,31.666666,43.5,,,,,,,,,,,,,,,,,,,,,,,,,,,,,,,,,,,,,,,,,,,,,,,,,,,,,,,,,,,,,,,,,,,,,,,,,,,,,,,,,,,,,,,,,,,,,,,,,,,,,,,,,,,,,,,,,,,,,,,,,,,,,,,,,,,,,,,,,,,,,,,,,,,,,,,,,,,,,,,,
1764665197.623006,1764665197.620619,35434,0,4361.282227,4373.974121,4471.153809,4499.615234,4375.769043,4501.282227,4525.256348,4358.077148,4544.487305,4370.641113,4481.666504,4498.589844,4555.641113,4396.282227,4377.563965,4501.153809,4525.769043,4526.410156,4503.589844,4370.897461,4389.871582,4557.307617,4508.589844,4485.256348,4371.410156,4555.384766,4366.538574,4536.538574,4485,4381.922852,4495.641113,4477.692383,2274,1,26,2567,8629,,,,0,4,4,4,4,4,4,4,4,4,4,4,4,4,4,4,4,4,4,4,4,4,4,4,4,4,4,4,4,4,4,4,4,100,,,,,,,,,,,,,,,,,,,,,,,,,,,,,,,,,,,,,,,,,,,,,,,,,,,,,,,,,,,,,,,,,,,,,,,,,,,,,,,,,,,,,,,,,,,,,,,,,,,,,,,,,,,,,,,,,,,,,,,,,,,,,,,,,,,,,,,,,,,,,,,,,,,,,,,,,,,,,,,,,,,,,,,,,,,,,,,,,,,,,,,,,,,,,,,,,,,,,,,,,,,,,,
1764665197.626915,1764665197.624527,35435,0,4373.077148,4383.333496,4482.307617,4507.692383,4391.410156,4509.358887,4538.077148,4372.179688,4553.974121,4371.666504,4492.05127,4510.128418,4567.05127,4400,4388.333496,4515,4538.589844,4538.717773,4513.717773,4382.692383,4394.487305,4567.563965,4517.179688,4493.846191,4375,4564.358887,4378.717773,4546.282227,4493.846191,4392.05127,4506.153809,4489.102539,2684,1,26,2567,8629,,,,0,4,4,4,4,4,4,4,4,4,4,4,4,4,4,4,4,4,4,4,4,4,4,4,4,4,4,4,4,4,4,4,4,100,,,,,,,,,,,,,,,,,,,,,,,,,,,,,,,,,,,,,,,,,,,,,,,,,,,,,,,,,,,,,,,,,,,,,,,,,,,,,,,,,,,,,,,,,,,,,,,,,,,,,,,,,,,,,,,,,,,,,,,,,,,,,,,,,,,,,,,,,,,,,,,,,,,,,,,,,,,,,,,,,,,,,,,,,,,,,,,,,,,,,,,,,,,,,,,,,,,,,,,,,,,,,,
1764665197.630823,1764665197.628434,35436,0,4382.820313,4392.820313,4493.461426,4517.820313,4404.230957,4515.384766,4547.307617,4386.794922,4562.436035,4378.077148,4500.769043,4521.025879,4576.153809,4402.820313,4397.307617,4525.897461,4550.769043,4548.077148,4519.230957,4390.641113,4397.692383,4576.794922,4526.025879,4502.307617,4386.410156,4572.179688,4390.384766,4554.102539,4501.538574,4401.282227,4516.282227,4498.846191,2487,1,26,2566,8636,,,,0,4,4,4,4,4,4,4,4,4,4,4,4,4,4,4,4,4,4,4,4,4,4,4,4,4,4,4,4,4,4,4,4,100,,,,,,,,,,,,,,,,,,,,,,,,,,,,,,,,,,,,,,,,,,,,,,,,,,,,,,,,,,,,,,,,,,,,,,,,,,,,,,,,,,,,,,,,,,,,,,,,,,,,,,,,,,,,,,,,,,,,,,,,,,,,,,,,,,,,,,,,,,,,,,,,,,,,,,,,,,,,,,,,,,,,,,,,,,,,,,,,,,,,,,,,,,,,,,,,,,,,,,,,,,,,,,
1764665197.634731,1764665197.632342,35437,0,4385,4396.794922,4498.333496,4524.230957,4405.769043,4515.897461,4548.205078,4393.333496,4565.128418,4386.410156,4503.077148,4524.615234,4578.077148,4402.307617,4398.077148,4527.179688,4555.256348,4548.717773,4516.666504,4390.256348,4396.410156,4579.230957,4529.871582,4505.897461,4400.512695,4575.256348,4394.102539,4554.743652,4503.589844,4403.974121,4519.743652,4501.282227,2233,1,26,2566,8636,,,,0,4,4,4,4,4,4,4,4,4,4,4,4,4,4,4,4,4,4,4,4,4,4,4,4,4,4,4,4,4,4,4,4,100,,,,,,,,,,,,,,,,,,,,,,,,,,,,,,,,,,,25243,0,0.252891,-0.611511,-0.722595,0.19989,0.973752,0.171896,0.020022,21.833334,28.833334,43.833332,,,,,,,,,,,,,,,,,,,,,,,,,,,,,,,,,,,,,,,,,,,,,,,,,,,,,,,,,,,,,,,,,,,,,,,,,,,,,,,,,,,,,,,,,,,,,,,,,,,,,,,,,,,,,,,,,,,,,,,,,,,,,,,,,,,,,,,,,,,,,,,,,,,,,,,,,,,,,,,,
1764665197.638640,1764665197.636249,35438,0,4379.743652,4393.461426,4493.846191,4522.94873,4395,4511.282227,4542.05127,4388.974121,4561.410156,4390.641113,4498.589844,4519.230957,4573.077148,4398.333496,4391.153809,4519.230957,4550,4541.410156,4508.205078,4382.563965,4391.282227,4574.230957,4527.05127,4502.692383,4409.358887,4572.820313,4388.077148,4548.846191,4499.358887,4398.205078,4514.871582,4495.384766,2701,1,26,2567,8644,,,,0,4,4,4,4,4,4,4,4,4,4,4,4,4,4,4,4,4,4,4,4,4,4,4,4,4,4,4,4,4,4,4,4,100,,,,,,,,,,,,,,,,,,,,,,,,,,,,,,,,,,,,,,,,,,,,,,,,,,,,,,,,,,,,,,,,,,,,,,,,,,,,,,,,,,,,,,,,,,,,,,,,,,,,,,,,,,,,,,,,,,,,,,,,,,,,,,,,,,,,,,,,,,,,,,,,,,,,,,,,,,,,,,,,,,,,,,,,,,,,,,,,,,,,,,,,,,,,,,,,,,,,,,,,,,,,,,
1764665197.642548,1764665197.640157,35439,0,4372.05127,4385.512695,4483.205078,4515,4379.102539,4504.871582,4534.871582,4377.692383,4554.358887,4386.794922,4490.769043,4509.102539,4565.641113,4394.102539,4382.692383,4508.846191,4539.615234,4531.922852,4500.641113,4373.589844,4386.666504,4566.410156,4520.897461,4495.769043,4407.820313,4567.692383,4377.307617,4541.282227,4492.820313,4388.205078,4505.897461,4485.384766,2490,1,26,2567,8644,,,,0,4,4,4,4,4,4,4,4,4,4,4,4,4,4,4,4,4,4,4,4,4,4,4,4,4,4,4,4,4,4,4,4,100,,,,,,,,,,,,,,,,,,,,,,,,,,,,,,,,,,,,,,,,,,,,,,,,,,,,,,,,,,,,,,,,,,,,,,,,,,,,,,,,,,,,,,,,,,,,,,,,,,,,,,,,,,,,,,,,,,,,,,,,,,,,,,,,,,,,,,,,,,,,,,,,,,,,,,,,,,,,,,,,,,,,,,,,,,,,,,,,,,,,,,,,,,,,,,,,,,,,,,,,,,,,,,
1764665197.646456,1764665197.644064,35440,0,4367.692383,4378.717773,4473.333496,4506.025879,4368.205078,4500.769043,4531.410156,4368.205078,4548.846191,4376.666504,4485.512695,4501.282227,4561.282227,4393.333496,4379.230957,4504.102539,4531.922852,4527.94873,4499.615234,4370.128418,4386.666504,4562.179688,4516.666504,4490.128418,4396.410156,4564.358887,4369.743652,4537.94873,4488.974121,4380.769043,4500.256348,4477.692383,2857,1,26,2568,8652,,,,0,4,4,4,4,4,4,4,4,4,4,4,4,4,4,4,4,4,4,4,4,4,4,4,4,4,4,4,4,4,4,4,4,100,,,,,,,,,,,,,,,,,,,,,,,,,,,,,,,,,,,,,,,,,,,,,,,,,,,,,,,,,,,,,,,,,,,,,,,,,,,,,,,,,,,,,,,,,,,,,,,,,,,,,,,,,,,,,,,,,,,,,,,,,,,,,,,,,,,,,,,,,,,,,,,,,,,,,,,,,,,,,,,,,,,,,,,,,,,,,,,,,,,,,,,,,,,,,,,,,,,,,,,,,,,,,,
1764665197.650364,1764665197.647971,35441,0,4368.974121,4377.307617,4470.512695,4502.692383,4368.461426,4501.794922,4533.077148,4366.794922,4548.717773,4367.05127,4486.025879,4500.897461,4561.794922,4397.436035,4382.820313,4508.205078,4532.436035,4532.307617,4506.025879,4374.487305,4392.05127,4564.358887,4518.205078,4489.615234,4380.769043,4565.897461,4370.641113,4540.897461,4490.641113,4380.641113,4501.794922,4476.410156,2910,1,26,2568,8652,,,,0,4,4,4,4,4,4,4,4,4,4,4,4,4,4,4,4,4,4,4,4,4,4,4,4,4,4,4,4,4,4,4,4,100,,,,,,,,,,,,,,,,,,,,,,,,,,,,,,,,,,,25244,0,0.252889,-0.611572,-0.722595,0.199707,0.973752,0.171896,0.020022,21.833334,30.333334,45.166668,,,,,,,,,,,,,,,,,,,,,,,,,,,,,,,,,,,,,,,,,,,,,,,,,,,,,,,,,,,,,,,,,,,,,,,,,,,,,,,,,,,,,,,,,,,,,,,,,,,,,,,,,,,,,,,,,,,,,,,,,,,,,,,,,,,,,,,,,,,,,,,,,,,,,,,,,,,,,,,,
1764665197.654272,1764665197.651879,35442,0,4373.974121,4381.666504,4475.897461,4506.666504,4377.692383,4506.410156,4537.05127,4373.205078,4553.717773,4363.717773,4491.282227,4507.563965,4565.256348,4403.846191,4389.871582,4517.94873,4539.871582,4541.666504,4514.743652,4383.461426,4398.974121,4570.769043,4524.615234,4494.230957,4368.974121,4571.410156,4378.461426,4547.94873,4496.282227,4386.922852,4508.589844,4480.641113,1747,1,26,2569,8660,,,,0,4,4,4,4,4,4,4,4,4,4,4,4,4,4,4,4,4,4,4,4,4,4,4,4,4,4,4,4,4,4,4,4,100,,,,,,,,,,,,,,,,,,,,,,,,,,,,,,,,,,,,,,,,,,,,,,,,,,,,,,,,,,,,,,,,,,,,,,,,,,,,,,,,,,,,,,,,,,,,,,,,,,,,,,,,,,,,,,,,,,,,,,,,,,,,,,,,,,,,,,,,,,,,,,,,,,,,,,,,,,,,,,,,,,,,,,,,,,,,,,,,,,,,,,,,,,,,,,,,,,,,,,,,,,,,,,
1764665197.658181,1764665197.655786,35443,0,4377.307617,4387.820313,4483.589844,4513.333496,4387.436035,4510.384766,4538.974121,4381.025879,4558.974121,4366.922852,4495.384766,4515.256348,4567.692383,4407.94873,4394.102539,4524.871582,4547.307617,4548.461426,4518.717773,4389.615234,4402.05127,4575.641113,4530.769043,4499.358887,4365.256348,4576.025879,4385.769043,4553.846191,4501.153809,4393.461426,4513.846191,4485,2950,1,26,2569,8660,,,,0,4,4,4,4,4,4,4,4,4,4,4,4,4,4,4,4,4,4,4,4,4,4,4,4,4,4,4,4,4,4,4,4,100,,,,,,,,,,,,,,,,,,,,,,,,,,,,,,,,,,,,,,,,,,,,,,,,,,,,,,,,,,,,,,,,,,,,,,,,,,,,,,,,,,,,,,,,,,,,,,,,,,,,,,,,,,,,,,,,,,,,,,,,,,,,,,,,,,,,,,,,,,,,,,,,,,,,,,,,,,,,,,,,,,,,,,,,,,,,,,,,,,,,,,,,,,,,,,,,,,,,,,,,,,,,,,
1764665197.662089,1764665197.659694,35444,1,4377.366211,4388.659668,4483.077148,4512.750488,4387.400879,4510.035156,4538.811035,4380.163086,4559.056152,4367.832031,4495.885742,4515.850586,4567.820313,4407.867188,4393.158691,4523.205078,4546.93457,4547.727051,4518.473145,4388.158691,4400.139648,4575.209961,4530.874023,4498.811035,4368.624512,4575.466309,4385.314453,4553.881348,4501.118652,4393.624512,4513.100098,4485.163086,0,1,26,0,0,,,,0,4,4,4,4,4,4,4,4,4,4,4,4,4,4,4,4,4,4,4,4,4,4,4,4,4,4,4,4,4,4,4,4,100,,,,,,,,,,,,,,,,,,,,,,,,,,,,,,,,,,,,,,,,,,,,,,,,,,,,,,,,,,,,,,,,,,,,,,,,,,,,,,,,,,,,,,,,,,,,,,,,,,,,,,,,,,,,,,,,,,,,,,,,,,,,,,,,,,,,,,,,,,,,,,,,,,,,,,,,,,,,,,,,,,,,,,,,,,,,,,,,,,,,,,,,,,,,,,,,,,,,,,,,,,,,,,
1764665197.665997,1764665197.663601,35445,1,4377.424316,4389.499023,4482.563965,4512.167969,4387.366211,4509.685547,4538.647949,4379.300781,4559.137695,4368.741211,4496.386719,4516.445313,4567.94873,4407.785645,4392.214355,4521.538574,4546.562012,4546.993164,4518.228516,4386.70166,4398.228516,4574.77832,4530.979004,4498.263184,4371.993164,4574.906738,4384.860352,4553.916016,4501.083984,4393.788086,4512.354492,4485.326172,0,1,26,0,0,,,,0,4,4,4,4,4,4,4,4,4,4,4,4,4,4,4,4,4,4,4,4,4,4,4,4,4,4,4,4,4,4,4,4,100,,,,,,,,,,,,,,,,,,,,,,,,,,,,,,,,,,,,,,,,,,,,,,,,,,,,,,,,,,,,,,,,,,,,,,,,,,,,,,,,,,,,,,,,,,,,,,,,,,,,,,,,,,,,,,,,,,,,,,,,,,,,,,,,,,,,,,,,,,,,,,,,,,,,,,,,,,,,,,,,,,,,,,,,,,,,,,,,,,,,,,,,,,,,,,,,,,,,,,,,,,,,,,
1764665197.669906,1764665197.667509,35446,1,4377.482422,4390.337891,4482.05127,4511.584961,4387.331055,4509.335449,4538.484863,4378.437988,4559.219238,4369.650391,4496.888184,4517.039551,4568.077148,4407.704102,4391.270508,4519.871582,4546.188965,4546.258789,4517.983887,4385.244629,4396.316895,4574.347168,4531.083984,4497.71582,4375.361328,4574.347168,4384.405762,4553.951172,4501.048828,4393.951172,4511.608398,4485.489746,0,1,26,0,0,,,,0,4,4,4,4,4,4,4,4,4,4,4,4,4,4,4,4,4,4,4,4,4,4,4,4,4,4,4,4,4,4,4,4,100,,,,,,,,,,,,,,,,,,,,,,,,,,,,,,,,,,,,,,,,,,,,,,,,,,,,,,,,,,,,,,,,,,,,,,,,,,,,,,,,,,,,,,,,,,,,,,,,,,,,,,,,,,,,,,,,,,,,,,,,,,,,,,,,,,,,,,,,,,,,,,,,,,,,,,,,,,,,,,,,,,,,,,,,,,,,,,,,,,,,,,,,,,,,,,,,,,,,,,,,,,,,,,
1764665197.673814,1764665197.671416,35447,1,4377.541016,4391.177246,4481.538574,4511.002441,4387.295898,4508.98584,4538.321777,4377.575684,4559.300781,4370.55957,4497.38916,4517.633789,4568.205078,4407.622559,4390.326172,4518.205078,4545.815918,4545.524414,4517.73877,4383.788086,4394.405762,4573.916016,4531.188965,4497.167969,4378.729492,4573.788086,4383.951172,4553.98584,4501.01416,4394.114258,4510.862305,4485.652832,0,1,26,0,0,,,,0,4,4,4,4,4,4,4,4,4,4,4,4,4,4,4,4,4,4,4,4,4,4,4,4,4,4,4,4,4,4,4,4,100,,,,,,,,,,,,,,,,,,,,,,,,,,,,,,,,,,,,,,,,,,,,,,,,,,,,,,,,,,,,,,,,,,,,,,,,,,,,,,,,,,,,,,,,,,,,,,,,,,,,,,,,,,,,,,,,,,,,,,,,,,,,,,,,,,,,,,,,,,,,,,,,,,,,,,,,,,,,,,,,,,,,,,,,,,,,,,,,,,,,,,,,,,,,,,,,,,,,,,,,,,,,,,
1764665197.677722,1764665197.675324,35448,1,4377.599121,4392.016113,4481.025879,4510.419434,4387.26123,4508.63623,4538.158691,4376.713379,4559.382324,4371.46875,4497.890625,4518.228516,4568.333496,4407.541016,4389.382324,4516.538574,4545.442871,4544.790039,4517.494141,4382.331055,4392.494141,4573.484863,4531.293945,4496.620117,4382.098145,4573.228516,4383.496582,4554.020996,4500.979004,4394.277344,4510.116699,4485.815918,0,1,26,0,0,,,,0,4,4,4,4,4,4,4,4,4,4,4,4,4,4,4,4,4,4,4,4,4,4,4,4,4,4,4,4,4,4,4,4,100,,,,,,,,,,,,,,,,,,,,,,,,,,,,,,,,,,,,,,,,,,,,,,,,,,,,,,,,,,,,,,,,,,,,,,,,,,,,,,,,,,,,,,,,,,,,,,,,,,,,,,,,,,,,,,,,,,,,,,,,,,,,,,,,,,,,,,,,,,,,,,,,,,,,,,,,,,,,,,,,,,,,,,,,,,,,,,,,,,,,,,,,,,,,,,,,,,,,,,,,,,,,,,
1764665197.681630,1764665197.679231,35449,1,4377.657227,4392.855469,4480.512695,4509.836914,4387.226074,4508.286621,4537.995117,4375.850586,4559.463867,4372.377441,4498.391602,4518.822754,4568.461426,4407.458984,4388.437988,4514.871582,4545.069824,4544.056152,4517.249512,4380.874023,4390.58252,4573.053711,4531.398438,4496.072266,4385.466309,4572.668945,4383.041992,4554.056152,4500.943848,4394.44043,4509.370605,4485.979004,0,1,26,0,0,,,,0,4,4,4,4,4,4,4,4,4,4,4,4,4,4,4,4,4,4,4,4,4,4,4,4,4,4,4,4,4,4,4,4,100,,,,,,,,,,,,,,,,,,,,,,,,,,,,,,,,,,,,,,,,,,,,,,,,,,,,,,,,,,,,,,,,,,,,,,,,,,,,,,,,,,,,,,,,,,,,,,,,,,,,,,,,,,,,,,,,,,,,,,,,,,,,,,,,,,,,,,,,,,,,,,,,,,,,,,,,,,,,,,,,,,,,,,,,,,,,,,,,,,,,,,,,,,,,,,,,,,,,,,,,,,,,,,
1764665197.685539,1764665197.683138,35450,1,4377.71582,4393.694824,4480,4509.253906,4387.190918,4507.937012,4537.832031,4374.988281,4559.54541,4373.286621,4498.892578,4519.41748,4568.589844,4407.377441,4387.494141,4513.205078,4544.696777,4543.321777,4517.004883,4379.41748,4388.671387,4572.622559,4531.503418,4495.524414,4388.834473,4572.109375,4382.587402,4554.09082,4500.90918,4394.603516,4508.624512,4486.14209,0,1,26,0,0,,,,0,4,4,4,4,4,4,4,4,4,4,4,4,4,4,4,4,4,4,4,4,4,4,4,4,4,4,4,4,4,4,4,4,100,0.902344,91.666664,4,4,4,4,4,4,4,4,4,4,4,4,4,4,4,4,4,4,4,4,4,4,4,4,3,4,4,4,4,4,4,4,,,,,,,,,,,,,0.899619,1.097242,0.602905,1.274541,0.814578,2.154591,0.499987,0.838878,1.297964,0.792313,2.763445,0.65143,1.525651,1.306892,0.895439,1.247215,0.39622,0.94728,1.614671,0.754001,1.429415,0.6409,1.660206,1.187005,0.767198,1.202428,0.715955,0.660666,0.975149,0.627394,0.897523,0.494211,0.743942,1.206428,0.754058,1.038943,0.425296,0.675512,1.017294,0.869899,0.769008,0.637416,0.593706,1.528987,1.017256,1.49527,1.375923,1.082965,1.989855,1.489346,0.566992,0.598547,0.356198,0.76112,0.63487,0.901893,1.229862,0.700601,1.240191,0.7536,0.526399,0.502284,0.345356,0.968184,0.7287,0.67939,0.780212,0.360983,0.807722,0.524664,0.521119,0.659331,0.233745,1.150429,0.735682,0.857391,0.499455,0.382555,0.931128,0.505735,0.842801,1.196518,0.699879,1.385745,0.724539,0.773585,1.027515,0.416792,1.498704,0.633462,0.43329,0.542923,0.31406,0.923922,0.376385,0.772394,0.585499,0.468923,1.058629,0.753412,1.30003,0.892888,0.648448,1.270978,0.686368,1.048298,1.221015,0.4399,1.172059,0.791349,0.993628,1.140145,0.606226,1.432261,0.607387,1.52527,1.048728,0.595537,1.237707,0.708649,1.477221,1.409343,1.244887,1.550648,2.245751,1.950035,0.870269,0.957055,1.053026,0.704055,0.828913,0.621201,0.721754,1.614411,0.924752,1.027707,1.129793,0.724567,1.52179,0.886512,0.598088,0.488895,0.315824,0.71599,0.314434,1.487451,0.481833,0.532465,1.249628,0.897403,1.137352,0.56001,1.0677,1.347332,0.82103,1.895565,0.668526,0.846901,1.107468,1.040105
1764665197.689447,1764665197.687046,35451,1,4377.773926,4394.533691,4479.487305,4508.671387,4387.15625,4507.587402,4537.668945,4374.125977,4559.626953,4374.195801,4499.394043,4520.011719,4568.717773,4407.295898,4386.550293,4511.538574,4544.324219,4542.587402,4516.759766,4377.960449,4386.759766,4572.190918,4531.608398,4494.976563,4392.202637,4571.550293,4382.132813,4554.125977,4500.874023,4394.76709,4507.878906,4486.305176,0,1,26,0,0,,,,0,4,4,4,4,4,4,4,4,4,4,4,4,4,4,4,4,4,4,4,4,4,4,4,4,4,4,4,4,4,4,4,4,100,,,,,,,,,,,,,,,,,,,,,,,,,,,,,,,,,,,,,,,,,,,,,,,,,,,,,,,,,,,,,,,,,,,,,,,,,,,,,,,,,,,,,,,,,,,,,,,,,,,,,,,,,,,,,,,,,,,,,,,,,,,,,,,,,,,,,,,,,,,,,,,,,,,,,,,,,,,,,,,,,,,,,,,,,,,,,,,,,,,,,,,,,,,,,,,,,,,,,,,,,,,,,,
1764665197.693355,1764665197.690953,35452,1,4377.832031,4395.373047,4478.974121,4508.088379,4387.121094,4507.237793,4537.505859,4373.263184,4559.708496,4375.10498,4499.89502,4520.605957,4568.846191,4407.214355,4385.605957,4509.871582,4543.951172,4541.853027,4516.515137,4376.503418,4384.848633,4571.759766,4531.713379,4494.428711,4395.571289,4570.990723,4381.678223,4554.160645,4500.839355,4394.930176,4507.132813,4486.46875,0,1,26,0,0,,,,0,4,4,4,4,4,4,4,4,4,4,4,4,4,4,4,4,4,4,4,4,4,4,4,4,4,4,4,4,4,4,4,4,100,,,,,,,,,,,,,,,,,,,,,,,,,,,,,,,,,,,,,,,,,,,,,,,,,,,,,,,,,,,,,,,,,,,,,,,,,,,,,,,,,,,,,,,,,,,,,,,,,,,,,,,,,,,,,,,,,,,,,,,,,,,,,,,,,,,,,,,,,,,,,,,,,,,,,,,,,,,,,,,,,,,,,,,,,,,,,,,,,,,,,,,,,,,,,,,,,,,,,,,,,,,,,,
1764665197.697263,1764665197.694861,35453,1,4377.890625,4396.211914,4478.461426,4507.505859,4387.086426,4506.888184,4537.342773,4372.400879,4559.790039,4376.01416,4500.396484,4521.200684,4568.974121,4407.132813,4384.662109,4508.205078,4543.578125,4541.118652,4516.270508,4375.046387,4382.937012,4571.328613,4531.818359,4493.881348,4398.939453,4570.431152,4381.223633,4554.195801,4500.804199,4395.093262,4506.386719,4486.631836,0,1,26,0,0,,,,0,4,4,4,4,4,4,4,4,4,4,4,4,4,4,4,4,4,4,4,4,4,4,4,4,4,4,4,4,4,4,4,4,100,,,,,,,,,,,,,,,,,,,,,,,,,,,,,,,,,,,,,,,,,,,,,,,,,,,,,,,,,,,,,,,,,,,,,,,,,,,,,,,,,,,,,,,,,,,,,,,,,,,,,,,,,,,,,,,,,,,,,,,,,,,,,,,,,,,,,,,,,,,,,,,,,,,,,,,,,,,,,,,,,,,,,,,,,,,,,,,,,,,,,,,,,,,,,,,,,,,,,,,,,,,,,,
1764665197.701172,1764665197.698768,35454,0,4377.94873,4397.05127,4477.94873,4506.922852,4387.05127,4506.538574,4537.179688,4371.538574,4559.871582,4376.922852,4500.897461,4521.794922,4569.102539,4407.05127,4383.717773,4506.538574,4543.205078,4540.384766,4516.025879,4373.589844,4381.025879,4570.897461,4531.922852,4493.333496,4402.307617,4569.871582,4380.769043,4554.230957,4500.769043,4395.256348,4505.641113,4486.794922,2643,1,26,2575,8707,,,,0,4,4,4,4,4,4,4,4,4,4,4,4,4,4,4,4,4,4,4,4,4,4,4,4,4,4,4,4,4,4,4,4,100,,,,,,,,,,,,,,,,,,,,,,,,,,,,,,,,,,,,,,,,,,,,,,,,,,,,,,,,,,,,,,,,,,,,,,,,,,,,,,,,,,,,,,,,,,,,,,,,,,,,,,,,,,,,,,,,,,,,,,,,,,,,,,,,,,,,,,,,,,,,,,,,,,,,,,,,,,,,,,,,,,,,,,,,,,,,,,,,,,,,,,,,,,,,,,,,,,,,,,,,,,,,,,
1764665197.705080,1764665197.702676,35455,0,4369.102539,4389.230957,4470.897461,4502.692383,4380.512695,4499.743652,4531.153809,4361.666504,4553.333496,4366.794922,4491.666504,4513.846191,4561.410156,4398.846191,4381.410156,4502.563965,4535.256348,4533.077148,4508.589844,4367.94873,4376.410156,4564.358887,4526.282227,4486.538574,4392.436035,4564.358887,4373.974121,4545,4495.512695,4389.615234,4500.897461,4481.666504,2817,1,26,2575,8707,,,,0,4,4,4,4,4,4,4,4,4,4,4,4,4,4,4,4,4,4,4,4,4,4,4,4,4,4,4,4,4,4,4,4,100,,,,,,,,,,,,,,,,,,,,,,,,,,,,,,,,,,,,,,,,,,,,,,,,,,,,,,,,,,,,,,,,,,,,,,,,,,,,,,,,,,,,,,,,,,,,,,,,,,,,,,,,,,,,,,,,,,,,,,,,,,,,,,,,,,,,,,,,,,,,,,,,,,,,,,,,,,,,,,,,,,,,,,,,,,,,,,,,,,,,,,,,,,,,,,,,,,,,,,,,,,,,,,
1764665197.708988,1764665197.706583,35456,1,4368.699707,4389.432129,4471.153809,4503.077148,4379.926758,4499.541992,4531.629883,4361.941406,4552.893555,4370,4490.219727,4512.087891,4560.897461,4398.351563,4380.146484,4502.875488,4534.065918,4532.161133,4508.003906,4368.461426,4377.033203,4563.644531,4526.318848,4486.446777,4392.875488,4564.102539,4373.663086,4544.651855,4495.384766,4388.9375,4501.300293,4481.043945,2755,1,26,0,0,,,,0,4,4,4,4,4,4,4,4,4,4,4,4,4,4,4,4,4,4,4,4,4,4,4,4,4,4,4,4,4,4,4,4,100,,,,,,,,,,,,,,,,,,,,,,,,,,,,,,,,,,,,,,,,,,,,,,,,,,,,,,,,,,,,,,,,,,,,,,,,,,,,,,,,,,,,,,,,,,,,,,,,,,,,,,,,,,,,,,,,,,,,,,,,,,,,,,,,,,,,,,,,,,,,,,,,,,,,,,,,,,,,,,,,,,,,,,,,,,,,,,,,,,,,,,,,,,,,,,,,,,,,,,,,,,,,,,
1764665197.712896,1764665197.710491,35457,1,4368.296875,4389.633789,4471.410156,4503.461426,4379.34082,4499.34082,4532.106445,4362.216309,4552.454102,4373.205078,4488.772949,4510.32959,4560.384766,4397.856934,4378.882813,4503.187012,4532.875488,4531.245605,4507.41748,4368.974121,4377.655762,4562.930176,4526.355469,4486.355469,4393.314941,4563.846191,4373.351563,4544.304199,4495.256348,4388.260254,4501.703125,4480.421387,2919,1,26,0,0,,,,0,4,4,4,4,4,4,4,4,4,4,4,4,4,4,4,4,4,4,4,4,4,4,4,4,4,4,4,4,4,4,4,4,100,,,,,,,,,,,,,,,,,,,,,,,,,,,,,,,,,,,,,,,,,,,,,,,,,,,,,,,,,,,,,,,,,,,,,,,,,,,,,,,,,,,,,,,,,,,,,,,,,,,,,,,,,,,,,,,,,,,,,,,,,,,,,,,,,,,,,,,,,,,,,,,,,,,,,,,,,,,,,,,,,,,,,,,,,,,,,,,,,,,,,,,,,,,,,,,,,,,,,,,,,,,,,,
1764665197.716805,1764665197.714398,35458,1,4367.893555,4389.834961,4471.666504,4503.846191,4378.754395,4499.13916,4532.58252,4362.490723,4552.014648,4376.410156,4487.326172,4508.571289,4559.871582,4397.362793,4377.619141,4503.498047,4531.685059,4530.32959,4506.831543,4369.487305,4378.27832,4562.216309,4526.39209,4486.263672,4393.754395,4563.589844,4373.040527,4543.956055,4495.128418,4387.58252,4502.106445,4479.79834,2595,1,26,0,0,,,,0,4,4,4,4,4,4,4,4,4,4,4,4,4,4,4,4,4,4,4,4,4,4,4,4,4,4,4,4,4,4,4,4,100,,,,,,,,,,,,,,,,,,,,,,,,,,,,,,,,,,,,,,,,,,,,,,,,,,,,,,,,,,,,,,,,,,,,,,,,,,,,,,,,,,,,,,,,,,,,,,,,,,,,,,,,,,,,,,,,,,,,,,,,,,,,,,,,,,,,,,,,,,,,,,,,,,,,,,,,,,,,,,,,,,,,,,,,,,,,,,,,,,,,,,,,,,,,,,,,,,,,,,,,,,,,,,
1764665197.720713,1764665197.718305,35459,1,4367.490723,4390.036621,4471.922852,4504.230957,4378.168457,4498.9375,4533.058594,4362.765625,4551.575195,4379.615234,4485.878906,4506.812988,4559.358887,4396.868164,4376.355469,4503.80957,4530.494629,4529.414063,4506.245605,4370,4378.900879,4561.501953,4526.428711,4486.172363,4394.194336,4563.333496,4372.729004,4543.60791,4495,4386.904785,4502.509277,4479.175781,2848,1,26,0,0,,,,0,4,4,4,4,4,4,4,4,4,4,4,4,4,4,4,4,4,4,4,4,4,4,4,4,4,4,4,4,4,4,4,4,100,,,,,,,,,,,,,,,,,,,,,,,,,,,,,,,,,,,,,,,,,,,,,,,,,,,,,,,,,,,,,,,,,,,,,,,,,,,,,,,,,,,,,,,,,,,,,,,,,,,,,,,,,,,,,,,,,,,,,,,,,,,,,,,,,,,,,,,,,,,,,,,,,,,,,,,,,,,,,,,,,,,,,,,,,,,,,,,,,,,,,,,,,,,,,,,,,,,,,,,,,,,,,,
1764665197.724621,1764665197.722213,35460,1,4367.087891,4390.238281,4472.179688,4504.615234,4377.58252,4498.736328,4533.534668,4363.040527,4551.135742,4382.820313,4484.432129,4505.055176,4558.846191,4396.373535,4375.091797,4504.121094,4529.304199,4528.498047,4505.65918,4370.512695,4379.523926,4560.787598,4526.465332,4486.080566,4394.633789,4563.077148,4372.41748,4543.260254,4494.871582,4386.227051,4502.912109,4478.553223,2745,1,26,0,0,,,,0,4,4,4,4,4,4,4,4,4,4,4,4,4,4,4,4,4,4,4,4,4,4,4,4,4,4,4,4,4,4,4,4,100,,,,,,,,,,,,,,,,,,,,,,,,,,,,,,,,,,,,,,,,,,,,,,,,,,,,,,,,,,,,,,,,,,,,,,,,,,,,,,,,,,,,,,,,,,,,,,,,,,,,,,,,,,,,,,,,,,,,,,,,,,,,,,,,,,,,,,,,,,,,,,,,,,,,,,,,,,,,,,,,,,,,,,,,,,,,,,,,,,,,,,,,,,,,,,,,,,,,,,,,,,,,,,
1764665197.728530,1764665197.726120,35461,1,4366.685059,4390.439453,4472.436035,4505,4376.996094,4498.534668,4534.01123,4363.314941,4550.695801,4386.025879,4482.985352,4503.296875,4558.333496,4395.878906,4373.827637,4504.432129,4528.11377,4527.58252,4505.073242,4371.025879,4380.146484,4560.073242,4526.501953,4485.98877,4395.073242,4562.820313,4372.106445,4542.912109,4494.743652,4385.549316,4503.314941,4477.930176,2787,1,26,0,0,,,,0,4,4,4,4,4,4,4,4,4,4,4,4,4,4,4,4,4,4,4,4,4,4,4,4,4,4,4,4,4,4,4,4,100,,,,,,,,,,,,,,,,,,,,,,,,,,,,,,,,,,,,,,,,,,,,,,,,,,,,,,,,,,,,,,,,,,,,,,,,,,,,,,,,,,,,,,,,,,,,,,,,,,,,,,,,,,,,,,,,,,,,,,,,,,,,,,,,,,,,,,,,,,,,,,,,,,,,,,,,,,,,,,,,,,,,,,,,,,,,,,,,,,,,,,,,,,,,,,,,,,,,,,,,,,,,,,
1764665197.732438,1764665197.730028,35462,0,4366.282227,4390.641113,4472.692383,4505.384766,4376.410156,4498.333496,4534.487305,4363.589844,4550.256348,4389.230957,4481.538574,4501.538574,4557.820313,4395.384766,4372.563965,4504.743652,4526.922852,4526.666504,4504.487305,4371.538574,4380.769043,4559.358887,4526.538574,4485.897461,4395.512695,4562.563965,4371.794922,4542.563965,4494.615234,4384.871582,4503.717773,4477.307617,2795,1,26,2570,8738,,,,0,4,4,4,4,4,4,4,4,4,4,4,4,4,4,4,4,4,4,4,4,4,4,4,4,4,4,4,4,4,4,4,4,100,,,,,,,,,,,,,,,,,,,,,,,,,,,,,,,,,,,,,,,,,,,,,,,,,,,,,,,,,,,,,,,,,,,,,,,,,,,,,,,,,,,,,,,,,,,,,,,,,,,,,,,,,,,,,,,,,,,,,,,,,,,,,,,,,,,,,,,,,,,,,,,,,,,,,,,,,,,,,,,,,,,,,,,,,,,,,,,,,,,,,,,,,,,,,,,,,,,,,,,,,,,,,,
1764665197.736346,1764665197.733935,35463,0,4366.153809,4389.615234,4472.05127,4504.615234,4377.94873,4496.794922,4533.717773,4363.846191,4551.282227,4387.436035,4476.922852,4500.512695,4554.615234,4394.615234,4373.205078,4506.282227,4527.563965,4523.077148,4503.846191,4373.461426,4380.512695,4560,4524.487305,4486.282227,4395.897461,4561.922852,4371.025879,4541.025879,4493.077148,4383.589844,4505.128418,4476.282227,2977,1,26,2570,8738,,,,0,4,4,4,4,4,4,4,4,4,4,4,4,4,4,4,4,4,4,4,4,4,4,4,4,4,4,4,4,4,4,4,4,100,,,,,,,,,,,,,,,,,,,,,,,,,,,,,,,,,,,,,,,,,,,,,,,,,,,,,,,,,,,,,,,,,,,,,,,,,,,,,,,,,,,,,,,,,,,,,,,,,,,,,,,,,,,,,,,,,,,,,,,,,,,,,,,,,,,,,,,,,,,,,,,,,,,,,,,,,,,,,,,,,,,,,,,,,,,,,,,,,,,,,,,,,,,,,,,,,,,,,,,,,,,,,,
1764665197.740254,1764665197.737843,35464,0,4370.384766,4393.461426,4476.538574,4509.230957,4384.358887,4501.410156,4538.205078,4372.94873,4557.436035,4389.487305,4479.615234,4506.538574,4558.333496,4399.487305,4377.692383,4510.256348,4534.871582,4524.871582,4506.922852,4380.512695,4385.897461,4566.666504,4526.794922,4491.153809,4392.05127,4566.666504,4377.307617,4545.641113,4494.230957,4388.077148,4511.666504,4480.512695,2865,1,26,2570,8746,,,,0,4,4,4,4,4,4,4,4,4,4,4,4,4,4,4,4,4,4,4,4,4,4,4,4,4,4,4,4,4,4,4,4,100,,,,,,,,,,,,,,,,,,,,,,,,,,,,,,,,,,,,,,,,,,,,,,,,,,,,,,,,,,,,,,,,,,,,,,,,,,,,,,,,,,,,,,,,,,,,,,,,,,,,,,,,,,,,,,,,,,,,,,,,,,,,,,,,,,,,,,,,,,,,,,,,,,,,,,,,,,,,,,,,,,,,,,,,,,,,,,,,,,,,,,,,,,,,,,,,,,,,,,,,,,,,,,
1764665197.744163,1764665197.741750,35465,0,4377.179688,4400,4485.256348,4517.307617,4393.333496,4509.615234,4545.641113,4386.666504,4565,4395.384766,4488.974121,4516.666504,4566.153809,4407.436035,4384.102539,4515,4545.769043,4532.307617,4512.820313,4389.743652,4393.974121,4576.025879,4531.922852,4499.615234,4384.230957,4574.358887,4388.333496,4554.871582,4497.692383,4396.153809,4520.384766,4489.743652,2715,1,26,2570,8746,,,,0,4,4,4,4,4,4,4,4,4,4,4,4,4,4,4,4,4,4,4,4,4,4,4,4,4,4,4,4,4,4,4,4,100,,,,,,,,,,,,,,,,,,,,,,,,,,,,,,,,,,,25250,0,0.25299,-0.611694,-0.722473,0.199646,0.989867,0.172873,0.022464,22.833334,29.333334,43.666668,,,,,,,,,,,,,,,,,,,,,,,,,,,,,,,,,,,,,,,,,,,,,,,,,,,,,,,,,,,,,,,,,,,,,,,,,,,,,,,,,,,,,,,,,,,,,,,,,,,,,,,,,,,,,,,,,,,,,,,,,,,,,,,,,,,,,,,,,,,,,,,,,,,,,,,,,,,,,,,,
1764665197.748071,1764665197.745658,35466,0,4382.563965,4404.615234,4493.846191,4524.102539,4400.384766,4516.282227,4550.769043,4397.05127,4569.102539,4400.897461,4498.717773,4524.615234,4572.179688,4413.974121,4389.487305,4518.333496,4554.230957,4541.410156,4518.589844,4396.282227,4400.256348,4582.692383,4536.153809,4506.922852,4376.153809,4580.384766,4397.820313,4563.717773,4501.025879,4402.820313,4526.025879,4498.846191,2273,1,26,2571,8754,,,,0,4,4,4,4,4,4,4,4,4,4,4,4,4,4,4,4,4,4,4,4,4,4,4,4,4,4,4,4,4,4,4,4,100,,,,,,,,,,,,,,,,,,,,,,,,,,,,,,,,,,,,,,,,,,,,,,,,,,,,,,,,,,,,,,,,,,,,,,,,,,,,,,,,,,,,,,,,,,,,,,,,,,,,,,,,,,,,,,,,,,,,,,,,,,,,,,,,,,,,,,,,,,,,,,,,,,,,,,,,,,,,,,,,,,,,,,,,,,,,,,,,,,,,,,,,,,,,,,,,,,,,,,,,,,,,,,
1764665197.751979,1764665197.749565,35467,0,4382.94873,4403.461426,4497.307617,4524.743652,4401.153809,4516.666504,4550,4397.692383,4566.922852,4399.871582,4502.179688,4525.256348,4572.05127,4414.743652,4391.025879,4517.94873,4554.487305,4546.025879,4521.025879,4395.384766,4401.282227,4581.922852,4535.897461,4507.820313,4372.94873,4580.128418,4399.871582,4566.538574,4501.153809,4403.461426,4525.256348,4501.538574,2690,1,26,2571,8754,,,,0,4,4,4,4,4,4,4,4,4,4,4,4,4,4,4,4,4,4,4,4,4,4,4,4,4,4,4,4,4,4,4,4,100,,,,,,,,,,,,,,,,,,,,,,,,,,,,,,,,,,,,,,,,,,,,,,,,,,,,,,,,,,,,,,,,,,,,,,,,,,,,,,,,,,,,,,,,,,,,,,,,,,,,,,,,,,,,,,,,,,,,,,,,,,,,,,,,,,,,,,,,,,,,,,,,,,,,,,,,,,,,,,,,,,,,,,,,,,,,,,,,,,,,,,,,,,,,,,,,,,,,,,,,,,,,,,
1764665197.755887,1764665197.753472,35468,0,4377.692383,4396.282227,4493.589844,4518.333496,4395.128418,4510.256348,4543.717773,4388.077148,4560.128418,4390,4497.563965,4518.333496,4565.641113,4409.615234,4387.692383,4513.077148,4546.410156,4543.077148,4518.589844,4386.666504,4397.05127,4574.230957,4530.512695,4500.512695,4376.794922,4573.205078,4393.333496,4561.282227,4497.563965,4397.179688,4518.717773,4496.153809,2492,1,26,2572,8761,,,,0,4,4,4,4,4,4,4,4,4,4,4,4,4,4,4,4,4,4,4,4,4,4,4,4,4,4,4,4,4,4,4,4,100,,,,,,,,,,,,,,,,,,,,,,,,,,,,,,,,,,,,,,,,,,,,,,,,,,,,,,,,,,,,,,,,,,,,,,,,,,,,,,,,,,,,,,,,,,,,,,,,,,,,,,,,,,,,,,,,,,,,,,,,,,,,,,,,,,,,,,,,,,,,,,,,,,,,,,,,,,,,,,,,,,,,,,,,,,,,,,,,,,,,,,,,,,,,,,,,,,,,,,,,,,,,,,
1764665197.759796,1764665197.757380,35469,0,4371.025879,4387.692383,4486.666504,4508.846191,4387.05127,4501.794922,4536.666504,4375,4554.358887,4376.282227,4489.358887,4508.974121,4557.94873,4402.436035,4381.282227,4505.897461,4535.897461,4535.256348,4512.94873,4374.871582,4391.025879,4564.487305,4523.589844,4489.487305,4386.025879,4564.358887,4382.436035,4551.794922,4493.333496,4388.717773,4511.666504,4488.077148,2239,1,26,2572,8761,,,,0,4,4,4,4,4,4,4,4,4,4,4,4,4,4,4,4,4,4,4,4,4,4,4,4,4,4,4,4,4,4,4,4,100,,,,,,,,,,,,,,,,,,,,,,,,,,,,,,,,,,,25251,0,0.253237,-0.611572,-0.722473,0.199707,0.989867,0.172873,0.022464,23,32,43.5,,,,,,,,,,,,,,,,,,,,,,,,,,,,,,,,,,,,,,,,,,,,,,,,,,,,,,,,,,,,,,,,,,,,,,,,,,,,,,,,,,,,,,,,,,,,,,,,,,,,,,,,,,,,,,,,,,,,,,,,,,,,,,,,,,,,,,,,,,,,,,,,,,,,,,,,,,,,,,,,
1764665197.763704,1764665197.761287,35470,0,4368.974121,4383.717773,4483.589844,4503.589844,4383.461426,4497.436035,4534.743652,4368.333496,4554.615234,4367.94873,4485,4504.743652,4555.769043,4399.102539,4376.282227,4501.410156,4530.769043,4529.615234,4508.333496,4368.077148,4388.333496,4560.128418,4520.769043,4482.563965,4395.512695,4560.769043,4375,4545,4492.563965,4384.743652,4510.128418,4484.871582,2709,1,26,2573,8769,,,,0,4,4,4,4,4,4,4,4,4,4,4,4,4,4,4,4,4,4,4,4,4,4,4,4,4,4,4,4,4,4,4,4,100,,,,,,,,,,,,,,,,,,,,,,,,,,,,,,,,,,,,,,,,,,,,,,,,,,,,,,,,,,,,,,,,,,,,,,,,,,,,,,,,,,,,,,,,,,,,,,,,,,,,,,,,,,,,,,,,,,,,,,,,,,,,,,,,,,,,,,,,,,,,,,,,,,,,,,,,,,,,,,,,,,,,,,,,,,,,,,,,,,,,,,,,,,,,,,,,,,,,,,,,,,,,,,
1764665197.767612,1764665197.765195,35471,0,4374.743652,4387.179688,4488.077148,4506.922852,4387.436035,4500,4540,4373.461426,4562.05127,4371.282227,4487.820313,4510,4561.794922,4402.436035,4377.05127,4503.205078,4535.384766,4531.666504,4507.820313,4371.410156,4391.922852,4564.615234,4525.128418,4485.128418,4401.025879,4566.025879,4375.769043,4546.538574,4496.666504,4388.333496,4515.512695,4489.487305,2498,1,26,2573,8769,,,,0,4,4,4,4,4,4,4,4,4,4,4,4,4,4,4,4,4,4,4,4,4,4,4,4,4,4,4,4,4,4,4,4,100,,,,,,,,,,,,,,,,,,,,,,,,,,,,,,,,,,,,,,,,,,,,,,,,,,,,,,,,,,,,,,,,,,,,,,,,,,,,,,,,,,,,,,,,,,,,,,,,,,,,,,,,,,,,,,,,,,,,,,,,,,,,,,,,,,,,,,,,,,,,,,,,,,,,,,,,,,,,,,,,,,,,,,,,,,,,,,,,,,,,,,,,,,,,,,,,,,,,,,,,,,,,,,
1764665197.771521,1764665197.769102,35472,0,4385.256348,4396.153809,4497.563965,4517.307617,4395.769043,4506.794922,4549.743652,4386.410156,4572.179688,4384.487305,4495.897461,4522.307617,4572.436035,4410,4383.589844,4510.897461,4546.922852,4540.897461,4511.666504,4382.692383,4400,4575.384766,4533.717773,4495.769043,4401.153809,4577.05127,4383.589844,4555.769043,4503.205078,4396.666504,4523.461426,4498.333496,2862,1,26,2574,8777,,,,0,4,4,4,4,4,4,4,4,4,4,4,4,4,4,4,4,4,4,4,4,4,4,4,4,4,4,4,4,4,4,4,4,100,,,,,,,,,,,,,,,,,,,,,,,,,,,,,,,,,,,,,,,,,,,,,,,,,,,,,,,,,,,,,,,,,,,,,,,,,,,,,,,,,,,,,,,,,,,,,,,,,,,,,,,,,,,,,,,,,,,,,,,,,,,,,,,,,,,,,,,,,,,,,,,,,,,,,,,,,,,,,,,,,,,,,,,,,,,,,,,,,,,,,,,,,,,,,,,,,,,,,,,,,,,,,,
1764665197.775429,1764665197.773010,35473,0,4394.487305,4404.743652,4505.256348,4527.820313,4401.922852,4512.94873,4558.461426,4397.692383,4578.589844,4399.487305,4504.102539,4534.871582,4581.153809,4416.410156,4392.436035,4520.128418,4558.205078,4552.307617,4517.436035,4394.615234,4407.820313,4585.512695,4541.153809,4508.077148,4398.461426,4586.538574,4392.94873,4566.538574,4507.94873,4403.461426,4527.436035,4504.615234,2913,1,26,2574,8777,,,,0,4,4,4,4,4,4,4,4,4,4,4,4,4,4,4,4,4,4,4,4,4,4,4,4,4,4,4,4,4,4,4,4,100,,,,,,,,,,,,,,,,,,,,,,,,,,,,,,,,,,,25252,0,0.253759,-0.611328,-0.722412,0.200012,0.988402,0.180198,0.037602,22.833334,28.166666,44.5,,,,,,,,,,,,,,,,,,,,,,,,,,,,,,,,,,,,,,,,,,,,,,,,,,,,,,,,,,,,,,,,,,,,,,,,,,,,,,,,,,,,,,,,,,,,,,,,,,,,,,,,,,,,,,,,,,,,,,,,,,,,,,,,,,,,,,,,,,,,,,,,,,,,,,,,,,,,,,,,
1764665197.779337,1764665197.776917,35474,0,4397.692383,4407.94873,4506.025879,4531.666504,4401.538574,4515.384766,4561.538574,4399.743652,4577.179688,4407.307617,4507.820313,4541.153809,4583.589844,4417.307617,4398.205078,4526.025879,4562.94873,4559.487305,4521.922852,4399.615234,4410.512695,4589.358887,4543.077148,4515,4396.410156,4588.717773,4397.820313,4571.922852,4508.205078,4404.230957,4524.743652,4503.974121,1754,1,26,2575,8785,,,,0,4,4,4,4,4,4,4,4,4,4,4,4,4,4,4,4,4,4,4,4,4,4,4,4,4,4,4,4,4,4,4,4,100,,,,,,,,,,,,,,,,,,,,,,,,,,,,,,,,,,,,,,,,,,,,,,,,,,,,,,,,,,,,,,,,,,,,,,,,,,,,,,,,,,,,,,,,,,,,,,,,,,,,,,,,,,,,,,,,,,,,,,,,,,,,,,,,,,,,,,,,,,,,,,,,,,,,,,,,,,,,,,,,,,,,,,,,,,,,,,,,,,,,,,,,,,,,,,,,,,,,,,,,,,,,,,
1764665197.783245,1764665197.780824,35475,0,4393.974121,4403.846191,4499.871582,4527.05127,4395.128418,4513.846191,4558.846191,4392.436035,4568.974121,4402.563965,4505.769043,4538.461426,4580.128418,4412.692383,4397.563965,4525.769043,4559.743652,4559.358887,4523.205078,4395.641113,4407.05127,4585.897461,4539.743652,4513.205078,4396.282227,4582.307617,4395.512695,4569.102539,4504.871582,4399.230957,4517.436035,4497.307617,2957,1,26,2575,8785,,,,0,4,4,4,4,4,4,4,4,4,4,4,4,4,4,4,4,4,4,4,4,4,4,4,4,4,4,4,4,4,4,4,4,100,,,,,,,,,,,,,,,,,,,,,,,,,,,,,,,,,,,,,,,,,,,,,,,,,,,,,,,,,,,,,,,,,,,,,,,,,,,,,,,,,,,,,,,,,,,,,,,,,,,,,,,,,,,,,,,,,,,,,,,,,,,,,,,,,,,,,,,,,,,,,,,,,,,,,,,,,,,,,,,,,,,,,,,,,,,,,,,,,,,,,,,,,,,,,,,,,,,,,,,,,,,,,,
1764665197.787153,1764665197.784732,35476,0,4386.025879,4395,4490.769043,4518.333496,4386.538574,4510.512695,4553.589844,4381.666504,4558.846191,4387.820313,4500.256348,4529.358887,4574.358887,4406.153809,4390.897461,4520.384766,4551.922852,4553.205078,4520.769043,4386.282227,4400,4578.974121,4533.846191,4504.871582,4397.436035,4571.922852,4387.692383,4561.153809,4500.897461,4392.820313,4510.512695,4489.358887,2511,1,26,2576,8793,,,,0,4,4,4,4,4,4,4,4,4,4,4,4,4,4,4,4,4,4,4,4,4,4,4,4,4,4,4,4,4,4,4,4,100,,,,,,,,,,,,,,,,,,,,,,,,,,,,,,,,,,,,,,,,,,,,,,,,,,,,,,,,,,,,,,,,,,,,,,,,,,,,,,,,,,,,,,,,,,,,,,,,,,,,,,,,,,,,,,,,,,,,,,,,,,,,,,,,,,,,,,,,,,,,,,,,,,,,,,,,,,,,,,,,,,,,,,,,,,,,,,,,,,,,,,,,,,,,,,,,,,,,,,,,,,,,,,
1764665197.791062,1764665197.788639,35477,0,4378.461426,4386.794922,4484.358887,4511.794922,4380.384766,4507.307617,4550.512695,4374.358887,4552.179688,4372.436035,4495,4519.358887,4569.871582,4402.179688,4381.538574,4513.717773,4544.743652,4544.358887,4515.384766,4377.179688,4393.461426,4572.307617,4528.846191,4495.384766,4398.717773,4564.358887,4379.487305,4553.974121,4498.846191,4389.230957,4507.94873,4484.743652,2814,1,26,2576,8793,,,,0,4,4,4,4,4,4,4,4,4,4,4,4,4,4,4,4,4,4,4,4,4,4,4,4,4,4,4,4,4,4,4,4,100,,,,,,,,,,,,,,,,,,,,,,,,,,,,,,,,,,,25253,0,0.253679,-0.611389,-0.722473,0.199707,0.981077,0.162618,0.034672,23.166666,28.666666,43.666668,,,,,,,,,,,,,,,,,,,,,,,,,,,,,,,,,,,,,,,,,,,,,,,,,,,,,,,,,,,,,,,,,,,,,,,,,,,,,,,,,,,,,,,,,,,,,,,,,,,,,,,,,,,,,,,,,,,,,,,,,,,,,,,,,,,,,,,,,,,,,,,,,,,,,,,,,,,,,,,,
1764665197.794970,1764665197.792547,35478,0,4374.743652,4384.102539,4483.974121,4510.769043,4378.846191,4505.256348,4551.025879,4373.717773,4551.025879,4366.666504,4491.794922,4512.692383,4567.307617,4402.307617,4373.974121,4508.846191,4541.153809,4535.769043,4508.974121,4372.436035,4390.512695,4568.205078,4526.282227,4489.743652,4399.871582,4564.102539,4375.641113,4551.410156,4499.487305,4389.871582,4510.512695,4485.641113,2930,1,26,2576,8801,,,,0,4,4,4,4,4,4,4,4,4,4,4,4,4,4,4,4,4,4,4,4,4,4,4,4,4,4,4,4,4,4,4,4,100,,,,,,,,,,,,,,,,,,,,,,,,,,,,,,,,,,,,,,,,,,,,,,,,,,,,,,,,,,,,,,,,,,,,,,,,,,,,,,,,,,,,,,,,,,,,,,,,,,,,,,,,,,,,,,,,,,,,,,,,,,,,,,,,,,,,,,,,,,,,,,,,,,,,,,,,,,,,,,,,,,,,,,,,,,,,,,,,,,,,,,,,,,,,,,,,,,,,,,,,,,,,,,
1764665197.798878,1764665197.796454,35479,0,4375,4387.307617,4488.205078,4513.205078,4381.025879,4504.743652,4552.563965,4377.94873,4553.589844,4373.461426,4490.384766,4509.230957,4565.641113,4405.128418,4370.128418,4506.538574,4540.769043,4528.717773,4503.589844,4372.436035,4391.282227,4566.538574,4525,4490.512695,4402.307617,4569.871582,4377.563965,4552.94873,4501.153809,4392.94873,4515.897461,4490.256348,2843,1,26,2576,8801,,,,0,4,4,4,4,4,4,4,4,4,4,4,4,4,4,4,4,4,4,4,4,4,4,4,4,4,4,4,4,4,4,4,4,100,,,,,,,,,,,,,,,,,,,,,,,,,,,,,,,,,,,,,,,,,,,,,,,,,,,,,,,,,,,,,,,,,,,,,,,,,,,,,,,,,,,,,,,,,,,,,,,,,,,,,,,,,,,,,,,,,,,,,,,,,,,,,,,,,,,,,,,,,,,,,,,,,,,,,,,,,,,,,,,,,,,,,,,,,,,,,,,,,,,,,,,,,,,,,,,,,,,,,,,,,,,,,,
1764665197.802786,1764665197.800362,35480,0,4376.538574,4392.563965,4492.820313,4514.871582,4383.589844,4505.256348,4551.410156,4382.820313,4556.410156,4386.922852,4489.615234,4507.179688,4563.589844,4407.563965,4370,4505,4540.897461,4523.461426,4500.512695,4374.871582,4393.846191,4566.153809,4523.333496,4496.153809,4406.025879,4576.153809,4382.307617,4555.256348,4501.666504,4395.256348,4520.384766,4494.358887,2770,1,26,2576,8808,,,,0,4,4,4,4,4,4,4,4,4,4,4,4,4,4,4,4,4,4,4,4,4,4,4,4,4,4,4,4,4,4,4,4,100,,,,,,,,,,,,,,,,,,,,,,,,,,,,,,,,,,,,,,,,,,,,,,,,,,,,,,,,,,,,,,,,,,,,,,,,,,,,,,,,,,,,,,,,,,,,,,,,,,,,,,,,,,,,,,,,,,,,,,,,,,,,,,,,,,,,,,,,,,,,,,,,,,,,,,,,,,,,,,,,,,,,,,,,,,,,,,,,,,,,,,,,,,,,,,,,,,,,,,,,,,,,,,
1764665197.806695,1764665197.804269,35481,0,4377.179688,4395,4493.589844,4513.589844,4383.846191,4505.897461,4546.922852,4384.487305,4557.307617,4397.05127,4488.717773,4505.769043,4561.153809,4408.077148,4371.666504,4503.717773,4540,4520.512695,4500.128418,4377.692383,4396.282227,4566.922852,4520.769043,4502.563965,4409.358887,4578.589844,4386.025879,4555.897461,4499.871582,4395.128418,4521.538574,4494.743652,2820,1,26,2576,8808,,,,0,4,4,4,4,4,4,4,4,4,4,4,4,4,4,4,4,4,4,4,4,4,4,4,4,4,4,4,4,4,4,4,4,100,,,,,,,,,,,,,,,,,,,,,,,,,,,,,,,,,,,25254,0,0.253502,-0.61145,-0.722534,0.199524,0.981565,0.159687,0.042974,22.833334,28.666666,43.333332,,,,,,,,,,,,,,,,,,,,,,,,,,,,,,,,,,,,,,,,,,,,,,,,,,,,,,,,,,,,,,,,,,,,,,,,,,,,,,,,,,,,,,,,,,,,,,,,,,,,,,,,,,,,,,,,,,,,,,,,,,,,,,,,,,,,,,,,,,,,,,,,,,,,,,,,,,,,,,,,
1764665197.810603,1764665197.808177,35482,0,4376.794922,4392.820313,4490.128418,4510.384766,4381.794922,4506.025879,4542.179688,4382.692383,4556.538574,4398.077148,4487.563965,4505.769043,4560.128418,4407.436035,4374.230957,4503.717773,4538.974121,4520.897461,4501.410156,4380.128418,4397.563965,4568.461426,4518.974121,4506.410156,4409.871582,4576.538574,4386.410156,4555.128418,4497.436035,4393.333496,4519.743652,4491.538574,1959,1,26,2576,8816,,,,0,4,4,4,4,4,4,4,4,4,4,4,4,4,4,4,4,4,4,4,4,4,4,4,4,4,4,4,4,4,4,4,4,100,,,,,,,,,,,,,,,,,,,,,,,,,,,,,,,,,,,,,,,,,,,,,,,0.918631,1.056277,0.478088,1.173532,0.777118,2.157835,0.490608,0.716824,1.270377,0.75947,2.572226,0.60272,1.553349,1.240271,0.875465,1.541644,0.357516,1.019872,1.527559,0.712932,1.541047,0.648618,1.608333,1.174704,0.736637,1.20846,0.716724,0.627818,0.926973,0.602968,0.853068,0.50462,0.662689,1.156875,0.713854,0.957985,0.416614,0.595814,1.006044,0.817511,0.939835,0.622862,0.627677,1.471015,0.989249,1.393427,1.569399,1.010682,1.852322,1.320489,0.583232,0.590843,0.406771,0.725649,0.608389,0.944107,1.313746,0.60633,1.181074,0.712978,0.509366,0.585702,0.394419,0.944815,0.714718,0.896009,0.972854,0.325306,0.756523,0.509406,0.645489,0.648599,0.224447,1.078444,0.691982,0.764175,0.522966,0.362262,0.920505,0.482545,0.787822,1.202223,0.594706,1.328393,0.686936,0.676512,1.147669,0.409919,1.419071,0.660091,0.42238,0.608528,0.362151,0.884297,0.365943,0.769607,0.623711,0.56205,1.006599,0.749196,1.512203,1.030465,0.68207,1.166076,0.704698,1.083732,1.362992,0.46958,1.107795,0.7823,0.947534,1.098012,0.489683,1.363626,0.583278,1.495671,1.075334,0.665291,1.192025,0.707855,1.985578,1.297223,1.295058,1.571673,2.098076,1.705347,0.852519,0.920027,1.020934,0.700454,0.864842,0.649105,0.656133,1.508043,0.937284,0.842092,1.128331,0.647168,1.411978,0.865192,0.580063,0.499132,0.284408,0.66439,0.317212,1.40875,0.530802,0.525908,1.183501,0.877787,1.173497,0.579849,1.090892,1.287743,0.838067,1.808453,0.622118,0.892335,1.090675,0.97325
1764665197.814511,1764665197.812084,35483,0,4377.179688,4388.461426,4485.512695,4508.461426,4380,4506.538574,4540.769043,4379.615234,4556.282227,4391.794922,4486.922852,4508.333496,4562.307617,4407.94873,4377.820313,4506.794922,4539.871582,4525.256348,4503.717773,4382.436035,4398.333496,4570.384766,4520.384766,4507.436035,4406.922852,4573.461426,4385.512695,4555.769043,4497.307617,4392.692383,4517.94873,4487.94873,2639,1,26,2576,8816,,,,0,4,4,4,4,4,4,4,4,4,4,4,4,4,4,4,4,4,4,4,4,4,4,4,4,4,4,4,4,4,4,4,4,100,,,,,,,,,,,,,,,,,,,,,,,,,,,,,,,,,,,,,,,,,,,,,,,,,,,,,,,,,,,,,,,,,,,,,,,,,,,,,,,,,,,,,,,,,,,,,,,,,,,,,,,,,,,,,,,,,,,,,,,,,,,,,,,,,,,,,,,,,,,,,,,,,,,,,,,,,,,,,,,,,,,,,,,,,,,,,,,,,,,,,,,,,,,,,,,,,,,,,,,,,,,,,,
1764665197.818420,1764665197.815991,35484,0,4379.871582,4386.153809,4483.717773,4510.512695,4381.410156,4508.205078,4544.102539,4378.846191,4558.974121,4384.487305,4486.922852,4512.94873,4566.666504,4410.256348,4381.922852,4512.94873,4543.974121,4532.179688,4506.282227,4384.743652,4399.230957,4572.05127,4525.512695,4507.563965,4403.333496,4573.077148,4386.666504,4560,4500.897461,4395.512695,4519.230957,4487.436035,2693,1,26,2576,8824,,,,0,4,4,4,4,4,4,4,4,4,4,4,4,4,4,4,4,4,4,4,4,4,4,4,4,4,4,4,4,4,4,4,4,100,,,,,,,,,,,,,,,,,,,,,,,,,,,,,,,,,,,,,,,,,,,,,,,,,,,,,,,,,,,,,,,,,,,,,,,,,,,,,,,,,,,,,,,,,,,,,,,,,,,,,,,,,,,,,,,,,,,,,,,,,,,,,,,,,,,,,,,,,,,,,,,,,,,,,,,,,,,,,,,,,,,,,,,,,,,,,,,,,,,,,,,,,,,,,,,,,,,,,,,,,,,,,,
1764665197.822328,1764665197.819899,35485,0,4383.589844,4387.820313,4485.769043,4516.282227,4385.512695,4510.641113,4549.487305,4381.025879,4564.871582,4380.512695,4486.538574,4516.794922,4570.512695,4412.692383,4384.615234,4518.717773,4549.102539,4537.94873,4507.94873,4386.153809,4399.871582,4572.563965,4531.153809,4508.077148,4402.05127,4576.153809,4391.282227,4566.538574,4506.025879,4400.897461,4523.461426,4490.384766,2511,1,26,2576,8824,,,,0,4,4,4,4,4,4,4,4,4,4,4,4,4,4,4,4,4,4,4,4,4,4,4,4,4,4,4,4,4,4,4,4,100,,,,,,,,,,,,,,,,,,,,,,,,,,,,,,,,,,,25255,0,0.253646,-0.61145,-0.722534,0.199341,0.984984,0.178733,0.037602,22.833334,28.666666,43.333332,,,,,,,,,,,,,,,,,,,,,,,,,,,,,,,,,,,,,,,,,,,,,,,,,,,,,,,,,,,,,,,,,,,,,,,,,,,,,,,,,,,,,,,,,,,,,,,,,,,,,,,,,,,,,,,,,,,,,,,,,,,,,,,,,,,,,,,,,,,,,,,,,,,,,,,,,,,,,,,,
1764665197.826236,1764665197.823806,35486,0,4384.487305,4391.025879,4488.205078,4521.282227,4388.717773,4511.025879,4551.666504,4383.333496,4570.256348,4378.589844,4484.743652,4516.666504,4570.897461,4412.307617,4383.205078,4519.102539,4550.641113,4538.205078,4507.179688,4384.102539,4397.94873,4570.897461,4532.179688,4507.05127,4403.974121,4579.102539,4395.769043,4570.897461,4508.589844,4404.871582,4527.179688,4492.94873,2659,1,26,2575,8832,,,,0,4,4,4,4,4,4,4,4,4,4,4,4,4,4,4,4,4,4,4,4,4,4,4,4,4,4,4,4,4,4,4,4,100,,,,,,,,,,,,,,,,,,,,,,,,,,,,,,,,,,,,,,,,,,,,,,,,,,,,,,,,,,,,,,,,,,,,,,,,,,,,,,,,,,,,,,,,,,,,,,,,,,,,,,,,,,,,,,,,,,,,,,,,,,,,,,,,,,,,,,,,,,,,,,,,,,,,,,,,,,,,,,,,,,,,,,,,,,,,,,,,,,,,,,,,,,,,,,,,,,,,,,,,,,,,,,
1764665197.830144,1764665197.827714,35487,0,4379.615234,4390.256348,4485.512695,4519.871582,4386.538574,4507.05127,4546.922852,4381.410156,4569.615234,4374.102539,4480.641113,4510.384766,4566.538574,4407.820313,4376.538574,4512.05127,4544.871582,4531.410156,4502.94873,4377.307617,4391.538574,4566.410156,4525.769043,4502.05127,4406.025879,4577.692383,4394.743652,4568.077148,4506.025879,4402.692383,4525.641113,4490.512695,2831,1,26,2575,8832,,,,0,4,4,4,4,4,4,4,4,4,4,4,4,4,4,4,4,4,4,4,4,4,4,4,4,4,4,4,4,4,4,4,4,100,,,,,,,,,,,,,,,,,,,,,,,,,,,,,,,,,,,,,,,,,,,,,,,,,,,,,,,,,,,,,,,,,,,,,,,,,,,,,,,,,,,,,,,,,,,,,,,,,,,,,,,,,,,,,,,,,,,,,,,,,,,,,,,,,,,,,,,,,,,,,,,,,,,,,,,,,,,,,,,,,,,,,,,,,,,,,,,,,,,,,,,,,,,,,,,,,,,,,,,,,,,,,,
1764665197.834053,1764665197.831621,35488,0,4369.102539,4382.94873,4475.641113,4510.384766,4379.102539,4498.846191,4536.538574,4373.589844,4560.512695,4364.743652,4475.128418,4499.743652,4558.974121,4401.025879,4367.94873,4501.153809,4532.94873,4520.897461,4496.410156,4367.436035,4381.538574,4559.743652,4514.743652,4492.820313,4403.461426,4570.384766,4385.128418,4557.436035,4499.102539,4393.461426,4516.922852,4482.179688,2769,1,26,2576,8840,,,,0,4,4,4,4,4,4,4,4,4,4,4,4,4,4,4,4,4,4,4,4,4,4,4,4,4,4,4,4,4,4,4,4,100,,,,,,,,,,,,,,,,,,,,,,,,,,,,,,,,,,,,,,,,,,,,,,,,,,,,,,,,,,,,,,,,,,,,,,,,,,,,,,,,,,,,,,,,,,,,,,,,,,,,,,,,,,,,,,,,,,,,,,,,,,,,,,,,,,,,,,,,,,,,,,,,,,,,,,,,,,,,,,,,,,,,,,,,,,,,,,,,,,,,,,,,,,,,,,,,,,,,,,,,,,,,,,
1764665197.837961,1764665197.835529,35489,0,4358.077148,4371.538574,4462.563965,4497.563965,4370.512695,4489.487305,4525.128418,4363.333496,4546.666504,4353.717773,4470.641113,4489.487305,4551.922852,4396.025879,4363.077148,4492.820313,4520.384766,4512.563965,4490.897461,4359.487305,4372.436035,4553.077148,4505.128418,4483.077148,4393.461426,4559.487305,4369.743652,4543.333496,4491.282227,4380.897461,4504.230957,4470.897461,2943,1,26,2576,8840,,,,0,4,4,4,4,4,4,4,4,4,4,4,4,4,4,4,4,4,4,4,4,4,4,4,4,4,4,4,4,4,4,4,4,100,,,,,,,,,,,,,,,,,,,,,,,,,,,,,,,,,,,25256,0,0.253715,-0.611389,-0.722595,0.199219,0.989867,0.172873,0.028324,23.166666,29.333334,43.666668,,,,,,,,,,,,,,,,,,,,,,,,,,,,,,,,,,,,,,,,,,,,,,,,,,,,,,,,,,,,,,,,,,,,,,,,,,,,,,,,,,,,,,,,,,,,,,,,,,,,,,,,,,,,,,,,,,,,,,,,,,,,,,,,,,,,,,,,,,,,,,,,,,,,,,,,,,,,,,,,
1764665197.841869,1764665197.839436,35490,0,4352.179688,4362.307617,4452.94873,4488.589844,4365.641113,4483.461426,4517.94873,4356.025879,4536.282227,4348.205078,4468.846191,4484.743652,4548.461426,4395.256348,4365.384766,4491.666504,4513.461426,4510.128418,4489.358887,4357.436035,4368.205078,4548.717773,4501.538574,4477.05127,4377.692383,4550,4356.153809,4532.05127,4486.282227,4370.641113,4493.846191,4461.410156,2610,1,26,2576,8847,,,,0,4,4,4,4,4,4,4,4,4,4,4,4,4,4,4,4,4,4,4,4,4,4,4,4,4,4,4,4,4,4,4,4,100,,,,,,,,,,,,,,,,,,,,,,,,,,,,,,,,,,,,,,,,,,,,,,,,,,,,,,,,,,,,,,,,,,,,,,,,,,,,,,,,,,,,,,,,,,,,,,,,,,,,,,,,,,,,,,,,,,,,,,,,,,,,,,,,,,,,,,,,,,,,,,,,,,,,,,,,,,,,,,,,,,,,,,,,,,,,,,,,,,,,,,,,,,,,,,,,,,,,,,,,,,,,,,
1764665197.845777,1764665197.843344,35491,0,4353.846191,4360.641113,4451.282227,4487.820313,4366.025879,4483.205078,4517.05127,4354.615234,4535.512695,4353.205078,4470.256348,4486.922852,4549.102539,4398.077148,4372.307617,4496.794922,4515.384766,4513.333496,4492.05127,4361.025879,4370.128418,4547.94873,4504.358887,4477.05127,4361.282227,4545.769043,4351.282227,4528.333496,4485.769043,4366.922852,4491.025879,4457.563965,2867,1,26,2576,8847,,,,0,4,4,4,4,4,4,4,4,4,4,4,4,4,4,4,4,4,4,4,4,4,4,4,4,4,4,4,4,4,4,4,4,100,,,,,,,,,,,,,,,,,,,,,,,,,,,,,,,,,,,,,,,,,,,,,,,,,,,,,,,,,,,,,,,,,,,,,,,,,,,,,,,,,,,,,,,,,,,,,,,,,,,,,,,,,,,,,,,,,,,,,,,,,,,,,,,,,,,,,,,,,,,,,,,,,,,,,,,,,,,,,,,,,,,,,,,,,,,,,,,,,,,,,,,,,,,,,,,,,,,,,,,,,,,,,,
1764665197.849686,1764665197.847251,35492,0,4361.410156,4367.05127,4457.820313,4495,4370.897461,4488.717773,4520.769043,4358.846191,4543.846191,4368.461426,4473.846191,4494.102539,4552.179688,4402.05127,4377.94873,4503.717773,4523.974121,4519.230957,4497.05127,4366.922852,4375.897461,4550.897461,4510.769043,4482.563965,4351.282227,4548.077148,4357.436035,4532.692383,4489.230957,4370.769043,4496.538574,4460.897461,2760,1,26,2576,8855,,,,0,4,4,4,4,4,4,4,4,4,4,4,4,4,4,4,4,4,4,4,4,4,4,4,4,4,4,4,4,4,4,4,4,100,,,,,,,,,,,,,,,,,,,,,,,,,,,,,,,,,,,,,,,,,,,,,,,,,,,,,,,,,,,,,,,,,,,,,,,,,,,,,,,,,,,,,,,,,,,,,,,,,,,,,,,,,,,,,,,,,,,,,,,,,,,,,,,,,,,,,,,,,,,,,,,,,,,,,,,,,,,,,,,,,,,,,,,,,,,,,,,,,,,,,,,,,,,,,,,,,,,,,,,,,,,,,,
1764665197.853594,1764665197.851158,35493,0,4371.282227,4378.589844,4470.128418,4506.025879,4378.333496,4498.205078,4526.794922,4367.179688,4555.897461,4387.05127,4478.717773,4502.94873,4556.538574,4404.871582,4378.461426,4508.333496,4534.743652,4525.256348,4502.94873,4372.179688,4382.436035,4557.05127,4517.307617,4491.282227,4353.846191,4555.769043,4371.153809,4542.820313,4495,4380.384766,4507.179688,4471.025879,2799,1,26,2576,8855,,,,0,4,4,4,4,4,4,4,4,4,4,4,4,4,4,4,4,4,4,4,4,4,4,4,4,4,4,4,4,4,4,4,4,100,,,,,,,,,,,,,,,,,,,,,,,,,,,,,,,,,,,25257,0,0.253541,-0.611389,-0.722656,0.199219,0.98596,0.179221,0.037114,23,30,44.333332,,,,,,,,,,,,,,,,,,,,,,,,,,,,,,,,,,,,,,,,,,,,,,,,,,,,,,,,,,,,,,,,,,,,,,,,,,,,,,,,,,,,,,,,,,,,,,,,,,,,,,,,,,,,,,,,,,,,,,,,,,,,,,,,,,,,,,,,,,,,,,,,,,,,,,,,,,,,,,,,
1764665197.857502,1764665197.855066,35494,0,4380.897461,4390.769043,4484.743652,4516.922852,4386.922852,4508.974121,4533.717773,4377.692383,4565.897461,4399.871582,4484.230957,4511.153809,4561.666504,4406.666504,4375.769043,4510.128418,4543.974121,4530.769043,4509.230957,4377.05127,4388.077148,4566.410156,4523.205078,4500.384766,4370,4565.897461,4385.897461,4554.487305,4501.666504,4392.307617,4517.307617,4484.871582,2806,1,26,2573,8863,,,,0,4,4,4,4,4,4,4,4,4,4,4,4,4,4,4,4,4,4,4,4,4,4,4,4,4,4,4,4,4,4,4,4,100,,,,,,,,,,,,,,,,,,,,,,,,,,,,,,,,,,,,,,,,,,,,,,,,,,,,,,,,,,,,,,,,,,,,,,,,,,,,,,,,,,,,,,,,,,,,,,,,,,,,,,,,,,,,,,,,,,,,,,,,,,,,,,,,,,,,,,,,,,,,,,,,,,,,,,,,,,,,,,,,,,,,,,,,,,,,,,,,,,,,,,,,,,,,,,,,,,,,,,,,,,,,,,
1764665197.861411,1764665197.858973,35495,0,4388.589844,4400.512695,4497.692383,4525.769043,4395.256348,4518.205078,4541.282227,4388.461426,4571.410156,4400.769043,4489.743652,4518.717773,4567.307617,4408.205078,4375,4511.025879,4550.256348,4536.153809,4515.897461,4382.563965,4392.820313,4577.05127,4528.846191,4507.436035,4393.461426,4574.358887,4396.282227,4563.846191,4508.205078,4402.563965,4523.077148,4498.205078,2991,1,26,2573,8863,,,,0,4,4,4,4,4,4,4,4,4,4,4,4,4,4,4,4,4,4,4,4,4,4,4,4,4,4,4,4,4,4,4,4,100,,,,,,,,,,,,,,,,,,,,,,,,,,,,,,,,,,,,,,,,,,,,,,,,,,,,,,,,,,,,,,,,,,,,,,,,,,,,,,,,,,,,,,,,,,,,,,,,,,,,,,,,,,,,,,,,,,,,,,,,,,,,,,,,,,,,,,,,,,,,,,,,,,,,,,,,,,,,,,,,,,,,,,,,,,,,,,,,,,,,,,,,,,,,,,,,,,,,,,,,,,,,,,
1764665197.865319,1764665197.862881,35496,0,4394.102539,4406.922852,4506.153809,4531.538574,4402.307617,4523.589844,4549.102539,4397.563965,4573.846191,4392.05127,4494.487305,4525.641113,4572.820313,4410.641113,4380.128418,4512.820313,4554.487305,4541.410156,4521.666504,4388.461426,4397.179688,4585.641113,4534.743652,4511.025879,4412.307617,4578.205078,4400.128418,4568.974121,4513.974121,4408.461426,4524.743652,4506.922852,2875,1,26,2570,8871,,,,0,4,4,4,4,4,4,4,4,4,4,4,4,4,4,4,4,4,4,4,4,4,4,4,4,4,4,4,4,4,4,4,4,100,,,,,,,,,,,,,,,,,,,,,,,,,,,,,,,,,,,,,,,,,,,,,,,,,,,,,,,,,,,,,,,,,,,,,,,,,,,,,,,,,,,,,,,,,,,,,,,,,,,,,,,,,,,,,,,,,,,,,,,,,,,,,,,,,,,,,,,,,,,,,,,,,,,,,,,,,,,,,,,,,,,,,,,,,,,,,,,,,,,,,,,,,,,,,,,,,,,,,,,,,,,,,,
1764665197.869227,1764665197.866788,35497,0,4397.436035,4410.769043,4509.743652,4533.846191,4407.179688,4524.743652,4555.256348,4403.205078,4576.153809,4381.666504,4497.563965,4530.641113,4577.307617,4413.461426,4389.487305,4515.641113,4557.436035,4545.641113,4524.487305,4393.461426,4401.153809,4589.102539,4538.974121,4511.538574,4416.794922,4576.794922,4399.102539,4569.871582,4517.307617,4409.615234,4524.871582,4509.871582,2727,1,26,2570,8871,,,,0,4,4,4,4,4,4,4,4,4,4,4,4,4,4,4,4,4,4,4,4,4,4,4,4,4,4,4,4,4,4,4,4,100,,,,,,,,,,,,,,,,,,,,,,,,,,,,,,,,,,,25258,0,0.253589,-0.611389,-0.722656,0.199158,0.979612,0.181174,0.027835,22.666666,29.666666,44.666668,,,,,,,,,,,,,,,,,,,,,,,,,,,,,,,,,,,,,,,,,,,,,,,,,,,,,,,,,,,,,,,,,,,,,,,,,,,,,,,,,,,,,,,,,,,,,,,,,,,,,,,,,,,,,,,,,,,,,,,,,,,,,,,,,,,,,,,,,,,,,,,,,,,,,,,,,,,,,,,,
1764665197.873135,1764665197.870696,35498,0,4398.077148,4411.666504,4508.974121,4532.307617,4408.846191,4521.794922,4556.794922,4404.230957,4578.974121,4377.307617,4498.077148,4532.05127,4579.358887,4415.512695,4397.179688,4516.922852,4558.974121,4546.794922,4523.461426,4395.384766,4403.077148,4586.282227,4539.358887,4509.487305,4405.256348,4571.666504,4395.641113,4567.307617,4516.794922,4406.922852,4525.128418,4507.820313,2285,1,26,2566,8879,,,,0,4,4,4,4,4,4,4,4,4,4,4,4,4,4,4,4,4,4,4,4,4,4,4,4,4,4,4,4,4,4,4,4,100,,,,,,,,,,,,,,,,,,,,,,,,,,,,,,,,,,,,,,,,,,,,,,,,,,,,,,,,,,,,,,,,,,,,,,,,,,,,,,,,,,,,,,,,,,,,,,,,,,,,,,,,,,,,,,,,,,,,,,,,,,,,,,,,,,,,,,,,,,,,,,,,,,,,,,,,,,,,,,,,,,,,,,,,,,,,,,,,,,,,,,,,,,,,,,,,,,,,,,,,,,,,,,
1764665197.877044,1764665197.874603,35499,0,4395,4408.589844,4504.615234,4527.05127,4406.153809,4515.897461,4552.05127,4399.871582,4580.512695,4379.487305,4495.512695,4528.974121,4577.563965,4415.384766,4396.538574,4514.487305,4558.205078,4543.717773,4519.102539,4393.461426,4401.538574,4578.846191,4534.487305,4505.128418,4384.871582,4564.743652,4390.769043,4561.794922,4511.922852,4401.410156,4524.230957,4502.307617,2703,1,26,2566,8879,,,,0,4,4,4,4,4,4,4,4,4,4,4,4,4,4,4,4,4,4,4,4,4,4,4,4,4,4,4,4,4,4,4,4,100,,,,,,,,,,,,,,,,,,,,,,,,,,,,,,,,,,,,,,,,,,,,,,,,,,,,,,,,,,,,,,,,,,,,,,,,,,,,,,,,,,,,,,,,,,,,,,,,,,,,,,,,,,,,,,,,,,,,,,,,,,,,,,,,,,,,,,,,,,,,,,,,,,,,,,,,,,,,,,,,,,,,,,,,,,,,,,,,,,,,,,,,,,,,,,,,,,,,,,,,,,,,,,
1764665197.880952,1764665197.878511,35500,1,4393.904297,4408.018555,4503.135254,4526.398438,4404.988281,4516.562012,4550.55957,4398.799316,4578.799316,4381.282227,4494.871582,4527.622559,4576.888184,4414.580566,4395.10498,4513.916016,4557.972168,4543.671387,4519.09082,4393.578125,4401.270508,4579.20752,4533.717773,4505.675781,4388.111816,4565.664551,4390.757813,4561.70166,4511.410156,4401.177246,4524.102539,4501.211914,0,1,26,0,0,,,,0,4,4,4,4,4,4,4,4,4,4,4,4,4,4,4,4,4,4,4,4,4,4,4,4,4,4,4,4,4,4,4,4,100,,,,,,,,,,,,,,,,,,,,,,,,,,,,,,,,,,,,,,,,,,,,,,,,,,,,,,,,,,,,,,,,,,,,,,,,,,,,,,,,,,,,,,,,,,,,,,,,,,,,,,,,,,,,,,,,,,,,,,,,,,,,,,,,,,,,,,,,,,,,,,,,,,,,,,,,,,,,,,,,,,,,,,,,,,,,,,,,,,,,,,,,,,,,,,,,,,,,,,,,,,,,,,
1764665197.884860,1764665197.882418,35501,1,4392.809082,4407.447754,4501.654785,4525.746094,4403.822754,4517.226074,4549.067383,4397.727051,4577.086426,4383.077148,4494.230957,4526.270508,4576.211914,4413.776367,4393.671387,4513.345215,4557.73877,4543.624512,4519.079102,4393.694824,4401.002441,4579.568848,4532.94873,4506.223633,4391.352051,4566.584961,4390.746094,4561.608398,4510.897461,4400.943848,4523.974121,4500.116699,0,1,26,0,0,,,,0,4,4,4,4,4,4,4,4,4,4,4,4,4,4,4,4,4,4,4,4,4,4,4,4,4,4,4,4,4,4,4,4,100,,,,,,,,,,,,,,,,,,,,,,,,,,,,,,,,,,,,,,,,,,,,,,,,,,,,,,,,,,,,,,,,,,,,,,,,,,,,,,,,,,,,,,,,,,,,,,,,,,,,,,,,,,,,,,,,,,,,,,,,,,,,,,,,,,,,,,,,,,,,,,,,,,,,,,,,,,,,,,,,,,,,,,,,,,,,,,,,,,,,,,,,,,,,,,,,,,,,,,,,,,,,,,
1764665197.888768,1764665197.886325,35502,1,4391.713379,4406.876465,4500.174805,4525.093262,4402.657227,4517.890625,4547.575684,4396.654785,4575.373047,4384.871582,4493.589844,4524.918457,4575.536133,4412.972168,4392.237793,4512.773926,4557.505859,4543.578125,4519.067383,4393.811035,4400.734375,4579.930176,4532.179688,4506.771484,4394.592285,4567.505859,4390.734375,4561.515137,4510.384766,4400.710938,4523.846191,4499.020996,0,1,26,0,0,,,,0,4,4,4,4,4,4,4,4,4,4,4,4,4,4,4,4,4,4,4,4,4,4,4,4,4,4,4,4,4,4,4,4,100,,,,,,,,,,,,,,,,,,,,,,,,,,,,,,,,,,,,,,,,,,,,,,,,,,,,,,,,,,,,,,,,,,,,,,,,,,,,,,,,,,,,,,,,,,,,,,,,,,,,,,,,,,,,,,,,,,,,,,,,,,,,,,,,,,,,,,,,,,,,,,,,,,,,,,,,,,,,,,,,,,,,,,,,,,,,,,,,,,,,,,,,,,,,,,,,,,,,,,,,,,,,,,
1764665197.892676,1764665197.890233,35503,1,4390.617676,4406.305176,4498.694824,4524.44043,4401.491699,4518.554688,4546.083984,4395.58252,4573.659668,4386.666504,4492.94873,4523.566406,4574.860352,4412.167969,4390.804199,4512.202637,4557.272949,4543.53125,4519.056152,4393.927734,4400.466309,4580.291504,4531.410156,4507.319336,4397.832031,4568.426758,4390.722656,4561.421875,4509.871582,4400.478027,4523.717773,4497.925293,0,1,26,0,0,,,,0,4,4,4,4,4,4,4,4,4,4,4,4,4,4,4,4,4,4,4,4,4,4,4,4,4,4,4,4,4,4,4,4,100,,,,,,,,,,,,,,,,,,,,,,,,,,,,,,,,,,,,,,,,,,,,,,,,,,,,,,,,,,,,,,,,,,,,,,,,,,,,,,,,,,,,,,,,,,,,,,,,,,,,,,,,,,,,,,,,,,,,,,,,,,,,,,,,,,,,,,,,,,,,,,,,,,,,,,,,,,,,,,,,,,,,,,,,,,,,,,,,,,,,,,,,,,,,,,,,,,,,,,,,,,,,,,
1764665197.896585,1764665197.894140,35504,1,4389.521973,4405.734375,4497.214355,4523.788086,4400.326172,4519.219238,4544.592285,4394.510254,4571.946289,4388.461426,4492.307617,4522.214355,4574.184082,4411.36377,4389.370605,4511.631836,4557.039551,4543.484863,4519.044434,4394.044434,4400.198242,4580.652832,4530.641113,4507.867188,4401.072266,4569.347168,4390.710938,4561.328613,4509.358887,4400.244629,4523.589844,4496.830078,0,1,26,0,0,,,,0,4,4,4,4,4,4,4,4,4,4,4,4,4,4,4,4,4,4,4,4,4,4,4,4,4,4,4,4,4,4,4,4,100,,,,,,,,,,,,,,,,,,,,,,,,,,,,,,,,,,,,,,,,,,,,,,,,,,,,,,,,,,,,,,,,,,,,,,,,,,,,,,,,,,,,,,,,,,,,,,,,,,,,,,,,,,,,,,,,,,,,,,,,,,,,,,,,,,,,,,,,,,,,,,,,,,,,,,,,,,,,,,,,,,,,,,,,,,,,,,,,,,,,,,,,,,,,,,,,,,,,,,,,,,,,,,
1764665197.900493,1764665197.898048,35505,1,4388.426758,4405.163086,4495.734375,4523.135254,4399.160645,4519.883301,4543.100098,4393.437988,4570.23291,4390.256348,4491.666504,4520.862305,4573.508301,4410.55957,4387.937012,4511.060547,4556.806641,4543.437988,4519.032715,4394.160645,4399.930176,4581.01416,4529.871582,4508.415039,4404.3125,4570.268066,4390.699219,4561.235352,4508.846191,4400.011719,4523.461426,4495.734375,0,1,26,0,0,,,,0,4,4,4,4,4,4,4,4,4,4,4,4,4,4,4,4,4,4,4,4,4,4,4,4,4,4,4,4,4,4,4,4,100,,,,,,,,,,,,,,,,,,,,,,,,,,,,,,,,,,,,,,,,,,,,,,,,,,,,,,,,,,,,,,,,,,,,,,,,,,,,,,,,,,,,,,,,,,,,,,,,,,,,,,,,,,,,,,,,,,,,,,,,,,,,,,,,,,,,,,,,,,,,,,,,,,,,,,,,,,,,,,,,,,,,,,,,,,,,,,,,,,,,,,,,,,,,,,,,,,,,,,,,,,,,,,
1764665197.904401,1764665197.901955,35506,1,4387.331055,4404.592285,4494.253906,4522.482422,4397.995117,4520.547852,4541.608398,4392.366211,4568.52002,4392.05127,4491.025879,4519.510254,4572.832031,4409.755371,4386.503418,4510.489746,4556.573242,4543.391602,4519.020996,4394.277344,4399.662109,4581.375488,4529.102539,4508.962891,4407.552246,4571.188965,4390.6875,4561.14209,4508.333496,4399.77832,4523.333496,4494.638672,0,1,26,0,0,,,,0,4,4,4,4,4,4,4,4,4,4,4,4,4,4,4,4,4,4,4,4,4,4,4,4,4,4,4,4,4,4,4,4,100,,,,,,,,,,,,,,,,,,,,,,,,,,,,,,,,,,,,,,,,,,,,,,,,,,,,,,,,,,,,,,,,,,,,,,,,,,,,,,,,,,,,,,,,,,,,,,,,,,,,,,,,,,,,,,,,,,,,,,,,,,,,,,,,,,,,,,,,,,,,,,,,,,,,,,,,,,,,,,,,,,,,,,,,,,,,,,,,,,,,,,,,,,,,,,,,,,,,,,,,,,,,,,
1764665197.908310,1764665197.905863,35507,1,4386.235352,4404.020996,4492.773926,4521.830078,4396.830078,4521.211914,4540.116699,4391.293945,4566.806641,4393.846191,4490.384766,4518.158691,4572.15625,4408.951172,4385.069824,4509.918457,4556.340332,4543.345215,4519.009277,4394.394043,4399.394043,4581.736816,4528.333496,4509.510254,4410.79248,4572.109375,4390.675781,4561.048828,4507.820313,4399.54541,4523.205078,4493.542969,0,1,26,0,0,,,,0,4,4,4,4,4,4,4,4,4,4,4,4,4,4,4,4,4,4,4,4,4,4,4,4,4,4,4,4,4,4,4,4,100,,,,,,,,,,,,,,,,,,,,,,,,,,,,,,,,,,,,,,,,,,,,,,,,,,,,,,,,,,,,,,,,,,,,,,,,,,,,,,,,,,,,,,,,,,,,,,,,,,,,,,,,,,,,,,,,,,,,,,,,,,,,,,,,,,,,,,,,,,,,,,,,,,,,,,,,,,,,,,,,,,,,,,,,,,,,,,,,,,,,,,,,,,,,,,,,,,,,,,,,,,,,,,
1764665197.912218,1764665197.909770,35508,1,4385.139648,4403.449707,4491.293945,4521.177246,4395.664551,4521.876465,4538.624512,4390.22168,4565.093262,4395.641113,4489.743652,4516.806641,4571.47998,4408.146973,4383.63623,4509.347168,4556.107422,4543.29834,4518.997559,4394.510254,4399.125977,4582.098145,4527.563965,4510.058105,4414.032715,4573.030273,4390.664551,4560.955566,4507.307617,4399.3125,4523.077148,4492.447754,0,1,26,0,0,,,,0,4,4,4,4,4,4,4,4,4,4,4,4,4,4,4,4,4,4,4,4,4,4,4,4,4,4,4,4,4,4,4,4,100,,,,,,,,,,,,,,,,,,,,,,,,,,,,,,,,,,,,,,,,,,,,,,,,,,,,,,,,,,,,,,,,,,,,,,,,,,,,,,,,,,,,,,,,,,,,,,,,,,,,,,,,,,,,,,,,,,,,,,,,,,,,,,,,,,,,,,,,,,,,,,,,,,,,,,,,,,,,,,,,,,,,,,,,,,,,,,,,,,,,,,,,,,,,,,,,,,,,,,,,,,,,,,
1764665197.916126,1764665197.913678,35509,1,4384.044434,4402.878906,4489.813477,4520.524414,4394.499023,4522.541016,4537.132813,4389.149414,4563.379883,4397.436035,4489.102539,4515.45459,4570.804199,4407.342773,4382.202637,4508.776367,4555.874023,4543.251953,4518.98584,4394.626953,4398.85791,4582.458984,4526.794922,4510.605957,4417.272949,4573.951172,4390.652832,4560.862305,4506.794922,4399.079102,4522.94873,4491.352051,0,1,26,0,0,,,,0,4,4,4,4,4,4,4,4,4,4,4,4,4,4,4,4,4,4,4,4,4,4,4,4,4,4,4,4,4,4,4,4,100,,,,,,,,,,,,,,,,,,,,,,,,,,,,,,,,,,,,,,,,,,,,,,,,,,,,,,,,,,,,,,,,,,,,,,,,,,,,,,,,,,,,,,,,,,,,,,,,,,,,,,,,,,,,,,,,,,,,,,,,,,,,,,,,,,,,,,,,,,,,,,,,,,,,,,,,,,,,,,,,,,,,,,,,,,,,,,,,,,,,,,,,,,,,,,,,,,,,,,,,,,,,,,
1764665197.920034,1764665197.917585,35510,0,4382.94873,4402.307617,4488.333496,4519.871582,4393.333496,4523.205078,4535.641113,4388.077148,4561.666504,4399.230957,4488.461426,4514.102539,4570.128418,4406.538574,4380.769043,4508.205078,4555.641113,4543.205078,4518.974121,4394.743652,4398.589844,4582.820313,4526.025879,4511.153809,4420.512695,4574.871582,4390.641113,4560.769043,4506.282227,4398.846191,4522.820313,4490.256348,2945,1,26,2572,8926,,,,0,4,4,4,4,4,4,4,4,4,4,4,4,4,4,4,4,4,4,4,4,4,4,4,4,4,4,4,4,4,4,4,4,100,,,,,,,,,,,,,,,,,,,,,,,,,,,,,,,,,,,,,,,,,,,,,,,,,,,,,,,,,,,,,,,,,,,,,,,,,,,,,,,,,,,,,,,,,,,,,,,,,,,,,,,,,,,,,,,,,,,,,,,,,,,,,,,,,,,,,,,,,,,,,,,,,,,,,,,,,,,,,,,,,,,,,,,,,,,,,,,,,,,,,,,,,,,,,,,,,,,,,,,,,,,,,,
1764665197.923943,1764665197.921492,35511,0,4377.94873,4394.358887,4480.128418,4516.794922,4385.256348,4516.410156,4533.461426,4383.077148,4552.05127,4392.307617,4483.974121,4505,4565.384766,4397.94873,4375.897461,4501.794922,4548.333496,4535.512695,4511.666504,4387.05127,4390.897461,4574.743652,4518.974121,4502.05127,4404.871582,4569.358887,4382.563965,4552.820313,4499.743652,4391.666504,4513.333496,4481.794922,2858,1,26,2572,8926,,,,0,4,4,4,4,4,4,4,4,4,4,4,4,4,4,4,4,4,4,4,4,4,4,4,4,4,4,4,4,4,4,4,4,100,,,,,,,,,,,,,,,,,,,,,,,,,,,,,,,,,,,,,,,,,,,,,,,,,,,,,,,,,,,,,,,,,,,,,,,,,,,,,,,,,,,,,,,,,,,,,,,,,,,,,,,,,,,,,,,,,,,,,,,,,,,,,,,,,,,,,,,,,,,,,,,,,,,,,,,,,,,,,,,,,,,,,,,,,,,,,,,,,,,,,,,,,,,,,,,,,,,,,,,,,,,,,,
1764665197.927851,1764665197.925400,35512,0,4370.641113,4384.743652,4470.641113,4511.922852,4377.820313,4506.538574,4529.743652,4376.922852,4543.974121,4385.256348,4479.487305,4496.153809,4559.487305,4390.128418,4371.538574,4494.615234,4538.846191,4523.205078,4500.128418,4374.358887,4380.641113,4563.974121,4511.153809,4489.230957,4391.282227,4561.922852,4373.846191,4543.974121,4491.922852,4383.974121,4502.179688,4472.436035,2782,1,26,2573,8933,,,,0,4,4,4,4,4,4,4,4,4,4,4,4,4,4,4,4,4,4,4,4,4,4,4,4,4,4,4,4,4,4,4,4,100,,,,,,,,,,,,,,,,,,,,,,,,,,,,,,,,,,,,,,,,,,,,,,,,,,,,,,,,,,,,,,,,,,,,,,,,,,,,,,,,,,,,,,,,,,,,,,,,,,,,,,,,,,,,,,,,,,,,,,,,,,,,,,,,,,,,,,,,,,,,,,,,,,,,,,,,,,,,,,,,,,,,,,,,,,,,,,,,,,,,,,,,,,,,,,,,,,,,,,,,,,,,,,
1764665197.931759,1764665197.929307,35513,0,4363.333496,4376.538574,4462.94873,4507.307617,4373.717773,4498.205078,4525,4372.179688,4539.358887,4375.128418,4477.307617,4490.512695,4554.102539,4386.410156,4369.871582,4489.487305,4529.615234,4512.563965,4490.769043,4363.077148,4372.179688,4554.615234,4505.769043,4479.871582,4387.94873,4555.641113,4368.205078,4537.05127,4486.538574,4379.102539,4494.615234,4465.897461,2835,1,26,2573,8933,,,,0,4,4,4,4,4,4,4,4,4,4,4,4,4,4,4,4,4,4,4,4,4,4,4,4,4,4,4,4,4,4,4,4,100,,,,,,,,,,,,,,,,,,,,,,,,,,,,,,,,,,,25262,0,0.253357,-0.611572,-0.722717,0.198669,0.97717,0.176291,0.032719,24,28.166666,44.5,,,,,,,,,,,,,,,,,,,,,,,,,,,,,,,,,,,,,,,,,,,,,,,,,,,,,,,,,,,,,,,,,,,,,,,,,,,,,,,,,,,,,,,,,,,,,,,,,,,,,,,,,,,,,,,,,,,,,,,,,,,,,,,,,,,,,,,,,,,,,,,,,,,,,,,,,,,,,,,,
1764665197.935667,1764665197.933215,35514,0,4359.487305,4372.94873,4459.743652,4505,4374.358887,4495.256348,4521.282227,4370.897461,4538.717773,4362.94873,4478.589844,4488.974121,4551.410156,4387.05127,4371.922852,4488.333496,4523.846191,4509.358887,4488.461426,4358.333496,4369.487305,4550.512695,4504.615234,4478.333496,4392.94873,4552.820313,4367.94873,4534.871582,4485.769043,4379.358887,4494.358887,4464.743652,1968,1,26,2574,8941,,,,0,4,4,4,4,4,4,4,4,4,4,4,4,4,4,4,4,4,4,4,4,4,4,4,4,4,4,4,4,4,4,4,4,100,,,,,,,,,,,,,,,,,,,,,,,,,,,,,,,,,,,,,,,,,,,,,,,1.019271,0.953617,0.386632,0.983347,0.745641,2.042649,0.502104,0.601889,1.145925,0.728447,2.292918,0.583835,1.458961,1.084007,0.831316,1.828405,0.339908,1.028561,1.33123,0.680828,1.648406,0.65358,1.487194,1.073283,0.704183,1.230186,0.704658,0.627907,0.823771,0.579851,0.844599,0.563955,0.610603,1.031854,0.672745,0.929888,0.436172,0.545453,0.935504,0.775117,1.186104,0.633195,0.651564,1.309077,0.958615,1.33307,1.632836,0.986572,1.66685,1.156323,0.598663,0.569174,0.465893,0.643762,0.57979,1.025267,1.319227,0.511505,1.028227,0.674925,0.564211,0.680588,0.470304,0.861047,0.697122,1.134004,1.23777,0.30961,0.65626,0.507087,0.768859,0.592342,0.200392,0.923063,0.662103,0.705023,0.562773,0.357367,0.856067,0.480248,0.847538,1.151274,0.502194,1.179232,0.680155,0.662968,1.212123,0.411983,1.253677,0.705521,0.452259,0.672047,0.403247,0.804655,0.377878,0.819803,0.681846,0.680649,0.904781,0.768466,1.796747,1.215976,0.737225,0.999925,0.721138,1.257856,1.483419,0.520964,0.970195,0.770997,0.993491,1.009281,0.38807,1.193713,0.576265,1.538639,1.140614,0.78,1.072108,0.723307,2.497476,1.239202,1.409147,1.631997,1.893261,1.593979,0.889091,0.908215,0.914074,0.699569,1.006007,0.73045,0.623163,1.290721,0.930194,0.792025,1.104798,0.638155,1.207692,0.843395,0.595876,0.496882,0.265949,0.570739,0.321475,1.310271,0.605127,0.592831,1.033281,0.846037,1.24635,0.670425,1.107957,1.138201,0.832885,1.660176,0.61492,0.933351,1.003401,0.894886
1764665197.939576,1764665197.937122,35515,0,4360.512695,4374.358887,4461.282227,4506.282227,4378.333496,4497.563965,4520.512695,4373.333496,4541.153809,4354.615234,4482.307617,4490.384766,4552.820313,4390.128418,4376.153809,4490.897461,4522.94873,4514.615234,4493.077148,4360.641113,4372.563965,4551.922852,4506.922852,4483.717773,4395.384766,4553.974121,4372.05127,4538.333496,4489.358887,4384.358887,4500.256348,4468.077148,2655,1,26,2574,8941,,,,0,4,4,4,4,4,4,4,4,4,4,4,4,4,4,4,4,4,4,4,4,4,4,4,4,4,4,4,4,4,4,4,4,100,,,,,,,,,,,,,,,,,,,,,,,,,,,,,,,,,,,,,,,,,,,,,,,,,,,,,,,,,,,,,,,,,,,,,,,,,,,,,,,,,,,,,,,,,,,,,,,,,,,,,,,,,,,,,,,,,,,,,,,,,,,,,,,,,,,,,,,,,,,,,,,,,,,,,,,,,,,,,,,,,,,,,,,,,,,,,,,,,,,,,,,,,,,,,,,,,,,,,,,,,,,,,,
1764665197.943484,1764665197.941030,35516,0,4364.615234,4378.333496,4464.615234,4509.487305,4382.05127,4501.538574,4522.05127,4377.307617,4544.358887,4356.410156,4486.025879,4491.922852,4555.897461,4391.282227,4378.846191,4493.717773,4525.128418,4522.692383,4499.487305,4365.384766,4377.307617,4555.384766,4509.358887,4490,4386.025879,4556.794922,4376.538574,4544.487305,4493.461426,4389.871582,4506.538574,4472.179688,2706,1,26,2575,8949,,,,0,4,4,4,4,4,4,4,4,4,4,4,4,4,4,4,4,4,4,4,4,4,4,4,4,4,4,4,4,4,4,4,4,100,,,,,,,,,,,,,,,,,,,,,,,,,,,,,,,,,,,,,,,,,,,,,,,,,,,,,,,,,,,,,,,,,,,,,,,,,,,,,,,,,,,,,,,,,,,,,,,,,,,,,,,,,,,,,,,,,,,,,,,,,,,,,,,,,,,,,,,,,,,,,,,,,,,,,,,,,,,,,,,,,,,,,,,,,,,,,,,,,,,,,,,,,,,,,,,,,,,,,,,,,,,,,,
1764665197.947392,1764665197.944937,35517,0,4367.436035,4380.897461,4465.641113,4510.897461,4381.794922,4502.05127,4522.820313,4379.102539,4546.025879,4367.179688,4487.307617,4492.05127,4556.282227,4387.307617,4376.666504,4492.307617,4526.410156,4525.769043,4501.794922,4366.922852,4378.077148,4556.153809,4507.94873,4490.897461,4365.128418,4557.563965,4377.179688,4548.333496,4493.974121,4390.769043,4506.922852,4472.436035,2524,1,26,2575,8949,,,,0,4,4,4,4,4,4,4,4,4,4,4,4,4,4,4,4,4,4,4,4,4,4,4,4,4,4,4,4,4,4,4,4,100,,,,,,,,,,,,,,,,,,,,,,,,,,,,,,,,,,,25263,0,0.253278,-0.611572,-0.722778,0.198547,0.970822,0.172873,0.02637,22.333334,30.666666,43.333332,,,,,,,,,,,,,,,,,,,,,,,,,,,,,,,,,,,,,,,,,,,,,,,,,,,,,,,,,,,,,,,,,,,,,,,,,,,,,,,,,,,,,,,,,,,,,,,,,,,,,,,,,,,,,,,,,,,,,,,,,,,,,,,,,,,,,,,,,,,,,,,,,,,,,,,,,,,,,,,,
1764665197.951301,1764665197.948845,35518,0,4366.025879,4380.384766,4462.692383,4507.94873,4376.794922,4497.563965,4521.025879,4376.538574,4545.256348,4378.846191,4485.769043,4490.641113,4551.410156,4378.846191,4370.641113,4486.153809,4524.102539,4520.256348,4497.307617,4362.820313,4373.461426,4552.179688,4501.538574,4484.487305,4343.717773,4554.487305,4372.563965,4545.897461,4490.256348,4385,4500.128418,4468.077148,2675,1,26,2575,8957,,,,0,4,4,4,4,4,4,4,4,4,4,4,4,4,4,4,4,4,4,4,4,4,4,4,4,4,4,4,4,4,4,4,4,100,,,,,,,,,,,,,,,,,,,,,,,,,,,,,,,,,,,,,,,,,,,,,,,,,,,,,,,,,,,,,,,,,,,,,,,,,,,,,,,,,,,,,,,,,,,,,,,,,,,,,,,,,,,,,,,,,,,,,,,,,,,,,,,,,,,,,,,,,,,,,,,,,,,,,,,,,,,,,,,,,,,,,,,,,,,,,,,,,,,,,,,,,,,,,,,,,,,,,,,,,,,,,,
1764665197.955209,1764665197.952752,35519,0,4361.922852,4378.333496,4458.461426,4502.307617,4371.025879,4491.794922,4517.94873,4371.794922,4544.487305,4383.589844,4483.589844,4490.256348,4544.230957,4370.897461,4365.256348,4479.230957,4519.743652,4510.384766,4489.743652,4356.282227,4367.94873,4546.153809,4493.461426,4475.384766,4336.025879,4549.743652,4365.897461,4539.487305,4486.025879,4377.436035,4492.307617,4462.94873,2847,1,26,2575,8957,,,,0,4,4,4,4,4,4,4,4,4,4,4,4,4,4,4,4,4,4,4,4,4,4,4,4,4,4,4,4,4,4,4,4,100,,,,,,,,,,,,,,,,,,,,,,,,,,,,,,,,,,,,,,,,,,,,,,,,,,,,,,,,,,,,,,,,,,,,,,,,,,,,,,,,,,,,,,,,,,,,,,,,,,,,,,,,,,,,,,,,,,,,,,,,,,,,,,,,,,,,,,,,,,,,,,,,,,,,,,,,,,,,,,,,,,,,,,,,,,,,,,,,,,,,,,,,,,,,,,,,,,,,,,,,,,,,,,
1764665197.959117,1764665197.956659,35520,0,4360,4379.358887,4458.846191,4499.615234,4371.153809,4490.897461,4517.563965,4370.512695,4546.794922,4381.025879,4483.589844,4492.94873,4541.410156,4369.230957,4366.282227,4477.692383,4517.820313,4504.487305,4485.384766,4353.846191,4367.820313,4543.461426,4490,4471.025879,4348.846191,4547.563965,4363.333496,4535.512695,4485.897461,4375.641113,4491.410156,4462.94873,2779,1,26,2573,8965,,,,0,4,4,4,4,4,4,4,4,4,4,4,4,4,4,4,4,4,4,4,4,4,4,4,4,4,4,4,4,4,4,4,4,100,,,,,,,,,,,,,,,,,,,,,,,,,,,,,,,,,,,,,,,,,,,,,,,,,,,,,,,,,,,,,,,,,,,,,,,,,,,,,,,,,,,,,,,,,,,,,,,,,,,,,,,,,,,,,,,,,,,,,,,,,,,,,,,,,,,,,,,,,,,,,,,,,,,,,,,,,,,,,,,,,,,,,,,,,,,,,,,,,,,,,,,,,,,,,,,,,,,,,,,,,,,,,,
1764665197.963025,1764665197.960567,35521,0,4364.487305,4386.025879,4467.179688,4503.974121,4380.256348,4498.333496,4522.692383,4376.538574,4553.461426,4377.563965,4486.794922,4498.974121,4547.563965,4375.641113,4374.871582,4483.717773,4521.666504,4507.94873,4487.820313,4359.102539,4375.641113,4546.922852,4494.487305,4475.512695,4376.410156,4550.769043,4368.077148,4538.974121,4491.794922,4383.461426,4500.256348,4470.897461,2950,1,26,2573,8965,,,,0,4,4,4,4,4,4,4,4,4,4,4,4,4,4,4,4,4,4,4,4,4,4,4,4,4,4,4,4,4,4,4,4,100,,,,,,,,,,,,,,,,,,,,,,,,,,,,,,,,,,,25264,0,0.253305,-0.611633,-0.722717,0.198547,0.979612,0.159199,0.030277,22.333334,29,44.166668,,,,,,,,,,,,,,,,,,,,,,,,,,,,,,,,,,,,,,,,,,,,,,,,,,,,,,,,,,,,,,,,,,,,,,,,,,,,,,,,,,,,,,,,,,,,,,,,,,,,,,,,,,,,,,,,,,,,,,,,,,,,,,,,,,,,,,,,,,,,,,,,,,,,,,,,,,,,,,,,
1764665197.966934,1764665197.964474,35522,0,4373.846191,4396.025879,4480.897461,4513.846191,4393.974121,4510.256348,4531.153809,4387.692383,4561.794922,4379.487305,4491.922852,4505.641113,4559.743652,4386.153809,4386.410156,4493.205078,4530.897461,4518.205078,4494.743652,4368.974121,4386.538574,4554.615234,4504.230957,4485.897461,4404.358887,4557.94873,4377.563965,4547.692383,4500.641113,4396.538574,4513.589844,4483.205078,2618,1,26,2574,8972,,,,0,4,4,4,4,4,4,4,4,4,4,4,4,4,4,4,4,4,4,4,4,4,4,4,4,4,4,4,4,4,4,4,4,100,,,,,,,,,,,,,,,,,,,,,,,,,,,,,,,,,,,,,,,,,,,,,,,,,,,,,,,,,,,,,,,,,,,,,,,,,,,,,,,,,,,,,,,,,,,,,,,,,,,,,,,,,,,,,,,,,,,,,,,,,,,,,,,,,,,,,,,,,,,,,,,,,,,,,,,,,,,,,,,,,,,,,,,,,,,,,,,,,,,,,,,,,,,,,,,,,,,,,,,,,,,,,,
1764665197.970842,1764665197.968382,35523,0,4381.922852,4403.461426,4492.307617,4523.333496,4403.205078,4519.102539,4537.307617,4397.179688,4567.820313,4387.692383,4495.512695,4510.256348,4569.743652,4393.974121,4392.692383,4499.615234,4540.641113,4527.94873,4500.384766,4376.410156,4392.820313,4561.282227,4512.563965,4494.487305,4418.333496,4564.487305,4385.256348,4555.256348,4506.538574,4405.256348,4522.307617,4491.922852,2880,1,26,2574,8972,,,,0,4,4,4,4,4,4,4,4,4,4,4,4,4,4,4,4,4,4,4,4,4,4,4,4,4,4,4,4,4,4,4,4,100,,,,,,,,,,,,,,,,,,,,,,,,,,,,,,,,,,,,,,,,,,,,,,,,,,,,,,,,,,,,,,,,,,,,,,,,,,,,,,,,,,,,,,,,,,,,,,,,,,,,,,,,,,,,,,,,,,,,,,,,,,,,,,,,,,,,,,,,,,,,,,,,,,,,,,,,,,,,,,,,,,,,,,,,,,,,,,,,,,,,,,,,,,,,,,,,,,,,,,,,,,,,,,
1764665197.974750,1764665197.972289,35524,0,4383.461426,4403.461426,4495.128418,4526.538574,4401.666504,4519.358887,4537.307617,4398.717773,4568.717773,4396.922852,4495.897461,4511.410156,4571.282227,4395.512695,4389.743652,4498.717773,4545.512695,4531.410156,4501.666504,4376.538574,4390.512695,4562.692383,4514.615234,4495.897461,4413.077148,4566.025879,4386.025879,4555.769043,4506.153809,4403.205078,4520.897461,4491.538574,2767,1,26,2574,8980,,,,0,4,4,4,4,4,4,4,4,4,4,4,4,4,4,4,4,4,4,4,4,4,4,4,4,4,4,4,4,4,4,4,4,100,,,,,,,,,,,,,,,,,,,,,,,,,,,,,,,,,,,,,,,,,,,,,,,,,,,,,,,,,,,,,,,,,,,,,,,,,,,,,,,,,,,,,,,,,,,,,,,,,,,,,,,,,,,,,,,,,,,,,,,,,,,,,,,,,,,,,,,,,,,,,,,,,,,,,,,,,,,,,,,,,,,,,,,,,,,,,,,,,,,,,,,,,,,,,,,,,,,,,,,,,,,,,,
1764665197.978658,1764665197.976197,35525,0,4378.846191,4396.538574,4488.717773,4522.307617,4390.769043,4512.692383,4531.922852,4391.922852,4565.128418,4400.384766,4492.820313,4509.615234,4565,4392.436035,4379.871582,4492.436035,4543.461426,4528.589844,4498.974121,4370.256348,4382.05127,4558.461426,4511.282227,4490.384766,4394.871582,4561.410156,4379.615234,4548.974121,4500.769043,4391.794922,4512.05127,4483.205078,2812,1,26,2574,8980,,,,0,4,4,4,4,4,4,4,4,4,4,4,4,4,4,4,4,4,4,4,4,4,4,4,4,4,4,4,4,4,4,4,4,100,,,,,,,,,,,,,,,,,,,,,,,,,,,,,,,,,,,25265,0,0.253305,-0.611633,-0.722717,0.198547,0.986937,0.165059,0.040532,22.333334,29.333334,45.833332,,,,,,,,,,,,,,,,,,,,,,,,,,,,,,,,,,,,,,,,,,,,,,,,,,,,,,,,,,,,,,,,,,,,,,,,,,,,,,,,,,,,,,,,,,,,,,,,,,,,,,,,,,,,,,,,,,,,,,,,,,,,,,,,,,,,,,,,,,,,,,,,,,,,,,,,,,,,,,,,
1764665197.982567,1764665197.980104,35526,0,4372.436035,4387.436035,4478.589844,4514.102539,4377.563965,4505.256348,4525,4380.769043,4558.974121,4394.487305,4488.077148,4505.769043,4556.410156,4388.589844,4370,4485.512695,4536.153809,4523.077148,4495.128418,4362.94873,4373.717773,4551.153809,4506.282227,4482.436035,4376.025879,4552.820313,4370.641113,4539.743652,4494.358887,4379.230957,4503.077148,4473.846191,2817,1,26,2573,8988,,,,0,4,4,4,4,4,4,4,4,4,4,4,4,4,4,4,4,4,4,4,4,4,4,4,4,4,4,4,4,4,4,4,4,100,,,,,,,,,,,,,,,,,,,,,,,,,,,,,,,,,,,,,,,,,,,,,,,,,,,,,,,,,,,,,,,,,,,,,,,,,,,,,,,,,,,,,,,,,,,,,,,,,,,,,,,,,,,,,,,,,,,,,,,,,,,,,,,,,,,,,,,,,,,,,,,,,,,,,,,,,,,,,,,,,,,,,,,,,,,,,,,,,,,,,,,,,,,,,,,,,,,,,,,,,,,,,,
1764665197.986475,1764665197.984011,35527,0,4368.333496,4381.025879,4470.897461,4506.666504,4369.230957,4502.436035,4520,4370.897461,4552.179688,4380.128418,4483.077148,4501.538574,4551.538574,4387.179688,4364.871582,4481.538574,4527.820313,4518.333496,4492.307617,4358.974121,4370,4544.102539,4503.333496,4476.922852,4366.922852,4544.230957,4364.358887,4533.205078,4490.641113,4373.333496,4499.615234,4469.230957,3002,1,26,2573,8988,,,,0,4,4,4,4,4,4,4,4,4,4,4,4,4,4,4,4,4,4,4,4,4,4,4,4,4,4,4,4,4,4,4,4,100,,,,,,,,,,,,,,,,,,,,,,,,,,,,,,,,,,,,,,,,,,,,,,,,,,,,,,,,,,,,,,,,,,,,,,,,,,,,,,,,,,,,,,,,,,,,,,,,,,,,,,,,,,,,,,,,,,,,,,,,,,,,,,,,,,,,,,,,,,,,,,,,,,,,,,,,,,,,,,,,,,,,,,,,,,,,,,,,,,,,,,,,,,,,,,,,,,,,,,,,,,,,,,
1764665197.990383,1764665197.987919,35528,0,4367.820313,4380,4469.230957,4503.205078,4368.717773,4504.871582,4518.461426,4366.025879,4546.025879,4363.974121,4479.487305,4498.589844,4552.05127,4388.333496,4365.512695,4480.512695,4522.820313,4515.384766,4490.769043,4359.743652,4371.666504,4540.256348,4503.205078,4475.769043,4369.871582,4538.974121,4362.94873,4532.563965,4490.769043,4376.025879,4502.179688,4470.641113,2882,1,26,2574,8996,,,,0,4,4,4,4,4,4,4,4,4,4,4,4,4,4,4,4,4,4,4,4,4,4,4,4,4,4,4,4,4,4,4,4,100,,,,,,,,,,,,,,,,,,,,,,,,,,,,,,,,,,,,,,,,,,,,,,,,,,,,,,,,,,,,,,,,,,,,,,,,,,,,,,,,,,,,,,,,,,,,,,,,,,,,,,,,,,,,,,,,,,,,,,,,,,,,,,,,,,,,,,,,,,,,,,,,,,,,,,,,,,,,,,,,,,,,,,,,,,,,,,,,,,,,,,,,,,,,,,,,,,,,,,,,,,,,,,
1764665197.994291,1764665197.991826,35529,0,4369.615234,4383.589844,4472.563965,4503.974121,4374.102539,4509.102539,4520.384766,4367.179688,4542.436035,4353.333496,4478.846191,4498.333496,4556.410156,4390,4369.230957,4481.153809,4523.846191,4514.230957,4490.769043,4363.589844,4376.025879,4541.153809,4505.128418,4478.589844,4379.487305,4538.974121,4366.153809,4537.179688,4493.077148,4383.589844,4507.692383,4475.256348,2732,1,26,2574,8996,,,,0,4,4,4,4,4,4,4,4,4,4,4,4,4,4,4,4,4,4,4,4,4,4,4,4,4,4,4,4,4,4,4,4,100,,,,,,,,,,,,,,,,,,,,,,,,,,,,,,,,,,,25266,0,0.253201,-0.611755,-0.722717,0.198303,1.00061,0.174826,0.042486,23.833334,29.666666,43,,,,,,,,,,,,,,,,,,,,,,,,,,,,,,,,,,,,,,,,,,,,,,,,,,,,,,,,,,,,,,,,,,,,,,,,,,,,,,,,,,,,,,,,,,,,,,,,,,,,,,,,,,,,,,,,,,,,,,,,,,,,,,,,,,,,,,,,,,,,,,,,,,,,,,,,,,,,,,,,
1764665197.998200,1764665197.995734,35530,0,4371.922852,4389.358887,4477.436035,4506.666504,4380.641113,4511.410156,4524.358887,4372.307617,4542.692383,4352.307617,4481.794922,4501.025879,4560.897461,4390.641113,4372.179688,4482.307617,4530,4514.487305,4491.922852,4367.94873,4379.615234,4546.282227,4507.692383,4483.333496,4386.666504,4543.333496,4371.025879,4543.589844,4496.025879,4390.256348,4511.410156,4478.717773,2292,1,26,2575,9004,,,,0,4,4,4,4,4,4,4,4,4,4,4,4,4,4,4,4,4,4,4,4,4,4,4,4,4,4,4,4,4,4,4,4,100,,,,,,,,,,,,,,,,,,,,,,,,,,,,,,,,,,,,,,,,,,,,,,,,,,,,,,,,,,,,,,,,,,,,,,,,,,,,,,,,,,,,,,,,,,,,,,,,,,,,,,,,,,,,,,,,,,,,,,,,,,,,,,,,,,,,,,,,,,,,,,,,,,,,,,,,,,,,,,,,,,,,,,,,,,,,,,,,,,,,,,,,,,,,,,,,,,,,,,,,,,,,,,
1764665198.002108,1764665197.999641,35531,0,4373.846191,4394.102539,4479.871582,4507.820313,4383.974121,4510.128418,4527.820313,4377.179688,4546.153809,4359.358887,4486.410156,4504.615234,4562.436035,4389.487305,4372.436035,4483.974121,4537.307617,4515.897461,4493.717773,4370.512695,4380.128418,4552.563965,4509.230957,4487.307617,4385.897461,4549.102539,4374.871582,4547.94873,4498.205078,4392.692383,4510.769043,4478.589844,2702,1,26,2575,9004,,,,0,4,4,4,4,4,4,4,4,4,4,4,4,4,4,4,4,4,4,4,4,4,4,4,4,4,4,4,4,4,4,4,4,100,,,,,,,,,,,,,,,,,,,,,,,,,,,,,,,,,,,,,,,,,,,,,,,,,,,,,,,,,,,,,,,,,,,,,,,,,,,,,,,,,,,,,,,,,,,,,,,,,,,,,,,,,,,,,,,,,,,,,,,,,,,,,,,,,,,,,,,,,,,,,,,,,,,,,,,,,,,,,,,,,,,,,,,,,,,,,,,,,,,,,,,,,,,,,,,,,,,,,,,,,,,,,,
1764665198.006016,1764665198.003549,35532,0,4374.615234,4395.897461,4477.94873,4506.025879,4382.820313,4506.282227,4528.974121,4379.102539,4549.871582,4368.717773,4489.615234,4506.922852,4560.512695,4387.563965,4370,4485.897461,4541.025879,4518.077148,4495.641113,4370,4377.436035,4556.666504,4508.846191,4489.102539,4377.05127,4552.692383,4375.641113,4549.102539,4498.974121,4391.410156,4506.666504,4475.384766,2508,1,26,2576,9011,,,,0,4,4,4,4,4,4,4,4,4,4,4,4,4,4,4,4,4,4,4,4,4,4,4,4,4,4,4,4,4,4,4,4,100,,,,,,,,,,,,,,,,,,,,,,,,,,,,,,,,,,,,,,,,,,,,,,,,,,,,,,,,,,,,,,,,,,,,,,,,,,,,,,,,,,,,,,,,,,,,,,,,,,,,,,,,,,,,,,,,,,,,,,,,,,,,,,,,,,,,,,,,,,,,,,,,,,,,,,,,,,,,,,,,,,,,,,,,,,,,,,,,,,,,,,,,,,,,,,,,,,,,,,,,,,,,,,
1764665198.009925,1764665198.007456,35533,0,4375.641113,4395.512695,4474.230957,4502.820313,4380.384766,4503.589844,4528.333496,4378.077148,4551.282227,4375.769043,4490,4507.563965,4557.692383,4386.666504,4367.436035,4487.820313,4540,4520.384766,4496.922852,4367.179688,4373.974121,4557.563965,4507.692383,4488.461426,4365.641113,4553.205078,4373.974121,4549.102539,4498.461426,4389.358887,4502.563965,4472.563965,2249,1,26,2576,9011,,,,0,4,4,4,4,4,4,4,4,4,4,4,4,4,4,4,4,4,4,4,4,4,4,4,4,4,4,4,4,4,4,4,4,100,,,,,,,,,,,,,,,,,,,,,,,,,,,,,,,,,,,25267,0,0.253328,-0.611755,-0.722656,0.198364,0.971798,0.164571,0.02344,24,29,44.166668,,,,,,,,,,,,,,,,,,,,,,,,,,,,,,,,,,,,,,,,,,,,,,,,,,,,,,,,,,,,,,,,,,,,,,,,,,,,,,,,,,,,,,,,,,,,,,,,,,,,,,,,,,,,,,,,,,,,,,,,,,,,,,,,,,,,,,,,,,,,,,,,,,,,,,,,,,,,,,,,
1764665198.013833,1764665198.011364,35534,0,4378.461426,4395.641113,4472.820313,4501.410156,4381.538574,4505,4528.589844,4377.307617,4550.897461,4378.846191,4488.717773,4508.077148,4557.436035,4388.205078,4367.436035,4489.871582,4537.307617,4523.077148,4497.692383,4364.743652,4372.94873,4557.05127,4507.94873,4487.05127,4359.743652,4552.94873,4372.436035,4551.153809,4498.077148,4389.871582,4502.05127,4472.692383,2719,1,26,2576,9019,,,,0,4,4,4,4,4,4,4,4,4,4,4,4,4,4,4,4,4,4,4,4,4,4,4,4,4,4,4,4,4,4,4,4,100,,,,,,,,,,,,,,,,,,,,,,,,,,,,,,,,,,,,,,,,,,,,,,,,,,,,,,,,,,,,,,,,,,,,,,,,,,,,,,,,,,,,,,,,,,,,,,,,,,,,,,,,,,,,,,,,,,,,,,,,,,,,,,,,,,,,,,,,,,,,,,,,,,,,,,,,,,,,,,,,,,,,,,,,,,,,,,,,,,,,,,,,,,,,,,,,,,,,,,,,,,,,,,
1764665198.017741,1764665198.015271,35535,0,4383.717773,4398.205078,4476.538574,4503.589844,4387.692383,4510.641113,4531.538574,4379.487305,4551.410156,4380.128418,4489.358887,4510.641113,4561.153809,4392.563965,4371.153809,4491.922852,4537.692383,4526.282227,4498.717773,4365.384766,4375.512695,4558.077148,4511.282227,4487.179688,4365.384766,4554.358887,4373.846191,4556.794922,4499.102539,4393.974121,4506.282227,4476.282227,2510,1,26,2576,9019,,,,0,4,4,4,4,4,4,4,4,4,4,4,4,4,4,4,4,4,4,4,4,4,4,4,4,4,4,4,4,4,4,4,4,100,,,,,,,,,,,,,,,,,,,,,,,,,,,,,,,,,,,,,,,,,,,,,,,,,,,,,,,,,,,,,,,,,,,,,,,,,,,,,,,,,,,,,,,,,,,,,,,,,,,,,,,,,,,,,,,,,,,,,,,,,,,,,,,,,,,,,,,,,,,,,,,,,,,,,,,,,,,,,,,,,,,,,,,,,,,,,,,,,,,,,,,,,,,,,,,,,,,,,,,,,,,,,,
1764665198.021649,1764665198.019178,35536,0,4389.102539,4402.436035,4483.589844,4507.563965,4395.897461,4517.179688,4536.282227,4384.487305,4554.230957,4382.820313,4492.94873,4515.384766,4566.794922,4397.563965,4376.666504,4493.589844,4542.05127,4529.487305,4500,4369.615234,4380,4561.282227,4516.410156,4489.358887,4381.538574,4557.692383,4378.205078,4563.974121,4501.410156,4399.358887,4512.563965,4480.769043,2873,1,26,2576,9027,,,,0,4,4,4,4,4,4,4,4,4,4,4,4,4,4,4,4,4,4,4,4,4,4,4,4,4,4,4,4,4,4,4,4,100,,,,,,,,,,,,,,,,,,,,,,,,,,,,,,,,,,,,,,,,,,,,,,,,,,,,,,,,,,,,,,,,,,,,,,,,,,,,,,,,,,,,,,,,,,,,,,,,,,,,,,,,,,,,,,,,,,,,,,,,,,,,,,,,,,,,,,,,,,,,,,,,,,,,,,,,,,,,,,,,,,,,,,,,,,,,,,,,,,,,,,,,,,,,,,,,,,,,,,,,,,,,,,
1764665198.025557,1764665198.023086,35537,0,4390.897461,4404.871582,4488.461426,4509.358887,4400.256348,4520,4540.128418,4388.974121,4558.077148,4387.692383,4497.05127,4520,4571.025879,4400.256348,4380.512695,4494.487305,4547.179688,4531.282227,4500.897461,4374.871582,4383.333496,4565,4520.256348,4491.922852,4398.974121,4559.871582,4382.05127,4568.077148,4503.333496,4402.05127,4516.282227,4482.436035,2922,1,26,2576,9027,,,,0,4,4,4,4,4,4,4,4,4,4,4,4,4,4,4,4,4,4,4,4,4,4,4,4,4,4,4,4,4,4,4,4,100,,,,,,,,,,,,,,,,,,,,,,,,,,,,,,,,,,,25268,0,0.253376,-0.611755,-0.722656,0.198303,0.971798,0.164571,0.02344,21,28.833334,41.333332,,,,,,,,,,,,,,,,,,,,,,,,,,,,,,,,,,,,,,,,,,,,,,,,,,,,,,,,,,,,,,,,,,,,,,,,,,,,,,,,,,,,,,,,,,,,,,,,,,,,,,,,,,,,,,,,,,,,,,,,,,,,,,,,,,,,,,,,,,,,,,,,,,,,,,,,,,,,,,,,
1764665198.029466,1764665198.026993,35538,0,4386.282227,4402.820313,4486.153809,4506.794922,4397.179688,4516.922852,4540.128418,4389.743652,4560,4391.666504,4497.05127,4521.025879,4571.025879,4397.820313,4379.871582,4494.230957,4548.077148,4529.358887,4500.256348,4377.179688,4383.589844,4565.256348,4520.128418,4491.666504,4407.05127,4558.205078,4381.025879,4565.641113,4502.820313,4399.615234,4513.589844,4478.461426,1760,1,26,2576,9035,,,,0,4,4,4,4,4,4,4,4,4,4,4,4,4,4,4,4,4,4,4,4,4,4,4,4,4,4,4,4,4,4,4,4,100,,,,,,,,,,,,,,,,,,,,,,,,,,,,,,,,,,,,,,,,,,,,,,,,,,,,,,,,,,,,,,,,,,,,,,,,,,,,,,,,,,,,,,,,,,,,,,,,,,,,,,,,,,,,,,,,,,,,,,,,,,,,,,,,,,,,,,,,,,,,,,,,,,,,,,,,,,,,,,,,,,,,,,,,,,,,,,,,,,,,,,,,,,,,,,,,,,,,,,,,,,,,,,
1764665198.033374,1764665198.030901,35539,0,4375.769043,4395.641113,4475.769043,4500.256348,4387.820313,4509.230957,4535.384766,4385.384766,4557.05127,4391.025879,4490.641113,4516.538574,4565.897461,4390.641113,4374.743652,4491.666504,4541.410156,4522.94873,4497.307617,4373.846191,4380.128418,4559.871582,4515,4486.282227,4401.025879,4551.410156,4373.589844,4556.666504,4499.230957,4392.820313,4504.358887,4469.230957,2968,1,26,2576,9035,,,,0,4,4,4,4,4,4,4,4,4,4,4,4,4,4,4,4,4,4,4,4,4,4,4,4,4,4,4,4,4,4,4,4,100,,,,,,,,,,,,,,,,,,,,,,,,,,,,,,,,,,,,,,,,,,,,,,,,,,,,,,,,,,,,,,,,,,,,,,,,,,,,,,,,,,,,,,,,,,,,,,,,,,,,,,,,,,,,,,,,,,,,,,,,,,,,,,,,,,,,,,,,,,,,,,,,,,,,,,,,,,,,,,,,,,,,,,,,,,,,,,,,,,,,,,,,,,,,,,,,,,,,,,,,,,,,,,
1764665198.037282,1764665198.034808,35540,0,4363.717773,4386.282227,4461.666504,4492.179688,4376.282227,4500.384766,4527.05127,4377.436035,4548.846191,4383.589844,4479.615234,4507.563965,4557.563965,4381.153809,4367.820313,4486.282227,4529.358887,4513.846191,4492.563965,4365.641113,4374.102539,4549.871582,4506.538574,4476.410156,4385.128418,4541.666504,4362.94873,4544.230957,4493.717773,4384.102539,4492.820313,4458.589844,2524,1,26,2576,9043,,,,0,4,4,4,4,4,4,4,4,4,4,4,4,4,4,4,4,4,4,4,4,4,4,4,4,4,4,4,4,4,4,4,4,100,,,,,,,,,,,,,,,,,,,,,,,,,,,,,,,,,,,,,,,,,,,,,,,,,,,,,,,,,,,,,,,,,,,,,,,,,,,,,,,,,,,,,,,,,,,,,,,,,,,,,,,,,,,,,,,,,,,,,,,,,,,,,,,,,,,,,,,,,,,,,,,,,,,,,,,,,,,,,,,,,,,,,,,,,,,,,,,,,,,,,,,,,,,,,,,,,,,,,,,,,,,,,,
1764665198.041191,1764665198.038716,35541,0,4355.641113,4378.846191,4451.025879,4486.025879,4368.077148,4494.230957,4518.846191,4370.128418,4538.717773,4371.922852,4469.871582,4499.102539,4549.743652,4373.717773,4362.94873,4480,4518.205078,4506.025879,4488.461426,4357.05127,4368.205078,4540.641113,4498.461426,4466.538574,4370,4533.717773,4354.743652,4533.846191,4488.846191,4377.05127,4485,4451.538574,2826,1,26,2576,9043,,,,0,4,4,4,4,4,4,4,4,4,4,4,4,4,4,4,4,4,4,4,4,4,4,4,4,4,4,4,4,4,4,4,4,100,,,,,,,,,,,,,,,,,,,,,,,,,,,,,,,,,,,25269,0,0.253502,-0.611755,-0.722595,0.198364,0.978635,0.168966,0.045416,23.666666,29.833334,42.833332,,,,,,,,,,,,,,,,,,,,,,,,,,,,,,,,,,,,,,,,,,,,,,,,,,,,,,,,,,,,,,,,,,,,,,,,,,,,,,,,,,,,,,,,,,,,,,,,,,,,,,,,,,,,,,,,,,,,,,,,,,,,,,,,,,,,,,,,,,,,,,,,,,,,,,,,,,,,,,,,
1764665198.045099,1764665198.042623,35542,0,4355.641113,4377.179688,4449.102539,4484.871582,4367.307617,4493.846191,4515.128418,4368.205078,4532.820313,4361.922852,4467.179688,4496.666504,4547.436035,4372.179688,4363.846191,4477.436035,4515.128418,4504.358887,4488.205078,4354.230957,4366.794922,4538.205078,4495.128418,4462.94873,4364.358887,4532.307617,4354.487305,4530.769043,4486.922852,4375.384766,4486.025879,4451.666504,2932,1,26,2574,9051,,,,0,4,4,4,4,4,4,4,4,4,4,4,4,4,4,4,4,4,4,4,4,4,4,4,4,4,4,4,4,4,4,4,4,100,,,,,,,,,,,,,,,,,,,,,,,,,,,,,,,,,,,,,,,,,,,,,,,,,,,,,,,,,,,,,,,,,,,,,,,,,,,,,,,,,,,,,,,,,,,,,,,,,,,,,,,,,,,,,,,,,,,,,,,,,,,,,,,,,,,,,,,,,,,,,,,,,,,,,,,,,,,,,,,,,,,,,,,,,,,,,,,,,,,,,,,,,,,,,,,,,,,,,,,,,,,,,,
1764665198.049007,1764665198.046531,35543,0,4364.487305,4382.820313,4457.179688,4490,4374.487305,4500,4518.589844,4373.974121,4536.538574,4359.743652,4473.589844,4502.94873,4553.461426,4377.820313,4371.410156,4482.179688,4523.589844,4511.794922,4493.717773,4360.769043,4372.820313,4545.641113,4499.230957,4469.358887,4370.128418,4539.102539,4363.717773,4537.05127,4490,4381.410156,4497.179688,4459.743652,2845,1,26,2574,9051,,,,0,4,4,4,4,4,4,4,4,4,4,4,4,4,4,4,4,4,4,4,4,4,4,4,4,4,4,4,4,4,4,4,4,100,,,,,,,,,,,,,,,,,,,,,,,,,,,,,,,,,,,,,,,,,,,,,,,,,,,,,,,,,,,,,,,,,,,,,,,,,,,,,,,,,,,,,,,,,,,,,,,,,,,,,,,,,,,,,,,,,,,,,,,,,,,,,,,,,,,,,,,,,,,,,,,,,,,,,,,,,,,,,,,,,,,,,,,,,,,,,,,,,,,,,,,,,,,,,,,,,,,,,,,,,,,,,,
1764665198.052915,1764665198.050438,35544,0,4378.333496,4393.333496,4470.769043,4499.102539,4386.282227,4510.384766,4528.205078,4385.512695,4549.743652,4366.794922,4485,4515.384766,4566.282227,4387.820313,4382.692383,4494.102539,4539.743652,4526.666504,4503.461426,4374.487305,4385,4560.256348,4510.128418,4483.333496,4381.153809,4550.897461,4378.974121,4550,4497.820313,4394.102539,4513.974121,4472.692383,2770,1,26,2575,9058,,,,0,4,4,4,4,4,4,4,4,4,4,4,4,4,4,4,4,4,4,4,4,4,4,4,4,4,4,4,4,4,4,4,4,100,,,,,,,,,,,,,,,,,,,,,,,,,,,,,,,,,,,,,,,,,,,,,,,,,,,,,,,,,,,,,,,,,,,,,,,,,,,,,,,,,,,,,,,,,,,,,,,,,,,,,,,,,,,,,,,,,,,,,,,,,,,,,,,,,,,,,,,,,,,,,,,,,,,,,,,,,,,,,,,,,,,,,,,,,,,,,,,,,,,,,,,,,,,,,,,,,,,,,,,,,,,,,,
1764665198.056824,1764665198.054345,35545,0,4390.512695,4403.205078,4482.436035,4507.563965,4397.05127,4520.256348,4539.358887,4396.025879,4565,4378.589844,4494.487305,4528.205078,4579.743652,4396.538574,4392.436035,4507.179688,4555.384766,4541.666504,4512.563965,4387.436035,4397.436035,4574.743652,4522.436035,4497.307617,4389.871582,4561.282227,4392.94873,4562.94873,4507.307617,4408.077148,4528.589844,4483.974121,2822,1,26,2575,9058,,,,0,4,4,4,4,4,4,4,4,4,4,4,4,4,4,4,4,4,4,4,4,4,4,4,4,4,4,4,4,4,4,4,4,100,,,,,,,,,,,,,,,,,,,,,,,,,,,,,,,,,,,25270,0,0.253874,-0.611633,-0.722534,0.198486,0.978635,0.171408,0.013185,23.666666,29.833334,42.833332,,,,,,,,,,,,,,,,,,,,,,,,,,,,,,,,,,,,,,,,,,,,,,,,,,,,,,,,,,,,,,,,,,,,,,,,,,,,,,,,,,,,,,,,,,,,,,,,,,,,,,,,,,,,,,,,,,,,,,,,,,,,,,,,,,,,,,,,,,,,,,,,,,,,,,,,,,,,,,,,
1764665198.060732,1764665198.058253,35546,0,4395,4406.538574,4486.025879,4510.512695,4401.410156,4523.974121,4546.025879,4399.230957,4572.563965,4387.179688,4496.794922,4535.384766,4586.922852,4398.461426,4395.897461,4514.102539,4562.307617,4548.717773,4515.128418,4391.538574,4403.205078,4581.538574,4529.230957,4503.461426,4392.436035,4564.743652,4398.461426,4568.974121,4513.846191,4416.025879,4533.717773,4487.563965,1958,1,26,2569,9066,,,,0,4,4,4,4,4,4,4,4,4,4,4,4,4,4,4,4,4,4,4,4,4,4,4,4,4,4,4,4,4,4,4,4,100,,,,,,,,,,,,,,,,,,,,,,,,,,,,,,,,,,,,,,,,,,,,,,,1.113142,0.862031,0.340088,0.768469,0.731384,1.809974,0.544052,0.525119,0.975179,0.705564,1.950204,0.625364,1.295455,0.89645,0.779773,1.989489,0.369231,0.990046,1.093807,0.662364,1.646843,0.681945,1.345577,0.926008,0.682691,1.186,0.69898,0.661385,0.702195,0.559719,0.832723,0.688869,0.608775,0.878148,0.642957,0.919134,0.519704,0.538075,0.837531,0.755837,1.43817,0.686926,0.658813,1.097266,0.933526,1.31609,1.550012,1.01553,1.489722,1.009728,0.593217,0.572841,0.526153,0.545232,0.554609,1.066846,1.278386,0.431996,0.841246,0.6511,0.623783,0.776534,0.562892,0.756348,0.685374,1.302893,1.53628,0.337453,0.537477,0.518673,0.834981,0.529863,0.165022,0.72962,0.656949,0.654806,0.617696,0.36562,0.768552,0.503519,0.948435,1.105493,0.439934,0.999847,0.709189,0.693371,1.24031,0.41474,1.06838,0.763353,0.507289,0.732029,0.430861,0.717733,0.410517,0.901206,0.76258,0.803206,0.799077,0.808091,2.04899,1.428691,0.783548,0.831204,0.731412,1.460115,1.585915,0.5808,0.811075,0.765168,1.063438,0.935629,0.322765,0.984541,0.584981,1.622179,1.267207,0.906004,0.92691,0.754499,2.913951,1.270308,1.643241,1.746877,1.672629,1.631773,0.981652,0.930169,0.76903,0.700581,1.211938,0.863993,0.636952,1.033876,0.913967,0.827226,1.093873,0.683477,0.977349,0.831491,0.612573,0.495737,0.260299,0.466298,0.330391,1.190817,0.708605,0.726091,0.850066,0.808234,1.357676,0.812973,1.127879,0.948251,0.81322,1.481674,0.653181,0.987003,0.876145,0.82413
1764665198.064640,1764665198.062160,35547,0,4389.871582,4401.282227,4480,4506.666504,4397.563965,4518.974121,4545.128418,4393.589844,4567.692383,4386.538574,4491.282227,4534.487305,4584.487305,4392.692383,4391.538574,4510.512695,4557.563965,4544.230957,4509.358887,4384.358887,4398.461426,4577.692383,4526.282227,4498.974121,4389.102539,4559.487305,4392.820313,4565.641113,4513.461426,4413.461426,4527.436035,4482.05127,2642,1,26,2569,9066,,,,0,4,4,4,4,4,4,4,4,4,4,4,4,4,4,4,4,4,4,4,4,4,4,4,4,4,4,4,4,4,4,4,4,100,,,,,,,,,,,,,,,,,,,,,,,,,,,,,,,,,,,,,,,,,,,,,,,,,,,,,,,,,,,,,,,,,,,,,,,,,,,,,,,,,,,,,,,,,,,,,,,,,,,,,,,,,,,,,,,,,,,,,,,,,,,,,,,,,,,,,,,,,,,,,,,,,,,,,,,,,,,,,,,,,,,,,,,,,,,,,,,,,,,,,,,,,,,,,,,,,,,,,,,,,,,,,,
1764665198.068548,1764665198.066068,35548,0,4379.102539,4389.871582,4468.846191,4498.077148,4387.94873,4508.205078,4538.077148,4383.205078,4553.333496,4377.307617,4481.794922,4526.794922,4574.871582,4381.922852,4382.179688,4498.077148,4544.230957,4530.769043,4498.974121,4370.897461,4385.384766,4566.025879,4515.512695,4486.794922,4382.692383,4549.102539,4379.487305,4555.128418,4506.538574,4401.922852,4514.102539,4471.538574,2691,1,26,2565,9074,,,,0,4,4,4,4,4,4,4,4,4,4,4,4,4,4,4,4,4,4,4,4,4,4,4,4,4,4,4,4,4,4,4,4,100,,,,,,,,,,,,,,,,,,,,,,,,,,,,,,,,,,,,,,,,,,,,,,,,,,,,,,,,,,,,,,,,,,,,,,,,,,,,,,,,,,,,,,,,,,,,,,,,,,,,,,,,,,,,,,,,,,,,,,,,,,,,,,,,,,,,,,,,,,,,,,,,,,,,,,,,,,,,,,,,,,,,,,,,,,,,,,,,,,,,,,,,,,,,,,,,,,,,,,,,,,,,,,
1764665198.072457,1764665198.069975,35549,0,4368.974121,4378.333496,4458.974121,4489.487305,4377.94873,4497.563965,4529.102539,4374.230957,4537.692383,4365.256348,4473.589844,4516.922852,4563.717773,4371.538574,4372.692383,4483.461426,4530,4516.282227,4490.128418,4359.487305,4371.153809,4553.333496,4503.461426,4473.717773,4376.410156,4539.487305,4365.128418,4542.820313,4496.922852,4387.563965,4501.410156,4463.077148,2510,1,26,2565,9074,,,,0,4,4,4,4,4,4,4,4,4,4,4,4,4,4,4,4,4,4,4,4,4,4,4,4,4,4,4,4,4,4,4,4,100,,,,,,,,,,,,,,,,,,,,,,,,,,,,,,,,,,,25271,0,0.254042,-0.611511,-0.722595,0.198425,0.97424,0.171896,0.041997,21.666666,30.166666,43.333332,,,,,,,,,,,,,,,,,,,,,,,,,,,,,,,,,,,,,,,,,,,,,,,,,,,,,,,,,,,,,,,,,,,,,,,,,,,,,,,,,,,,,,,,,,,,,,,,,,,,,,,,,,,,,,,,,,,,,,,,,,,,,,,,,,,,,,,,,,,,,,,,,,,,,,,,,,,,,,,,
1764665198.076365,1764665198.073883,35550,0,4363.846191,4372.563965,4455.769043,4485.128418,4372.179688,4492.179688,4522.436035,4370.769043,4529.743652,4357.307617,4470,4509.487305,4555.641113,4366.025879,4367.563965,4474.743652,4521.794922,4508.077148,4487.307617,4355.897461,4362.94873,4545.641113,4496.922852,4466.282227,4373.077148,4535.769043,4356.282227,4533.846191,4489.871582,4378.589844,4495,4461.538574,2657,1,26,2561,9082,,,,0,4,4,4,4,4,4,4,4,4,4,4,4,4,4,4,4,4,4,4,4,4,4,4,4,4,4,4,4,4,4,4,4,100,,,,,,,,,,,,,,,,,,,,,,,,,,,,,,,,,,,,,,,,,,,,,,,,,,,,,,,,,,,,,,,,,,,,,,,,,,,,,,,,,,,,,,,,,,,,,,,,,,,,,,,,,,,,,,,,,,,,,,,,,,,,,,,,,,,,,,,,,,,,,,,,,,,,,,,,,,,,,,,,,,,,,,,,,,,,,,,,,,,,,,,,,,,,,,,,,,,,,,,,,,,,,,
1764665198.080273,1764665198.077790,35551,0,4364.487305,4374.615234,4460.384766,4486.410156,4372.05127,4493.333496,4520.384766,4372.692383,4533.461426,4357.563965,4471.282227,4507.179688,4552.820313,4366.538574,4368.333496,4475.769043,4522.436035,4508.974121,4490.769043,4359.871582,4364.102539,4545.128418,4498.333496,4467.436035,4373.589844,4538.846191,4355.256348,4531.538574,4488.333496,4379.230957,4496.922852,4466.922852,2831,1,26,2561,9082,,,,0,4,4,4,4,4,4,4,4,4,4,4,4,4,4,4,4,4,4,4,4,4,4,4,4,4,4,4,4,4,4,4,4,100,,,,,,,,,,,,,,,,,,,,,,,,,,,,,,,,,,,,,,,,,,,,,,,,,,,,,,,,,,,,,,,,,,,,,,,,,,,,,,,,,,,,,,,,,,,,,,,,,,,,,,,,,,,,,,,,,,,,,,,,,,,,,,,,,,,,,,,,,,,,,,,,,,,,,,,,,,,,,,,,,,,,,,,,,,,,,,,,,,,,,,,,,,,,,,,,,,,,,,,,,,,,,,
1764665198.084181,1764665198.081698,35552,0,4367.94873,4381.410156,4469.871582,4491.410156,4375.769043,4497.820313,4522.820313,4377.05127,4545.641113,4365.897461,4474.615234,4509.615234,4554.358887,4371.538574,4372.820313,4483.846191,4528.846191,4515.897461,4496.282227,4366.666504,4371.922852,4549.871582,4505.128418,4474.230957,4375.128418,4545,4359.743652,4535.384766,4491.153809,4387.307617,4503.846191,4474.615234,2762,1,26,2048,9090,,,,0,4,4,4,4,4,4,4,4,4,4,4,4,4,4,4,4,4,4,4,4,4,4,4,4,4,4,4,4,4,4,4,4,100,,,,,,,,,,,,,,,,,,,,,,,,,,,,,,,,,,,,,,,,,,,,,,,,,,,,,,,,,,,,,,,,,,,,,,,,,,,,,,,,,,,,,,,,,,,,,,,,,,,,,,,,,,,,,,,,,,,,,,,,,,,,,,,,,,,,,,,,,,,,,,,,,,,,,,,,,,,,,,,,,,,,,,,,,,,,,,,,,,,,,,,,,,,,,,,,,,,,,,,,,,,,,,
1764665198.088090,1764665198.085605,35553,0,4369.871582,4386.538574,4477.820313,4495.897461,4379.102539,4500.897461,4526.282227,4379.743652,4557.563965,4377.692383,4476.922852,4513.461426,4557.05127,4377.179688,4376.794922,4491.282227,4534.743652,4522.692383,4498.717773,4370.256348,4379.487305,4554.871582,4511.025879,4480.256348,4373.077148,4548.589844,4364.871582,4540.897461,4494.615234,4396.025879,4509.615234,4479.743652,2926,1,26,2048,9090,,,,0,4,4,4,4,4,4,4,4,4,4,4,4,4,4,4,4,4,4,4,4,4,4,4,4,4,4,4,4,4,4,4,4,100,,,,,,,,,,,,,,,,,,,,,,,,,,,,,,,,,,,25272,0,0.25409,-0.611511,-0.722595,0.198364,0.981077,0.170919,0.02637,22,31,44.166668,,,,,,,,,,,,,,,,,,,,,,,,,,,,,,,,,,,,,,,,,,,,,,,,,,,,,,,,,,,,,,,,,,,,,,,,,,,,,,,,,,,,,,,,,,,,,,,,,,,,,,,,,,,,,,,,,,,,,,,,,,,,,,,,,,,,,,,,,,,,,,,,,,,,,,,,,,,,,,,,
1764665198.091998,1764665198.089512,35554,0,4367.820313,4385.769043,4479.358887,4496.282227,4379.230957,4499.102539,4527.692383,4378.717773,4561.282227,4386.538574,4476.282227,4514.487305,4557.94873,4379.871582,4376.538574,4491.794922,4535,4524.358887,4495.641113,4367.94873,4380.641113,4555.384766,4510.769043,4480.769043,4366.153809,4546.282227,4366.922852,4543.205078,4495,4398.589844,4509.487305,4479.615234,2602,1,26,2304,9097,,,,0,4,4,4,4,4,4,4,4,4,4,4,4,4,4,4,4,4,4,4,4,4,4,4,4,4,4,4,4,4,4,4,4,100,,,,,,,,,,,,,,,,,,,,,,,,,,,,,,,,,,,,,,,,,,,,,,,,,,,,,,,,,,,,,,,,,,,,,,,,,,,,,,,,,,,,,,,,,,,,,,,,,,,,,,,,,,,,,,,,,,,,,,,,,,,,,,,,,,,,,,,,,,,,,,,,,,,,,,,,,,,,,,,,,,,,,,,,,,,,,,,,,,,,,,,,,,,,,,,,,,,,,,,,,,,,,,
1764665198.095906,1764665198.093420,35555,0,4362.820313,4380,4474.743652,4492.94873,4376.666504,4493.974121,4525.897461,4375.256348,4555.512695,4387.820313,4473.589844,4511.282227,4556.153809,4378.846191,4372.307617,4485.256348,4529.358887,4520.256348,4489.743652,4362.179688,4374.871582,4551.282227,4504.615234,4476.794922,4358.717773,4539.871582,4365.641113,4541.410156,4491.794922,4394.230957,4504.871582,4476.410156,2861,1,26,2304,9097,,,,0,4,4,4,4,4,4,4,4,4,4,4,4,4,4,4,4,4,4,4,4,4,4,4,4,4,4,4,4,4,4,4,4,100,,,,,,,,,,,,,,,,,,,,,,,,,,,,,,,,,,,,,,,,,,,,,,,,,,,,,,,,,,,,,,,,,,,,,,,,,,,,,,,,,,,,,,,,,,,,,,,,,,,,,,,,,,,,,,,,,,,,,,,,,,,,,,,,,,,,,,,,,,,,,,,,,,,,,,,,,,,,,,,,,,,,,,,,,,,,,,,,,,,,,,,,,,,,,,,,,,,,,,,,,,,,,,
1764665198.099815,1764665198.097327,35556,0,4358.974121,4375.256348,4470.512695,4489.871582,4374.743652,4490.128418,4523.077148,4373.077148,4546.282227,4380.512695,4471.025879,4506.153809,4553.205078,4376.153809,4367.820313,4477.436035,4522.563965,4514.871582,4486.282227,4358.333496,4367.692383,4546.666504,4498.589844,4473.846191,4358.333496,4535.256348,4364.487305,4538.974121,4488.205078,4387.94873,4501.538574,4475.512695,2750,1,26,2560,9105,,,,0,4,4,4,4,4,4,4,4,4,4,4,4,4,4,4,4,4,4,4,4,4,4,4,4,4,4,4,4,4,4,4,4,100,,,,,,,,,,,,,,,,,,,,,,,,,,,,,,,,,,,,,,,,,,,,,,,,,,,,,,,,,,,,,,,,,,,,,,,,,,,,,,,,,,,,,,,,,,,,,,,,,,,,,,,,,,,,,,,,,,,,,,,,,,,,,,,,,,,,,,,,,,,,,,,,,,,,,,,,,,,,,,,,,,,,,,,,,,,,,,,,,,,,,,,,,,,,,,,,,,,,,,,,,,,,,,
1764665198.103723,1764665198.101235,35557,0,4359.743652,4377.05127,4472.692383,4490.769043,4376.794922,4492.307617,4522.563965,4375.128418,4541.282227,4367.692383,4470.512695,4503.333496,4551.794922,4375.512695,4367.692383,4474.743652,4520,4513.333496,4488.589844,4360.641113,4365.769043,4546.410156,4498.461426,4476.282227,4368.461426,4537.563965,4366.666504,4540,4487.94873,4386.025879,4504.230957,4480.128418,2795,1,26,2560,9105,,,,0,4,4,4,4,4,4,4,4,4,4,4,4,4,4,4,4,4,4,4,4,4,4,4,4,4,4,4,4,4,4,4,4,100,,,,,,,,,,,,,,,,,,,,,,,,,,,,,,,,,,,25273,0,0.254264,-0.611511,-0.722534,0.198364,0.989867,0.170919,0.042974,21.833334,30,41.833332,,,,,,,,,,,,,,,,,,,,,,,,,,,,,,,,,,,,,,,,,,,,,,,,,,,,,,,,,,,,,,,,,,,,,,,,,,,,,,,,,,,,,,,,,,,,,,,,,,,,,,,,,,,,,,,,,,,,,,,,,,,,,,,,,,,,,,,,,,,,,,,,,,,,,,,,,,,,,,,,
1764665198.107631,1764665198.105142,35558,0,4364.871582,4385.128418,4481.666504,4495.641113,4382.307617,4500.256348,4525.128418,4379.871582,4544.102539,4354.487305,4472.563965,4505.128418,4552.692383,4379.230957,4373.077148,4479.230957,4522.563965,4517.436035,4495,4367.820313,4371.282227,4551.282227,4505,4483.077148,4384.871582,4546.025879,4372.179688,4545,4492.563965,4390.384766,4512.05127,4488.717773,2796,1,26,2560,9113,,,,0,4,4,4,4,4,4,4,4,4,4,4,4,4,4,4,4,4,4,4,4,4,4,4,4,4,4,4,4,4,4,4,4,100,,,,,,,,,,,,,,,,,,,,,,,,,,,,,,,,,,,,,,,,,,,,,,,,,,,,,,,,,,,,,,,,,,,,,,,,,,,,,,,,,,,,,,,,,,,,,,,,,,,,,,,,,,,,,,,,,,,,,,,,,,,,,,,,,,,,,,,,,,,,,,,,,,,,,,,,,,,,,,,,,,,,,,,,,,,,,,,,,,,,,,,,,,,,,,,,,,,,,,,,,,,,,,
1764665198.111539,1764665198.109050,35559,0,4370.512695,4393.846191,4491.538574,4500.897461,4386.922852,4508.461426,4528.589844,4382.820313,4551.922852,4346.410156,4475,4509.615234,4554.487305,4385.897461,4380.128418,4487.05127,4527.05127,4523.717773,4500.769043,4375,4380,4557.179688,4512.692383,4488.846191,4398.974121,4555.256348,4377.820313,4550.512695,4498.717773,4397.179688,4519.487305,4496.153809,2982,1,26,2560,9113,,,,0,4,4,4,4,4,4,4,4,4,4,4,4,4,4,4,4,4,4,4,4,4,4,4,4,4,4,4,4,4,4,4,4,100,,,,,,,,,,,,,,,,,,,,,,,,,,,,,,,,,,,,,,,,,,,,,,,,,,,,,,,,,,,,,,,,,,,,,,,,,,,,,,,,,,,,,,,,,,,,,,,,,,,,,,,,,,,,,,,,,,,,,,,,,,,,,,,,,,,,,,,,,,,,,,,,,,,,,,,,,,,,,,,,,,,,,,,,,,,,,,,,,,,,,,,,,,,,,,,,,,,,,,,,,,,,,,
1764665198.115448,1764665198.112957,35560,0,4372.94873,4397.05127,4495.384766,4502.563965,4387.563965,4511.282227,4529.871582,4381.282227,4558.846191,4346.922852,4475.769043,4512.820313,4555.769043,4392.563965,4383.717773,4492.692383,4529.230957,4527.307617,4502.307617,4378.077148,4386.025879,4559.871582,4515.512695,4490.384766,4404.487305,4560.128418,4380.256348,4552.692383,4502.179688,4400.897461,4521.666504,4498.333496,2866,1,26,2561,9121,,,,0,4,4,4,4,4,4,4,4,4,4,4,4,4,4,4,4,4,4,4,4,4,4,4,4,4,4,4,4,4,4,4,4,100,,,,,,,,,,,,,,,,,,,,,,,,,,,,,,,,,,,,,,,,,,,,,,,,,,,,,,,,,,,,,,,,,,,,,,,,,,,,,,,,,,,,,,,,,,,,,,,,,,,,,,,,,,,,,,,,,,,,,,,,,,,,,,,,,,,,,,,,,,,,,,,,,,,,,,,,,,,,,,,,,,,,,,,,,,,,,,,,,,,,,,,,,,,,,,,,,,,,,,,,,,,,,,
1764665198.119356,1764665198.116865,35561,0,4371.922852,4393.589844,4491.922852,4500.897461,4384.871582,4508.333496,4528.205078,4377.307617,4560.769043,4356.410156,4474.615234,4512.179688,4556.153809,4395.384766,4381.025879,4492.563965,4528.717773,4526.794922,4500.128418,4376.666504,4386.538574,4558.205078,4512.436035,4488.205078,4401.538574,4559.358887,4378.205078,4550.641113,4501.025879,4399.487305,4518.846191,4495.256348,2716,1,26,2561,9121,,,,0,4,4,4,4,4,4,4,4,4,4,4,4,4,4,4,4,4,4,4,4,4,4,4,4,4,4,4,4,4,4,4,4,100,,,,,,,,,,,,,,,,,,,,,,,,,,,,,,,,,,,25274,0,0.254311,-0.611511,-0.722534,0.198303,0.981565,0.174338,0.037602,23.166666,29.333334,45.333332,,,,,,,,,,,,,,,,,,,,,,,,,,,,,,,,,,,,,,,,,,,,,,,,,,,,,,,,,,,,,,,,,,,,,,,,,,,,,,,,,,,,,,,,,,,,,,,,,,,,,,,,,,,,,,,,,,,,,,,,,,,,,,,,,,,,,,,,,,,,,,,,,,,,,,,,,,,,,,,,
1764665198.123264,1764665198.120772,35562,0,4370.512695,4387.94873,4485.769043,4499.358887,4382.94873,4504.358887,4525.512695,4375.641113,4558.333496,4371.153809,4473.461426,4508.717773,4556.538574,4393.589844,4375,4487.94873,4528.077148,4524.358887,4497.436035,4373.461426,4383.846191,4554.743652,4507.563965,4485.641113,4395,4556.410156,4374.743652,4547.307617,4498.077148,4395.897461,4515.641113,4490.512695,2281,1,26,2562,9129,,,,0,4,4,4,4,4,4,4,4,4,4,4,4,4,4,4,4,4,4,4,4,4,4,4,4,4,4,4,4,4,4,4,4,100,,,,,,,,,,,,,,,,,,,,,,,,,,,,,,,,,,,,,,,,,,,,,,,,,,,,,,,,,,,,,,,,,,,,,,,,,,,,,,,,,,,,,,,,,,,,,,,,,,,,,,,,,,,,,,,,,,,,,,,,,,,,,,,,,,,,,,,,,,,,,,,,,,,,,,,,,,,,,,,,,,,,,,,,,,,,,,,,,,,,,,,,,,,,,,,,,,,,,,,,,,,,,,
1764665198.127172,1764665198.124679,35563,0,4371.794922,4385.512695,4482.94873,4501.282227,4384.615234,4504.102539,4524.230957,4378.461426,4555,4384.871582,4475.128418,4505.512695,4557.436035,4389.615234,4371.025879,4482.307617,4529.358887,4523.461426,4496.794922,4371.153809,4381.410156,4553.077148,4505.641113,4485.128418,4388.974121,4555.641113,4373.461426,4546.282227,4496.922852,4394.487305,4515.641113,4488.333496,2692,1,26,2562,9129,,,,0,4,4,4,4,4,4,4,4,4,4,4,4,4,4,4,4,4,4,4,4,4,4,4,4,4,4,4,4,4,4,4,4,100,,,,,,,,,,,,,,,,,,,,,,,,,,,,,,,,,,,,,,,,,,,,,,,,,,,,,,,,,,,,,,,,,,,,,,,,,,,,,,,,,,,,,,,,,,,,,,,,,,,,,,,,,,,,,,,,,,,,,,,,,,,,,,,,,,,,,,,,,,,,,,,,,,,,,,,,,,,,,,,,,,,,,,,,,,,,,,,,,,,,,,,,,,,,,,,,,,,,,,,,,,,,,,
1764665198.131081,1764665198.128587,35564,0,4375.641113,4387.692383,4485.512695,4506.794922,4389.358887,4507.820313,4525.256348,4383.461426,4554.487305,4392.05127,4479.487305,4505.384766,4558.461426,4386.922852,4372.05127,4478.717773,4532.179688,4524.487305,4497.563965,4370.384766,4380.512695,4554.230957,4508.077148,4486.282227,4384.230957,4558.461426,4375.641113,4548.717773,4498.846191,4396.538574,4518.589844,4490,2495,1,26,2563,9136,,,,0,4,4,4,4,4,4,4,4,4,4,4,4,4,4,4,4,4,4,4,4,4,4,4,4,4,4,4,4,4,4,4,4,100,,,,,,,,,,,,,,,,,,,,,,,,,,,,,,,,,,,,,,,,,,,,,,,,,,,,,,,,,,,,,,,,,,,,,,,,,,,,,,,,,,,,,,,,,,,,,,,,,,,,,,,,,,,,,,,,,,,,,,,,,,,,,,,,,,,,,,,,,,,,,,,,,,,,,,,,,,,,,,,,,,,,,,,,,,,,,,,,,,,,,,,,,,,,,,,,,,,,,,,,,,,,,,
1764665198.134989,1764665198.132494,35565,0,4378.461426,4391.153809,4489.743652,4511.282227,4393.205078,4511.922852,4527.05127,4385.897461,4556.538574,4390.128418,4483.589844,4508.333496,4558.333496,4387.563965,4376.922852,4477.820313,4533.717773,4525.256348,4497.05127,4370.256348,4379.487305,4556.538574,4512.05127,4486.794922,4379.102539,4561.922852,4379.102539,4552.307617,4501.666504,4399.230957,4520.769043,4492.820313,2238,1,26,2563,9136,,,,0,4,4,4,4,4,4,4,4,4,4,4,4,4,4,4,4,4,4,4,4,4,4,4,4,4,4,4,4,4,4,4,4,100,,,,,,,,,,,,,,,,,,,,,,,,,,,,,,,,,,,25275,0,0.254086,-0.611572,-0.722595,0.198181,0.981565,0.174338,0.037602,21.666666,29.333334,45,,,,,,,,,,,,,,,,,,,,,,,,,,,,,,,,,,,,,,,,,,,,,,,,,,,,,,,,,,,,,,,,,,,,,,,,,,,,,,,,,,,,,,,,,,,,,,,,,,,,,,,,,,,,,,,,,,,,,,,,,,,,,,,,,,,,,,,,,,,,,,,,,,,,,,,,,,,,,,,,
