title:Happy1, start timestamp:1764666114.790539, stop timestamp:1764666131.797586, headset type:FLEX2, headset serial:F30002B4, headset firmware:2f10, channels:283, sampling rate:eeg_256;mot_64;pow_8, samples:4355      , version:2.2, ,,,,,,,,,,,,,,,,,,,,,,,,,,,,,,,,,,,,,,,,,,,,,,,,,,,,,,,,,,,,,,,,,,,,,,,,,,,,,,,,,,,,,,,,,,,,,,,,,,,,,,,,,,,,,,,,,,,,,,,,,,,,,,,,,,,,,,,,,,,,,,,,,,,,,,,,,,,,,,,,,,,,,,,,,,,,,,,,,,,,,,,,,,,,,,,,,,,,,,,,,,,,,,,,,,,,,,,,,,,,,,,,,,,,,,,,,,,,,,,,,,,,,,,,,,,,,,,,,,,,,,,,,,,,,,,,
Timestamp,EEG.Counter,EEG.Interpolated,EEG.Cz,EEG.Fz,EEG.Fp1,EEG.F7,EEG.F3,EEG.FC1,EEG.C3,EEG.FC5,EEG.FT9,EEG.T7,EEG.CP5,EEG.CP1,EEG.P3,EEG.P7,EEG.PO9,EEG.O1,EEG.Pz,EEG.Oz,EEG.O2,EEG.PO10,EEG.P8,EEG.P4,EEG.CP2,EEG.CP6,EEG.T8,EEG.FT10,EEG.FC6,EEG.C4,EEG.FC2,EEG.F4,EEG.F8,EEG.Fp2,EEG.RawCq,EEG.Battery,EEG.BatteryPercent,EEG.FwBufferSize,EEG.FwClockTime,MarkerIndex,MarkerType,MarkerValueInt,EEG.MarkerHardware,CQ.Cz,CQ.Fz,CQ.Fp1,CQ.F7,CQ.F3,CQ.FC1,CQ.C3,CQ.FC5,CQ.FT9,CQ.T7,CQ.CP5,CQ.CP1,CQ.P3,CQ.P7,CQ.PO9,CQ.O1,CQ.Pz,CQ.Oz,CQ.O2,CQ.PO10,CQ.P8,CQ.P4,CQ.CP2,CQ.CP6,CQ.T8,CQ.FT10,CQ.FC6,CQ.C4,CQ.FC2,CQ.F4,CQ.F8,CQ.Fp2,CQ.Overall,EQ.SampleRateQuality,EQ.OVERALL,EQ.Cz,EQ.Fz,EQ.Fp1,EQ.F7,EQ.F3,EQ.FC1,EQ.C3,EQ.FC5,EQ.FT9,EQ.T7,EQ.CP5,EQ.CP1,EQ.P3,EQ.P7,EQ.PO9,EQ.O1,EQ.Pz,EQ.Oz,EQ.O2,EQ.PO10,EQ.P8,EQ.P4,EQ.CP2,EQ.CP6,EQ.T8,EQ.FT10,EQ.FC6,EQ.C4,EQ.FC2,EQ.F4,EQ.F8,EQ.Fp2,MOT.CounterMems,MOT.InterpolatedMems,MOT.Q0,MOT.Q1,MOT.Q2,MOT.Q3,MOT.AccX,MOT.AccY,MOT.AccZ,MOT.MagX,MOT.MagY,MOT.MagZ,POW.Cz.Theta,POW.Cz.Alpha,POW.Cz.BetaL,POW.Cz.BetaH,POW.Cz.Gamma,POW.Fz.Theta,POW.Fz.Alpha,POW.Fz.BetaL,POW.Fz.BetaH,POW.Fz.Gamma,POW.Fp1.Theta,POW.Fp1.Alpha,POW.Fp1.BetaL,POW.Fp1.BetaH,POW.Fp1.Gamma,POW.F7.Theta,POW.F7.Alpha,POW.F7.BetaL,POW.F7.BetaH,POW.F7.Gamma,POW.F3.Theta,POW.F3.Alpha,POW.F3.BetaL,POW.F3.BetaH,POW.F3.Gamma,POW.FC1.Theta,POW.FC1.Alpha,POW.FC1.BetaL,POW.FC1.BetaH,POW.FC1.Gamma,POW.C3.Theta,POW.C3.Alpha,POW.C3.BetaL,POW.C3.BetaH,POW.C3.Gamma,POW.FC5.Theta,POW.FC5.Alpha,POW.FC5.BetaL,POW.FC5.BetaH,POW.FC5.Gamma,POW.FT9.Theta,POW.FT9.Alpha,POW.FT9.BetaL,POW.FT9.BetaH,POW.FT9.Gamma,POW.T7.Theta,POW.T7.Alpha,POW.T7.BetaL,POW.T7.BetaH,POW.T7.Gamma,POW.CP5.Theta,POW.CP5.Alpha,POW.CP5.BetaL,POW.CP5.BetaH,POW.CP5.Gamma,POW.CP1.Theta,POW.CP1.Alpha,POW.CP1.BetaL,POW.CP1.BetaH,POW.CP1.Gamma,POW.P3.Theta,POW.P3.Alpha,POW.P3.BetaL,POW.P3.BetaH,POW.P3.Gamma,POW.P7.Theta,POW.P7.Alpha,POW.P7.BetaL,POW.P7.BetaH,POW.P7.Gamma,POW.PO9.Theta,POW.PO9.Alpha,POW.PO9.BetaL,POW.PO9.BetaH,POW.PO9.Gamma,POW.O1.Theta,POW.O1.Alpha,POW.O1.BetaL,POW.O1.BetaH,POW.O1.Gamma,POW.Pz.Theta,POW.Pz.Alpha,POW.Pz.BetaL,POW.Pz.BetaH,POW.Pz.Gamma,POW.Oz.Theta,POW.Oz.Alpha,POW.Oz.BetaL,POW.Oz.BetaH,POW.Oz.Gamma,POW.O2.Theta,POW.O2.Alpha,POW.O2.BetaL,POW.O2.BetaH,POW.O2.Gamma,POW.PO10.Theta,POW.PO10.Alpha,POW.PO10.BetaL,POW.PO10.BetaH,POW.PO10.Gamma,POW.P8.Theta,POW.P8.Alpha,POW.P8.BetaL,POW.P8.BetaH,POW.P8.Gamma,POW.P4.Theta,POW.P4.Alpha,POW.P4.BetaL,POW.P4.BetaH,POW.P4.Gamma,POW.CP2.Theta,POW.CP2.Alpha,POW.CP2.BetaL,POW.CP2.BetaH,POW.CP2.Gamma,POW.CP6.Theta,POW.CP6.Alpha,POW.CP6.BetaL,POW.CP6.BetaH,POW.CP6.Gamma,POW.T8.Theta,POW.T8.Alpha,POW.T8.BetaL,POW.T8.BetaH,POW.T8.Gamma,POW.FT10.Theta,POW.FT10.Alpha,POW.FT10.BetaL,POW.FT10.BetaH,POW.FT10.Gamma,POW.FC6.Theta,POW.FC6.Alpha,POW.FC6.BetaL,POW.FC6.BetaH,POW.FC6.Gamma,POW.C4.Theta,POW.C4.Alpha,POW.C4.BetaL,POW.C4.BetaH,POW.C4.Gamma,POW.FC2.Theta,POW.FC2.Alpha,POW.FC2.BetaL,POW.FC2.BetaH,POW.FC2.Gamma,POW.F4.Theta,POW.F4.Alpha,POW.F4.BetaL,POW.F4.BetaH,POW.F4.Gamma,POW.F8.Theta,POW.F8.Alpha,POW.F8.BetaL,POW.F8.BetaH,POW.F8.Gamma,POW.Fp2.Theta,POW.Fp2.Alpha,POW.Fp2.BetaL,POW.Fp2.BetaH,POW.Fp2.Gamma
1764666121.687919,9883,0,4402.563965,4413.077148,4536.282227,4549.871582,4422.94873,4546.282227,4545.512695,4415.256348,4588.205078,4394.358887,4487.692383,4517.820313,4561.794922,4407.94873,4371.922852,4494.358887,4539.615234,4530.769043,4520.384766,4390.128418,4396.666504,4572.179688,4518.461426,4499.358887,4418.205078,4607.179688,4413.846191,4568.717773,4520.128418,4423.846191,4559.487305,4536.153809,2607,1,21,2048,15174,1,1,1,0,4,4,4,4,4,4,4,4,4,4,4,4,4,4,4,4,4,4,4,4,4,4,4,4,4,4,4,4,4,4,4,4,100,,,,,,,,,,,,,,,,,,,,,,,,,,,,,,,,,,,,,,,,,,,,,,,,,,,,,,,,,,,,,,,,,,,,,,,,,,,,,,,,,,,,,,,,,,,,,,,,,,,,,,,,,,,,,,,,,,,,,,,,,,,,,,,,,,,,,,,,,,,,,,,,,,,,,,,,,,,,,,,,,,,,,,,,,,,,,,,,,,,,,,,,,,,,,,,,,,,,,,,,,,,,,,
1764666121.691825,9884,0,4409.487305,4420.128418,4545.256348,4559.487305,4429.358887,4552.179688,4553.077148,4423.589844,4597.692383,4395.769043,4492.436035,4523.846191,4567.94873,4407.179688,4375.769043,4493.333496,4543.461426,4536.025879,4528.974121,4405.641113,4415.769043,4580.512695,4525,4508.846191,4429.230957,4620.256348,4415.384766,4574.487305,4525,4434.358887,4569.743652,4544.102539,2704,1,21,2304,15182,,,,0,4,4,4,4,4,4,4,4,4,4,4,4,4,4,4,4,4,4,4,4,4,4,4,4,4,4,4,4,4,4,4,4,100,,,,,,,,,,,,,,,,,,,,,,,,,,,,,,,,,,,,,,,,,,,,,,,,,,,,,,,,,,,,,,,,,,,,,,,,,,,,,,,,,,,,,,,,,,,,,,,,,,,,,,,,,,,,,,,,,,,,,,,,,,,,,,,,,,,,,,,,,,,,,,,,,,,,,,,,,,,,,,,,,,,,,,,,,,,,,,,,,,,,,,,,,,,,,,,,,,,,,,,,,,,,,,
1764666121.695731,9885,0,4414.615234,4427.179688,4551.282227,4565.769043,4434.871582,4556.666504,4559.743652,4430.384766,4606.666504,4401.922852,4501.025879,4530.897461,4577.179688,4409.358887,4387.307617,4499.487305,4551.282227,4545.769043,4535.641113,4416.794922,4432.436035,4589.230957,4529.230957,4514.487305,4444.487305,4630.256348,4416.794922,4579.871582,4530,4443.461426,4573.974121,4550.256348,2551,1,21,2304,15182,,,,0,4,4,4,4,4,4,4,4,4,4,4,4,4,4,4,4,4,4,4,4,4,4,4,4,4,4,4,4,4,4,4,4,100,,,,,,,,,,,,,,,,,,,,,,,,,,,,,,,,,,,18855,0,0.313172,-0.623657,-0.347595,0.626221,0.828226,-0.564034,-0.047857,-7.5,45.5,4.333333,,,,,,,,,,,,,,,,,,,,,,,,,,,,,,,,,,,,,,,,,,,,,,,,,,,,,,,,,,,,,,,,,,,,,,,,,,,,,,,,,,,,,,,,,,,,,,,,,,,,,,,,,,,,,,,,,,,,,,,,,,,,,,,,,,,,,,,,,,,,,,,,,,,,,,,,,,,,,,,,
1764666121.699637,9886,0,4414.743652,4430.128418,4552.563965,4567.820313,4437.05127,4557.436035,4561.410156,4434.102539,4611.794922,4413.333496,4509.102539,4535.256348,4585.256348,4413.461426,4399.743652,4509.358887,4559.230957,4556.410156,4537.307617,4418.717773,4438.205078,4593.589844,4530.384766,4513.461426,4457.563965,4632.692383,4417.05127,4582.692383,4531.794922,4447.179688,4571.538574,4551.794922,2666,1,21,2560,15190,,,,0,4,4,4,4,4,4,4,4,4,4,4,4,4,4,4,4,4,4,4,4,4,4,4,4,4,4,4,4,4,4,4,4,100,,,,,,,,,,,,,,,,,,,,,,,,,,,,,,,,,,,,,,,,,,,,,,,,,,,,,,,,,,,,,,,,,,,,,,,,,,,,,,,,,,,,,,,,,,,,,,,,,,,,,,,,,,,,,,,,,,,,,,,,,,,,,,,,,,,,,,,,,,,,,,,,,,,,,,,,,,,,,,,,,,,,,,,,,,,,,,,,,,,,,,,,,,,,,,,,,,,,,,,,,,,,,,
1764666121.703543,9887,0,4409.358887,4426.153809,4548.205078,4565.897461,4434.358887,4554.102539,4556.410156,4433.461426,4609.615234,4425.641113,4511.922852,4534.743652,4588.589844,4416.794922,4406.282227,4517.307617,4563.333496,4564.230957,4534.358887,4411.282227,4430.128418,4590.769043,4528.205078,4507.179688,4458.589844,4625.897461,4414.615234,4581.025879,4528.333496,4443.077148,4563.974121,4547.436035,2803,1,21,2560,15190,,,,0,4,4,4,4,4,4,4,4,4,4,4,4,4,4,4,4,4,4,4,4,4,4,4,4,4,4,4,4,4,4,4,4,100,,,,,,,,,,,,,,,,,,,,,,,,,,,,,,,,,,,,,,,,,,,,,,,,,,,,,,,,,,,,,,,,,,,,,,,,,,,,,,,,,,,,,,,,,,,,,,,,,,,,,,,,,,,,,,,,,,,,,,,,,,,,,,,,,,,,,,,,,,,,,,,,,,,,,,,,,,,,,,,,,,,,,,,,,,,,,,,,,,,,,,,,,,,,,,,,,,,,,,,,,,,,,,
1764666121.707448,9888,0,4400.256348,4416.025879,4539.615234,4560.641113,4428.461426,4547.307617,4547.563965,4428.461426,4600.128418,4429.615234,4508.333496,4530,4586.153809,4416.922852,4403.333496,4519.487305,4561.025879,4565.512695,4528.717773,4398.717773,4412.692383,4582.436035,4523.717773,4499.358887,4439.743652,4612.05127,4410.641113,4575.512695,4521.025879,4432.692383,4553.974121,4538.846191,2759,1,21,2304,15198,,,,0,4,4,4,4,4,4,4,4,4,4,4,4,4,4,4,4,4,4,4,4,4,4,4,4,4,4,4,4,4,4,4,4,100,,,,,,,,,,,,,,,,,,,,,,,,,,,,,,,,,,,,,,,,,,,,,,,,,,,,,,,,,,,,,,,,,,,,,,,,,,,,,,,,,,,,,,,,,,,,,,,,,,,,,,,,,,,,,,,,,,,,,,,,,,,,,,,,,,,,,,,,,,,,,,,,,,,,,,,,,,,,,,,,,,,,,,,,,,,,,,,,,,,,,,,,,,,,,,,,,,,,,,,,,,,,,,
1764666121.711354,9889,0,4391.153809,4405.128418,4530.256348,4553.974121,4422.307617,4539.743652,4539.871582,4421.538574,4588.717773,4418.461426,4500.512695,4523.589844,4578.589844,4412.307617,4392.436035,4514.871582,4552.94873,4558.205078,4521.794922,4387.179688,4393.846191,4573.077148,4518.846191,4492.179688,4402.05127,4596.153809,4407.307617,4568.846191,4513.846191,4419.871582,4544.487305,4528.974121,2941,1,21,2304,15198,,,,0,4,4,4,4,4,4,4,4,4,4,4,4,4,4,4,4,4,4,4,4,4,4,4,4,4,4,4,4,4,4,4,4,100,,,,,,,,,,,,,,,,,,,,,,,,,,,,,,,,,,,18856,0,0.313062,-0.623535,-0.347473,0.626465,0.821878,-0.565499,-0.046881,-8.5,46.5,4.5,,,,,,,,,,,,,,,,,,,,,,,,,,,,,,,,,,,,,,,,,,,,,,,,,,,,,,,,,,,,,,,,,,,,,,,,,,,,,,,,,,,,,,,,,,,,,,,,,,,,,,,,,,,,,,,,,,,,,,,,,,,,,,,,,,,,,,,,,,,,,,,,,,,,,,,,,,,,,,,,
1764666121.715260,9890,0,4385.128418,4398.333496,4523.717773,4547.94873,4418.205078,4533.589844,4536.666504,4415.512695,4581.538574,4396.025879,4492.563965,4517.692383,4568.461426,4404.102539,4378.589844,4505.512695,4541.794922,4542.94873,4514.102539,4380.897461,4380.641113,4566.410156,4514.743652,4486.410156,4357.307617,4584.230957,4405.641113,4563.333496,4510.256348,4409.230957,4536.794922,4520.769043,2575,1,21,1280,15206,,,,0,4,4,4,4,4,4,4,4,4,4,4,4,4,4,4,4,4,4,4,4,4,4,4,4,4,4,4,4,4,4,4,4,100,,,,,,,,,,,,,,,,,,,,,,,,,,,,,,,,,,,,,,,,,,,,,,,,,,,,,,,,,,,,,,,,,,,,,,,,,,,,,,,,,,,,,,,,,,,,,,,,,,,,,,,,,,,,,,,,,,,,,,,,,,,,,,,,,,,,,,,,,,,,,,,,,,,,,,,,,,,,,,,,,,,,,,,,,,,,,,,,,,,,,,,,,,,,,,,,,,,,,,,,,,,,,,
1764666121.719166,9891,0,4382.179688,4396.922852,4521.410156,4543.974121,4416.410156,4529.743652,4537.692383,4411.794922,4581.153809,4375.256348,4487.563965,4512.94873,4558.974121,4395.769043,4367.820313,4496.153809,4531.282227,4524.487305,4506.025879,4380.128418,4375.256348,4563.077148,4511.282227,4482.05127,4325.641113,4579.102539,4403.461426,4559.358887,4510.128418,4403.205078,4530.897461,4515.512695,2847,1,21,1280,15206,,,,0,4,4,4,4,4,4,4,4,4,4,4,4,4,4,4,4,4,4,4,4,4,4,4,4,4,4,4,4,4,4,4,4,100,,,,,,,,,,,,,,,,,,,,,,,,,,,,,,,,,,,,,,,,,,,,,,,,,,,,,,,,,,,,,,,,,,,,,,,,,,,,,,,,,,,,,,,,,,,,,,,,,,,,,,,,,,,,,,,,,,,,,,,,,,,,,,,,,,,,,,,,,,,,,,,,,,,,,,,,,,,,,,,,,,,,,,,,,,,,,,,,,,,,,,,,,,,,,,,,,,,,,,,,,,,,,,
1764666121.723071,9892,0,4380.384766,4397.436035,4521.153809,4541.794922,4415,4527.436035,4540,4409.487305,4584.615234,4366.410156,4487.179688,4508.974121,4553.589844,4391.153809,4364.871582,4491.153809,4524.615234,4509.230957,4498.589844,4381.282227,4375.384766,4560.769043,4507.94873,4479.358887,4323.333496,4580.384766,4397.820313,4555.256348,4510.256348,4400.897461,4526.282227,4512.436035,2744,1,21,512,15213,,,,0,4,4,4,4,4,4,4,4,4,4,4,4,4,4,4,4,4,4,4,4,4,4,4,4,4,4,4,4,4,4,4,4,100,,,,,,,,,,,,,,,,,,,,,,,,,,,,,,,,,,,,,,,,,,,,,,,,,,,,,,,,,,,,,,,,,,,,,,,,,,,,,,,,,,,,,,,,,,,,,,,,,,,,,,,,,,,,,,,,,,,,,,,,,,,,,,,,,,,,,,,,,,,,,,,,,,,,,,,,,,,,,,,,,,,,,,,,,,,,,,,,,,,,,,,,,,,,,,,,,,,,,,,,,,,,,,
1764666121.726977,9893,0,4378.333496,4396.410156,4519.102539,4540.128418,4412.179688,4525.256348,4540.512695,4407.179688,4586.666504,4369.102539,4490.256348,4505.256348,4553.974121,4392.307617,4370.384766,4492.05127,4522.563965,4502.563965,4492.820313,4379.871582,4376.922852,4557.05127,4504.230957,4478.333496,4351.153809,4584.358887,4388.077148,4549.230957,4507.692383,4399.871582,4522.179688,4510.384766,2778,1,21,512,15213,,,,0,4,4,4,4,4,4,4,4,4,4,4,4,4,4,4,4,4,4,4,4,4,4,4,4,4,4,4,4,4,4,4,4,100,,,,,,,,,,,,,,,,,,,,,,,,,,,,,,,,,,,18857,0,0.313395,-0.622986,-0.347168,0.627014,0.827738,-0.567452,-0.038579,-7.833333,46.666668,3.5,,,,,,,,,,,,,,,,,,,,,,,,,,,,,,,,,,,,,,,,,,,,,,,,,,,,,,,,,,,,,,,,,,,,,,,,,,,,,,,,,,,,,,,,,,,,,,,,,,,,,,,,,,,,,,,,,,,,,,,,,,,,,,,,,,,,,,,,,,,,,,,,,,,,,,,,,,,,,,,,
1764666121.730883,9894,0,4376.410156,4392.692383,4513.717773,4538.333496,4408.077148,4522.307617,4538.589844,4404.358887,4585.128418,4374.487305,4493.846191,4503.077148,4559.358887,4397.94873,4381.282227,4496.538574,4524.358887,4505.641113,4489.871582,4375,4376.666504,4552.563965,4501.410156,4479.230957,4392.563965,4588.205078,4377.820313,4542.179688,4502.436035,4397.94873,4518.717773,4508.205078,2786,1,21,256,15221,,,,0,4,4,4,4,4,4,4,4,4,4,4,4,4,4,4,4,4,4,4,4,4,4,4,4,4,4,4,4,4,4,4,4,100,,,,,,,,,,,,,,,,,,,,,,,,,,,,,,,,,,,,,,,,,,,,,,,,,,,,,,,,,,,,,,,,,,,,,,,,,,,,,,,,,,,,,,,,,,,,,,,,,,,,,,,,,,,,,,,,,,,,,,,,,,,,,,,,,,,,,,,,,,,,,,,,,,,,,,,,,,,,,,,,,,,,,,,,,,,,,,,,,,,,,,,,,,,,,,,,,,,,,,,,,,,,,,
1764666121.734789,9895,0,4376.282227,4388.846191,4506.794922,4537.179688,4404.615234,4520.256348,4536.025879,4402.05127,4581.538574,4375,4495.256348,4503.333496,4566.410156,4404.615234,4391.538574,4501.538574,4528.717773,4515.897461,4490.641113,4370.128418,4374.743652,4550.512695,4500.897461,4482.179688,4425.128418,4591.282227,4372.05127,4537.563965,4497.692383,4396.153809,4516.794922,4506.282227,2975,1,21,256,15221,,,,0,4,4,4,4,4,4,4,4,4,4,4,4,4,4,4,4,4,4,4,4,4,4,4,4,4,4,4,4,4,4,4,4,100,,,,,,,,,,,,,,,,,,,,,,,,,,,,,,,,,,,,,,,,,,,,,,,,,,,,,,,,,,,,,,,,,,,,,,,,,,,,,,,,,,,,,,,,,,,,,,,,,,,,,,,,,,,,,,,,,,,,,,,,,,,,,,,,,,,,,,,,,,,,,,,,,,,,,,,,,,,,,,,,,,,,,,,,,,,,,,,,,,,,,,,,,,,,,,,,,,,,,,,,,,,,,,
1764666121.738694,9896,0,4378.717773,4388.077148,4502.307617,4537.94873,4404.358887,4520.897461,4535.512695,4402.05127,4578.717773,4370,4493.846191,4506.153809,4571.282227,4408.333496,4396.410156,4504.615234,4534.230957,4528.461426,4495.769043,4370.128418,4373.717773,4553.846191,4503.461426,4486.282227,4435.512695,4594.615234,4372.820313,4538.589844,4496.538574,4396.025879,4517.563965,4505.384766,2866,1,21,512,15229,,,,0,4,4,4,4,4,4,4,4,4,4,4,4,4,4,4,4,4,4,4,4,4,4,4,4,4,4,4,4,4,4,4,4,100,,,,,,,,,,,,,,,,,,,,,,,,,,,,,,,,,,,,,,,,,,,,,,,,,,,,,,,,,,,,,,,,,,,,,,,,,,,,,,,,,,,,,,,,,,,,,,,,,,,,,,,,,,,,,,,,,,,,,,,,,,,,,,,,,,,,,,,,,,,,,,,,,,,,,,,,,,,,,,,,,,,,,,,,,,,,,,,,,,,,,,,,,,,,,,,,,,,,,,,,,,,,,,
1764666121.742600,9897,0,4382.94873,4391.538574,4502.436035,4541.153809,4407.692383,4524.358887,4537.820313,4405.128418,4578.333496,4365.256348,4491.666504,4509.615234,4572.436035,4407.05127,4394.358887,4505.384766,4539.102539,4538.205078,4504.230957,4376.666504,4376.282227,4562.179688,4507.436035,4489.487305,4425.512695,4598.333496,4377.563965,4545.256348,4500.256348,4398.333496,4521.025879,4505.384766,2713,1,21,512,15229,,,,0,4,4,4,4,4,4,4,4,4,4,4,4,4,4,4,4,4,4,4,4,4,4,4,4,4,4,4,4,4,4,4,4,100,,,,,,,,,,,,,,,,,,,,,,,,,,,,,,,,,,,18858,0,0.313405,-0.622803,-0.347046,0.627258,0.824319,-0.570382,-0.047369,-8.333333,46.333332,4.333333,,,,,,,,,,,,,,,,,,,,,,,,,,,,,,,,,,,,,,,,,,,,,,,,,,,,,,,,,,,,,,,,,,,,,,,,,,,,,,,,,,,,,,,,,,,,,,,,,,,,,,,,,,,,,,,,,,,,,,,,,,,,,,,,,,,,,,,,,,,,,,,,,,,,,,,,,,,,,,,,
1764666121.746506,9898,0,4385.897461,4396.666504,4506.153809,4545.256348,4412.179688,4527.94873,4540.641113,4409.871582,4579.358887,4367.820313,4490.512695,4511.282227,4570.769043,4400.769043,4386.666504,4504.358887,4540.897461,4540.897461,4512.307617,4385.512695,4382.179688,4570.384766,4509.743652,4489.230957,4405.384766,4600.641113,4382.05127,4553.333496,4505.641113,4401.153809,4525.384766,4505.256348,1314,1,21,512,15237,,,,0,4,4,4,4,4,4,4,4,4,4,4,4,4,4,4,4,4,4,4,4,4,4,4,4,4,4,4,4,4,4,4,4,100,,,,,,,,,,,,,,,,,,,,,,,,,,,,,,,,,,,,,,,,,,,,,,,,,,,,,,,,,,,,,,,,,,,,,,,,,,,,,,,,,,,,,,,,,,,,,,,,,,,,,,,,,,,,,,,,,,,,,,,,,,,,,,,,,,,,,,,,,,,,,,,,,,,,,,,,,,,,,,,,,,,,,,,,,,,,,,,,,,,,,,,,,,,,,,,,,,,,,,,,,,,,,,
1764666121.750412,9899,0,4385.128418,4398.461426,4509.487305,4547.179688,4414.102539,4527.94873,4540.384766,4412.307617,4580.128418,4378.846191,4490.256348,4509.358887,4567.563965,4392.05127,4376.410156,4501.794922,4537.820313,4535,4515.384766,4390.769043,4388.077148,4572.820313,4507.820313,4484.615234,4383.717773,4600,4383.717773,4557.307617,4508.205078,4401.410156,4528.333496,4503.846191,2699,1,21,512,15237,,,,0,4,4,4,4,4,4,4,4,4,4,4,4,4,4,4,4,4,4,4,4,4,4,4,4,4,4,4,4,4,4,4,4,100,,,,,,,,,,,,,,,,,,,,,,,,,,,,,,,,,,,,,,,,,,,,,,,,,,,,,,,,,,,,,,,,,,,,,,,,,,,,,,,,,,,,,,,,,,,,,,,,,,,,,,,,,,,,,,,,,,,,,,,,,,,,,,,,,,,,,,,,,,,,,,,,,,,,,,,,,,,,,,,,,,,,,,,,,,,,,,,,,,,,,,,,,,,,,,,,,,,,,,,,,,,,,,
1764666121.754318,9900,0,4380,4394.358887,4509.358887,4545.641113,4411.538574,4523.077148,4535.641113,4409.743652,4579.743652,4391.922852,4489.743652,4505.384766,4563.974121,4384.743652,4367.436035,4498.333496,4530.897461,4523.717773,4512.179688,4389.358887,4390.512695,4568.077148,4502.05127,4477.820313,4366.282227,4596.794922,4384.102539,4554.615234,4505.641113,4398.077148,4528.974121,4501.922852,2477,1,21,768,15245,,,,0,4,4,4,4,4,4,4,4,4,4,4,4,4,4,4,4,4,4,4,4,4,4,4,4,4,4,4,4,4,4,4,4,100,,,,,,,,,,,,,,,,,,,,,,,,,,,,,,,,,,,,,,,,,,,,,,,,,,,,,,,,,,,,,,,,,,,,,,,,,,,,,,,,,,,,,,,,,,,,,,,,,,,,,,,,,,,,,,,,,,,,,,,,,,,,,,,,,,,,,,,,,,,,,,,,,,,,,,,,,,,,,,,,,,,,,,,,,,,,,,,,,,,,,,,,,,,,,,,,,,,,,,,,,,,,,,
1764666121.758223,9901,0,4374.102539,4387.692383,4507.05127,4542.820313,4407.05127,4516.282227,4528.974121,4403.205078,4580.128418,4399.102539,4489.358887,4503.589844,4561.410156,4383.077148,4363.974121,4496.666504,4524.615234,4514.358887,4506.410156,4384.230957,4390,4561.025879,4496.666504,4474.358887,4357.692383,4593.717773,4387.563965,4548.974121,4500.641113,4394.358887,4529.358887,4502.05127,2172,1,21,768,15245,,,,0,4,4,4,4,4,4,4,4,4,4,4,4,4,4,4,4,4,4,4,4,4,4,4,4,4,4,4,4,4,4,4,4,100,,,,,,,,,,,,,,,,,,,,,,,,,,,,,,,,,,,18859,0,0.313551,-0.62262,-0.346802,0.627502,0.824319,-0.570382,-0.047369,-9.5,45.5,3.5,,,,,,,,,,,,,,,,,,,,,,,,,,,,,,,,,,,,,,,,,,,,,,,,,,,,,,,,,,,,,,,,,,,,,,,,,,,,,,,,,,,,,,,,,,,,,,,,,,,,,,,,,,,,,,,,,,,,,,,,,,,,,,,,,,,,,,,,,,,,,,,,,,,,,,,,,,,,,,,,
1764666121.762129,9902,0,4372.436035,4385.512695,4508.077148,4543.461426,4406.025879,4513.205078,4526.282227,4398.589844,4584.487305,4397.563965,4491.538574,4507.94873,4562.94873,4389.102539,4368.974121,4500.256348,4524.487305,4514.871582,4504.230957,4382.05127,4390.512695,4559.230957,4496.538574,4478.589844,4363.461426,4595.128418,4396.410156,4547.05127,4498.461426,4395.512695,4532.820313,4507.436035,2712,1,21,1024,15253,,,,0,4,4,4,4,4,4,4,4,4,4,4,4,4,4,4,4,4,4,4,4,4,4,4,4,4,4,4,4,4,4,4,4,100,,,,,,,,,,,,,,,,,,,,,,,,,,,,,,,,,,,,,,,,,,,,,,,,,,,,,,,,,,,,,,,,,,,,,,,,,,,,,,,,,,,,,,,,,,,,,,,,,,,,,,,,,,,,,,,,,,,,,,,,,,,,,,,,,,,,,,,,,,,,,,,,,,,,,,,,,,,,,,,,,,,,,,,,,,,,,,,,,,,,,,,,,,,,,,,,,,,,,,,,,,,,,,
1764666121.766035,9903,0,4377.563965,4391.794922,4516.025879,4550.128418,4411.794922,4517.436035,4531.025879,4401.025879,4593.589844,4393.461426,4497.436035,4518.077148,4570.256348,4400.897461,4382.179688,4509.871582,4532.692383,4528.205078,4510.128418,4386.794922,4396.153809,4566.282227,4503.589844,4491.025879,4387.05127,4603.974121,4407.692383,4553.077148,4502.307617,4403.974121,4540.256348,4518.461426,2493,1,21,1024,15253,,,,0,4,4,4,4,4,4,4,4,4,4,4,4,4,4,4,4,4,4,4,4,4,4,4,4,4,4,4,4,4,4,4,4,100,,,,,,,,,,,,,,,,,,,,,,,,,,,,,,,,,,,,,,,,,,,,,,,,,,,,,,,,,,,,,,,,,,,,,,,,,,,,,,,,,,,,,,,,,,,,,,,,,,,,,,,,,,,,,,,,,,,,,,,,,,,,,,,,,,,,,,,,,,,,,,,,,,,,,,,,,,,,,,,,,,,,,,,,,,,,,,,,,,,,,,,,,,,,,,,,,,,,,,,,,,,,,,
1764666121.769941,9904,0,4387.436035,4403.717773,4529.230957,4560,4422.05127,4527.94873,4540.769043,4410.512695,4604.102539,4396.666504,4505.256348,4529.615234,4581.282227,4412.563965,4398.461426,4522.436035,4546.666504,4550.897461,4523.717773,4397.94873,4407.94873,4579.871582,4515,4506.153809,4423.846191,4618.846191,4415.128418,4564.743652,4510.641113,4417.05127,4549.358887,4531.025879,2862,1,21,1280,15260,,,,0,4,4,4,4,4,4,4,4,4,4,4,4,4,4,4,4,4,4,4,4,4,4,4,4,4,4,4,4,4,4,4,4,100,,,,,,,,,,,,,,,,,,,,,,,,,,,,,,,,,,,,,,,,,,,,,,,,,,,,,,,,,,,,,,,,,,,,,,,,,,,,,,,,,,,,,,,,,,,,,,,,,,,,,,,,,,,,,,,,,,,,,,,,,,,,,,,,,,,,,,,,,,,,,,,,,,,,,,,,,,,,,,,,,,,,,,,,,,,,,,,,,,,,,,,,,,,,,,,,,,,,,,,,,,,,,,
1764666121.773846,9905,0,4396.794922,4413.846191,4540.769043,4567.179688,4430.641113,4539.487305,4549.487305,4421.922852,4611.025879,4409.871582,4510.897461,4537.05127,4591.025879,4417.94873,4410.512695,4532.94873,4560.384766,4574.230957,4540.256348,4410.769043,4422.94873,4593.717773,4524.871582,4517.820313,4458.589844,4632.692383,4414.743652,4575.128418,4518.846191,4428.333496,4556.282227,4540,2910,1,21,1280,15260,,,,0,4,4,4,4,4,4,4,4,4,4,4,4,4,4,4,4,4,4,4,4,4,4,4,4,4,4,4,4,4,4,4,4,100,,,,,,,,,,,,,,,,,,,,,,,,,,,,,,,,,,,18860,0,0.313561,-0.622437,-0.34668,0.627747,0.829203,-0.571847,-0.041997,-8.333333,46,5.5,,,,,,,,,,,,,,,,,,,,,,,,,,,,,,,,,,,,,,,,,,,,,,,,,,,,,,,,,,,,,,,,,,,,,,,,,,,,,,,,,,,,,,,,,,,,,,,,,,,,,,,,,,,,,,,,,,,,,,,,,,,,,,,,,,,,,,,,,,,,,,,,,,,,,,,,,,,,,,,,
1764666121.777752,9906,0,4400.641113,4416.666504,4544.615234,4567.436035,4432.436035,4546.794922,4552.179688,4429.487305,4611.666504,4422.820313,4511.282227,4537.563965,4594.615234,4414.743652,4413.717773,4537.05127,4568.205078,4587.307617,4551.666504,4419.615234,4435.384766,4601.538574,4528.461426,4521.538574,4472.692383,4636.025879,4408.333496,4578.589844,4522.563965,4432.05127,4558.461426,4541.282227,1724,1,21,1536,15268,,,,0,4,4,4,4,4,4,4,4,4,4,4,4,4,4,4,4,4,4,4,4,4,4,4,4,4,4,4,4,4,4,4,4,100,,,,,,,,,,,,,,,,,,,,,,,,,,,,,,,,,,,,,,,,,,,,,,,1.165771,1.71819,0.908943,0.438763,0.644119,1.964827,2.228898,0.932814,0.55731,0.726176,2.038551,1.592634,0.939465,0.837063,0.952929,2.458872,1.283844,1.261699,0.795025,0.789348,1.998347,2.117503,0.673467,0.938268,0.915347,1.497673,1.36105,0.790904,0.500177,0.532516,1.150642,1.657247,0.844087,0.508472,0.816513,1.508468,1.687443,0.87662,0.915973,1.091877,1.313964,0.877941,1.822961,1.190457,1.374992,1.527322,2.082717,0.965074,2.861554,1.61509,0.734921,1.41112,0.723196,0.319201,0.699447,1.029707,2.043723,0.70991,0.307551,0.622409,1.439485,1.527514,0.997012,0.341242,0.546396,1.09518,0.678331,0.430939,0.329569,0.567025,0.262015,1.475335,1.090757,0.605208,1.041519,0.229944,1.86692,1.147461,0.249207,0.609936,1.304561,3.297153,1.246754,0.457308,0.781048,0.798436,6.927625,3.832203,0.990539,1.775426,0.415893,4.548099,2.936841,0.737037,1.238987,1.326401,1.602585,1.030528,0.702682,0.840625,1.589263,2.8918,1.547838,1.003964,1.152666,1.092149,2.331868,1.165835,0.437401,0.870905,1.844733,3.081398,0.69755,0.294765,0.660983,1.429856,2.04732,1.198845,0.619524,0.85838,1.766383,4.308658,7.521802,13.15253,9.339872,1.965126,1.434008,0.46926,0.960569,0.698064,1.901333,3.188541,1.273037,1.281587,1.741557,1.382245,2.836892,1.356609,0.708256,1.087183,0.557665,1.204036,0.42787,0.347145,0.411267,1.660941,2.48883,0.693395,0.632253,0.712949,2.730614,3.538656,1.467521,1.674819,0.909799,1.818876,2.674987,1.000296,0.788114,0.825732
1764666121.781658,9907,0,4397.307617,4411.410156,4539.230957,4561.410156,4427.179688,4546.666504,4548.589844,4430.256348,4607.179688,4418.717773,4505.512695,4531.410156,4589.743652,4404.871582,4408.077148,4533.589844,4566.794922,4582.820313,4550.512695,4420,4437.94873,4600,4524.102539,4516.922852,4457.05127,4623.717773,4401.282227,4573.974121,4520.384766,4426.794922,4554.871582,4534.230957,2838,1,21,1536,15268,,,,0,4,4,4,4,4,4,4,4,4,4,4,4,4,4,4,4,4,4,4,4,4,4,4,4,4,4,4,4,4,4,4,4,100,,,,,,,,,,,,,,,,,,,,,,,,,,,,,,,,,,,,,,,,,,,,,,,,,,,,,,,,,,,,,,,,,,,,,,,,,,,,,,,,,,,,,,,,,,,,,,,,,,,,,,,,,,,,,,,,,,,,,,,,,,,,,,,,,,,,,,,,,,,,,,,,,,,,,,,,,,,,,,,,,,,,,,,,,,,,,,,,,,,,,,,,,,,,,,,,,,,,,,,,,,,,,,
1764666121.785564,9908,0,4388.333496,4401.922852,4528.717773,4552.179688,4418.205078,4539.743652,4541.666504,4424.615234,4599.743652,4390.897461,4495.384766,4521.025879,4578.077148,4393.461426,4396.410156,4523.974121,4556.794922,4562.05127,4535.897461,4412.05127,4426.922852,4590,4514.230957,4506.153809,4419.487305,4600.769043,4397.307617,4564.615234,4513.974121,4415.128418,4546.282227,4521.794922,2534,1,21,1792,15276,,,,0,4,4,4,4,4,4,4,4,4,4,4,4,4,4,4,4,4,4,4,4,4,4,4,4,4,4,4,4,4,4,4,4,100,,,,,,,,,,,,,,,,,,,,,,,,,,,,,,,,,,,,,,,,,,,,,,,,,,,,,,,,,,,,,,,,,,,,,,,,,,,,,,,,,,,,,,,,,,,,,,,,,,,,,,,,,,,,,,,,,,,,,,,,,,,,,,,,,,,,,,,,,,,,,,,,,,,,,,,,,,,,,,,,,,,,,,,,,,,,,,,,,,,,,,,,,,,,,,,,,,,,,,,,,,,,,,
1764666121.789470,9909,0,4378.077148,4393.717773,4519.102539,4543.333496,4410.512695,4529.487305,4535.641113,4415.128418,4591.025879,4352.307617,4485.512695,4510,4565.128418,4385.256348,4383.589844,4512.179688,4542.820313,4537.05127,4516.410156,4400.384766,4406.666504,4577.307617,4503.974121,4495,4379.743652,4580.769043,4396.410156,4555.641113,4507.05127,4402.692383,4536.153809,4509.743652,2811,1,21,1792,15276,,,,0,4,4,4,4,4,4,4,4,4,4,4,4,4,4,4,4,4,4,4,4,4,4,4,4,4,4,4,4,4,4,4,4,100,,,,,,,,,,,,,,,,,,,,,,,,,,,,,,,,,,,18861,0,0.313517,-0.622375,-0.346497,0.62793,0.828714,-0.562569,-0.046881,-8.333333,47.166668,4.666667,,,,,,,,,,,,,,,,,,,,,,,,,,,,,,,,,,,,,,,,,,,,,,,,,,,,,,,,,,,,,,,,,,,,,,,,,,,,,,,,,,,,,,,,,,,,,,,,,,,,,,,,,,,,,,,,,,,,,,,,,,,,,,,,,,,,,,,,,,,,,,,,,,,,,,,,,,,,,,,,
1764666121.793375,9910,0,4371.666504,4390.512695,4515.384766,4537.436035,4406.666504,4521.922852,4533.589844,4405.256348,4582.05127,4327.05127,4481.922852,4503.077148,4558.077148,4383.461426,4374.358887,4503.589844,4532.692383,4523.333496,4505.512695,4392.820313,4388.333496,4569.487305,4498.974121,4489.358887,4356.922852,4577.179688,4396.666504,4551.153809,4503.205078,4396.153809,4529.615234,4503.717773,2915,1,21,2048,15284,,,,0,4,4,4,4,4,4,4,4,4,4,4,4,4,4,4,4,4,4,4,4,4,4,4,4,4,4,4,4,4,4,4,4,100,,,,,,,,,,,,,,,,,,,,,,,,,,,,,,,,,,,,,,,,,,,,,,,,,,,,,,,,,,,,,,,,,,,,,,,,,,,,,,,,,,,,,,,,,,,,,,,,,,,,,,,,,,,,,,,,,,,,,,,,,,,,,,,,,,,,,,,,,,,,,,,,,,,,,,,,,,,,,,,,,,,,,,,,,,,,,,,,,,,,,,,,,,,,,,,,,,,,,,,,,,,,,,
1764666121.797281,9911,0,4372.436035,4393.205078,4518.846191,4536.153809,4407.563965,4520.897461,4536.153809,4399.358887,4575,4328.333496,4487.05127,4503.717773,4560,4388.461426,4372.563965,4502.05127,4532.563965,4528.333496,4509.871582,4393.717773,4382.436035,4570.256348,4501.666504,4491.538574,4357.179688,4591.922852,4396.538574,4552.179688,4504.102539,4398.333496,4529.615234,4506.153809,2842,1,21,2048,15284,,,,0,4,4,4,4,4,4,4,4,4,4,4,4,4,4,4,4,4,4,4,4,4,4,4,4,4,4,4,4,4,4,4,4,100,,,,,,,,,,,,,,,,,,,,,,,,,,,,,,,,,,,,,,,,,,,,,,,,,,,,,,,,,,,,,,,,,,,,,,,,,,,,,,,,,,,,,,,,,,,,,,,,,,,,,,,,,,,,,,,,,,,,,,,,,,,,,,,,,,,,,,,,,,,,,,,,,,,,,,,,,,,,,,,,,,,,,,,,,,,,,,,,,,,,,,,,,,,,,,,,,,,,,,,,,,,,,,
1764666121.801187,9912,0,4378.461426,4398.333496,4525.897461,4539.230957,4411.025879,4525.769043,4541.025879,4398.974121,4571.794922,4349.743652,4497.436035,4510.512695,4567.94873,4397.692383,4378.589844,4507.05127,4541.282227,4545.512695,4523.461426,4401.025879,4390.512695,4576.282227,4509.102539,4497.179688,4371.282227,4612.820313,4395.769043,4556.410156,4508.333496,4405.769043,4533.974121,4513.717773,2725,1,21,2304,15292,,,,0,4,4,4,4,4,4,4,4,4,4,4,4,4,4,4,4,4,4,4,4,4,4,4,4,4,4,4,4,4,4,4,4,100,,,,,,,,,,,,,,,,,,,,,,,,,,,,,,,,,,,,,,,,,,,,,,,,,,,,,,,,,,,,,,,,,,,,,,,,,,,,,,,,,,,,,,,,,,,,,,,,,,,,,,,,,,,,,,,,,,,,,,,,,,,,,,,,,,,,,,,,,,,,,,,,,,,,,,,,,,,,,,,,,,,,,,,,,,,,,,,,,,,,,,,,,,,,,,,,,,,,,,,,,,,,,,
1764666121.805093,9913,0,4384.230957,4400.512695,4529.743652,4543.589844,4413.589844,4531.282227,4543.974121,4402.05127,4572.563965,4373.589844,4505.384766,4517.94873,4575,4407.05127,4388.461426,4514.230957,4551.410156,4558.974121,4532.307617,4406.922852,4403.717773,4580.384766,4515,4499.358887,4383.589844,4623.333496,4394.102539,4558.846191,4512.307617,4410.641113,4537.307617,4519.358887,2837,1,21,2304,15292,,,,0,4,4,4,4,4,4,4,4,4,4,4,4,4,4,4,4,4,4,4,4,4,4,4,4,4,4,4,4,4,4,4,4,100,,,,,,,,,,,,,,,,,,,,,,,,,,,,,,,,,,,18862,0,0.313553,-0.622253,-0.34613,0.628235,0.825784,-0.573801,-0.043462,-8.333333,46.666668,6,,,,,,,,,,,,,,,,,,,,,,,,,,,,,,,,,,,,,,,,,,,,,,,,,,,,,,,,,,,,,,,,,,,,,,,,,,,,,,,,,,,,,,,,,,,,,,,,,,,,,,,,,,,,,,,,,,,,,,,,,,,,,,,,,,,,,,,,,,,,,,,,,,,,,,,,,,,,,,,,
1764666121.808998,9914,0,4384.871582,4396.666504,4525,4545.256348,4412.692383,4532.179688,4541.666504,4403.333496,4575,4387.436035,4505.384766,4520.384766,4575.384766,4412.05127,4396.025879,4518.717773,4554.871582,4557.820313,4527.179688,4404.871582,4410.256348,4577.563965,4515,4494.487305,4384.743652,4615.512695,4392.05127,4557.05127,4512.94873,4407.692383,4535.769043,4517.563965,1900,1,21,2560,15299,,,,0,4,4,4,4,4,4,4,4,4,4,4,4,4,4,4,4,4,4,4,4,4,4,4,4,4,4,4,4,4,4,4,4,100,,,,,,,,,,,,,,,,,,,,,,,,,,,,,,,,,,,,,,,,,,,,,,,,,,,,,,,,,,,,,,,,,,,,,,,,,,,,,,,,,,,,,,,,,,,,,,,,,,,,,,,,,,,,,,,,,,,,,,,,,,,,,,,,,,,,,,,,,,,,,,,,,,,,,,,,,,,,,,,,,,,,,,,,,,,,,,,,,,,,,,,,,,,,,,,,,,,,,,,,,,,,,,
1764666121.812904,9915,0,4380.384766,4389.743652,4512.692383,4542.436035,4408.974121,4527.94873,4535.256348,4400.769043,4577.179688,4389.102539,4498.974121,4517.05127,4570.256348,4411.153809,4397.563965,4518.461426,4550.384766,4543.333496,4510.512695,4394.743652,4405.256348,4569.487305,4510.384766,4485.256348,4379.358887,4596.794922,4390.897461,4552.692383,4510.384766,4399.102539,4530.897461,4509.615234,2616,1,21,2560,15299,,,,0,4,4,4,4,4,4,4,4,4,4,4,4,4,4,4,4,4,4,4,4,4,4,4,4,4,4,4,4,4,4,4,4,100,,,,,,,,,,,,,,,,,,,,,,,,,,,,,,,,,,,,,,,,,,,,,,,,,,,,,,,,,,,,,,,,,,,,,,,,,,,,,,,,,,,,,,,,,,,,,,,,,,,,,,,,,,,,,,,,,,,,,,,,,,,,,,,,,,,,,,,,,,,,,,,,,,,,,,,,,,,,,,,,,,,,,,,,,,,,,,,,,,,,,,,,,,,,,,,,,,,,,,,,,,,,,,
1764666121.816810,9916,0,4375.897461,4386.794922,4501.153809,4537.563965,4406.922852,4523.589844,4530.128418,4398.205078,4579.102539,4384.358887,4493.846191,4512.436035,4565.512695,4405.897461,4393.974121,4515,4543.077148,4527.179688,4493.974121,4383.589844,4393.333496,4562.307617,4506.794922,4478.461426,4381.025879,4583.333496,4392.307617,4551.025879,4507.692383,4392.94873,4528.205078,4502.307617,2710,1,21,1024,15307,,,,0,4,4,4,4,4,4,4,4,4,4,4,4,4,4,4,4,4,4,4,4,4,4,4,4,4,4,4,4,4,4,4,4,100,,,,,,,,,,,,,,,,,,,,,,,,,,,,,,,,,,,,,,,,,,,,,,,,,,,,,,,,,,,,,,,,,,,,,,,,,,,,,,,,,,,,,,,,,,,,,,,,,,,,,,,,,,,,,,,,,,,,,,,,,,,,,,,,,,,,,,,,,,,,,,,,,,,,,,,,,,,,,,,,,,,,,,,,,,,,,,,,,,,,,,,,,,,,,,,,,,,,,,,,,,,,,,
1764666121.820716,9917,0,4377.307617,4392.820313,4499.102539,4535.897461,4410.384766,4524.358887,4531.666504,4401.410156,4583.461426,4381.666504,4496.153809,4512.05127,4566.922852,4400,4388.974121,4511.410156,4540,4520.769043,4487.563965,4378.589844,4384.487305,4560.897461,4509.102539,4479.230957,4399.230957,4586.794922,4396.153809,4554.230957,4508.333496,4395.769043,4532.179688,4502.563965,2551,1,21,1024,15307,,,,0,4,4,4,4,4,4,4,4,4,4,4,4,4,4,4,4,4,4,4,4,4,4,4,4,4,4,4,4,4,4,4,4,100,,,,,,,,,,,,,,,,,,,,,,,,,,,,,,,,,,,18863,0,0.313508,-0.622131,-0.345947,0.628479,0.817483,-0.562569,-0.053717,-8.833333,45.333332,5,,,,,,,,,,,,,,,,,,,,,,,,,,,,,,,,,,,,,,,,,,,,,,,,,,,,,,,,,,,,,,,,,,,,,,,,,,,,,,,,,,,,,,,,,,,,,,,,,,,,,,,,,,,,,,,,,,,,,,,,,,,,,,,,,,,,,,,,,,,,,,,,,,,,,,,,,,,,,,,,
1764666121.824622,9918,0,4384.615234,4405,4508.717773,4540.384766,4418.205078,4530.512695,4539.230957,4411.025879,4590.256348,4385.897461,4503.589844,4516.282227,4573.077148,4396.025879,4384.615234,4509.102539,4543.333496,4525.128418,4492.563965,4381.922852,4384.487305,4564.871582,4515.769043,4486.282227,4429.102539,4605,4400,4559.743652,4512.05127,4406.025879,4540.641113,4510.897461,2670,1,21,256,15315,,,,0,4,4,4,4,4,4,4,4,4,4,4,4,4,4,4,4,4,4,4,4,4,4,4,4,4,4,4,4,4,4,4,4,100,,,,,,,,,,,,,,,,,,,,,,,,,,,,,,,,,,,,,,,,,,,,,,,,,,,,,,,,,,,,,,,,,,,,,,,,,,,,,,,,,,,,,,,,,,,,,,,,,,,,,,,,,,,,,,,,,,,,,,,,,,,,,,,,,,,,,,,,,,,,,,,,,,,,,,,,,,,,,,,,,,,,,,,,,,,,,,,,,,,,,,,,,,,,,,,,,,,,,,,,,,,,,,
1764666121.828527,9919,0,4391.922852,4414.102539,4522.563965,4548.461426,4424.358887,4537.179688,4545.641113,4420.384766,4594.615234,4393.846191,4507.563965,4519.743652,4577.179688,4393.974121,4380.897461,4508.333496,4548.333496,4532.307617,4501.282227,4388.461426,4391.538574,4569.102539,4520.512695,4492.94873,4451.794922,4623.205078,4400.256348,4561.538574,4515.641113,4414.743652,4547.05127,4521.153809,2807,1,21,256,15315,,,,0,4,4,4,4,4,4,4,4,4,4,4,4,4,4,4,4,4,4,4,4,4,4,4,4,4,4,4,4,4,4,4,4,100,,,,,,,,,,,,,,,,,,,,,,,,,,,,,,,,,,,,,,,,,,,,,,,,,,,,,,,,,,,,,,,,,,,,,,,,,,,,,,,,,,,,,,,,,,,,,,,,,,,,,,,,,,,,,,,,,,,,,,,,,,,,,,,,,,,,,,,,,,,,,,,,,,,,,,,,,,,,,,,,,,,,,,,,,,,,,,,,,,,,,,,,,,,,,,,,,,,,,,,,,,,,,,
1764666121.832433,9920,0,4392.94873,4412.563965,4531.282227,4554.102539,4423.461426,4538.589844,4543.974121,4421.538574,4590.384766,4396.538574,4501.410156,4517.563965,4573.333496,4393.205078,4376.794922,4508.205078,4549.102539,4533.589844,4505.256348,4391.666504,4398.461426,4569.358887,4518.333496,4494.102539,4447.436035,4626.538574,4396.282227,4557.436035,4515.897461,4413.974121,4546.025879,4525.384766,2770,1,21,512,15323,,,,0,4,4,4,4,4,4,4,4,4,4,4,4,4,4,4,4,4,4,4,4,4,4,4,4,4,4,4,4,4,4,4,4,100,,,,,,,,,,,,,,,,,,,,,,,,,,,,,,,,,,,,,,,,,,,,,,,,,,,,,,,,,,,,,,,,,,,,,,,,,,,,,,,,,,,,,,,,,,,,,,,,,,,,,,,,,,,,,,,,,,,,,,,,,,,,,,,,,,,,,,,,,,,,,,,,,,,,,,,,,,,,,,,,,,,,,,,,,,,,,,,,,,,,,,,,,,,,,,,,,,,,,,,,,,,,,,
1764666121.836339,9921,0,4387.820313,4402.307617,4531.538574,4554.487305,4416.410156,4533.846191,4534.871582,4414.230957,4577.94873,4388.717773,4487.307617,4510.384766,4563.846191,4393.333496,4373.974121,4509.487305,4544.102539,4528.717773,4503.333496,4389.358887,4400.512695,4566.666504,4511.794922,4490.384766,4411.153809,4613.077148,4392.179688,4551.282227,4513.333496,4404.871582,4539.102539,4522.05127,2949,1,21,512,15323,,,,0,4,4,4,4,4,4,4,4,4,4,4,4,4,4,4,4,4,4,4,4,4,4,4,4,4,4,4,4,4,4,4,4,100,,,,,,,,,,,,,,,,,,,,,,,,,,,,,,,,,,,18864,0,0.313582,-0.621887,-0.345764,0.628784,0.820901,-0.571359,-0.051764,-8.666667,46,4.333333,,,,,,,,,,,,,,,,,,,,,,,,,,,,,,,,,,,,,,,,,,,,,,,,,,,,,,,,,,,,,,,,,,,,,,,,,,,,,,,,,,,,,,,,,,,,,,,,,,,,,,,,,,,,,,,,,,,,,,,,,,,,,,,,,,,,,,,,,,,,,,,,,,,,,,,,,,,,,,,,
1764666121.840245,9922,0,4382.563965,4393.461426,4528.461426,4552.820313,4410.256348,4528.846191,4526.922852,4406.538574,4565.769043,4374.487305,4475.256348,4505.128418,4557.179688,4395,4374.487305,4512.563965,4538.461426,4525.384766,4501.025879,4385.769043,4398.717773,4566.153809,4507.820313,4487.94873,4360,4595.256348,4393.589844,4550.384766,4511.794922,4397.179688,4533.846191,4517.05127,2579,1,21,512,15331,,,,0,4,4,4,4,4,4,4,4,4,4,4,4,4,4,4,4,4,4,4,4,4,4,4,4,4,4,4,4,4,4,4,4,100,,,,,,,,,,,,,,,,,,,,,,,,,,,,,,,,,,,,,,,,,,,,,,,,,,,,,,,,,,,,,,,,,,,,,,,,,,,,,,,,,,,,,,,,,,,,,,,,,,,,,,,,,,,,,,,,,,,,,,,,,,,,,,,,,,,,,,,,,,,,,,,,,,,,,,,,,,,,,,,,,,,,,,,,,,,,,,,,,,,,,,,,,,,,,,,,,,,,,,,,,,,,,,
1764666121.844150,9923,0,4384.102539,4395,4529.358887,4554.615234,4411.922852,4530.256348,4529.230957,4407.307617,4563.846191,4364.102539,4473.974121,4508.077148,4560.128418,4398.589844,4378.461426,4516.794922,4538.589844,4530.384766,4504.487305,4386.666504,4398.077148,4571.538574,4512.179688,4491.794922,4323.077148,4588.717773,4402.179688,4558.589844,4514.358887,4400,4536.282227,4517.94873,2860,1,21,512,15331,,,,0,4,4,4,4,4,4,4,4,4,4,4,4,4,4,4,4,4,4,4,4,4,4,4,4,4,4,4,4,4,4,4,4,100,,,,,,,,,,,,,,,,,,,,,,,,,,,,,,,,,,,,,,,,,,,,,,,,,,,,,,,,,,,,,,,,,,,,,,,,,,,,,,,,,,,,,,,,,,,,,,,,,,,,,,,,,,,,,,,,,,,,,,,,,,,,,,,,,,,,,,,,,,,,,,,,,,,,,,,,,,,,,,,,,,,,,,,,,,,,,,,,,,,,,,,,,,,,,,,,,,,,,,,,,,,,,,
1764666121.848056,9924,0,4393.333496,4407.179688,4537.179688,4562.05127,4422.05127,4539.743652,4543.205078,4418.589844,4575,4365.128418,4483.974121,4519.230957,4571.410156,4402.05127,4383.717773,4519.871582,4545.769043,4542.563965,4513.077148,4392.820313,4401.153809,4581.025879,4523.333496,4501.282227,4321.282227,4597.05127,4413.205078,4571.666504,4521.153809,4413.077148,4545.384766,4526.410156,2748,1,21,512,15338,,,,0,4,4,4,4,4,4,4,4,4,4,4,4,4,4,4,4,4,4,4,4,4,4,4,4,4,4,4,4,4,4,4,4,100,,,,,,,,,,,,,,,,,,,,,,,,,,,,,,,,,,,,,,,,,,,,,,,,,,,,,,,,,,,,,,,,,,,,,,,,,,,,,,,,,,,,,,,,,,,,,,,,,,,,,,,,,,,,,,,,,,,,,,,,,,,,,,,,,,,,,,,,,,,,,,,,,,,,,,,,,,,,,,,,,,,,,,,,,,,,,,,,,,,,,,,,,,,,,,,,,,,,,,,,,,,,,,
1764666121.851962,9925,0,4404.102539,4421.025879,4547.436035,4570.897461,4433.974121,4551.538574,4560.384766,4433.333496,4591.666504,4374.743652,4496.794922,4530.769043,4582.563965,4402.436035,4386.666504,4519.743652,4554.743652,4552.563965,4519.871582,4399.230957,4405.384766,4588.333496,4533.205078,4509.102539,4351.282227,4609.743652,4418.589844,4580.769043,4528.077148,4427.05127,4553.205078,4537.05127,2783,1,21,512,15338,,,,0,4,4,4,4,4,4,4,4,4,4,4,4,4,4,4,4,4,4,4,4,4,4,4,4,4,4,4,4,4,4,4,4,100,,,,,,,,,,,,,,,,,,,,,,,,,,,,,,,,,,,18865,0,0.313844,-0.621582,-0.34552,0.629089,0.816018,-0.572335,-0.048834,-9.166667,47.166668,5.166667,,,,,,,,,,,,,,,,,,,,,,,,,,,,,,,,,,,,,,,,,,,,,,,,,,,,,,,,,,,,,,,,,,,,,,,,,,,,,,,,,,,,,,,,,,,,,,,,,,,,,,,,,,,,,,,,,,,,,,,,,,,,,,,,,,,,,,,,,,,,,,,,,,,,,,,,,,,,,,,,
1764666121.855868,9926,0,4408.461426,4426.538574,4552.692383,4574.487305,4439.615234,4556.666504,4569.358887,4440.641113,4601.922852,4384.358887,4502.05127,4534.102539,4585,4398.333496,4384.487305,4516.025879,4557.436035,4550.897461,4517.436035,4398.333496,4405,4586.666504,4534.102539,4507.436035,4387.820313,4612.307617,4413.589844,4579.102539,4529.615234,4430.641113,4550.897461,4541.410156,2794,1,21,256,15346,,,,0,4,4,4,4,4,4,4,4,4,4,4,4,4,4,4,4,4,4,4,4,4,4,4,4,4,4,4,4,4,4,4,4,100,,,,,,,,,,,,,,,,,,,,,,,,,,,,,,,,,,,,,,,,,,,,,,,,,,,,,,,,,,,,,,,,,,,,,,,,,,,,,,,,,,,,,,,,,,,,,,,,,,,,,,,,,,,,,,,,,,,,,,,,,,,,,,,,,,,,,,,,,,,,,,,,,,,,,,,,,,,,,,,,,,,,,,,,,,,,,,,,,,,,,,,,,,,,,,,,,,,,,,,,,,,,,,
1764666121.859773,9927,0,4402.179688,4420.384766,4548.717773,4569.358887,4435.128418,4551.153809,4564.230957,4434.102539,4598.205078,4390.128418,4495.512695,4526.025879,4576.794922,4391.410156,4376.922852,4510,4550.128418,4537.179688,4505.641113,4387.692383,4397.436035,4575.512695,4524.615234,4495.384766,4403.333496,4600,4400.769043,4568.077148,4524.102539,4420.512695,4537.692383,4536.025879,2974,1,21,256,15346,,,,0,4,4,4,4,4,4,4,4,4,4,4,4,4,4,4,4,4,4,4,4,4,4,4,4,4,4,4,4,4,4,4,4,100,,,,,,,,,,,,,,,,,,,,,,,,,,,,,,,,,,,,,,,,,,,,,,,,,,,,,,,,,,,,,,,,,,,,,,,,,,,,,,,,,,,,,,,,,,,,,,,,,,,,,,,,,,,,,,,,,,,,,,,,,,,,,,,,,,,,,,,,,,,,,,,,,,,,,,,,,,,,,,,,,,,,,,,,,,,,,,,,,,,,,,,,,,,,,,,,,,,,,,,,,,,,,,
1764666121.863679,9928,0,4389.358887,4408.846191,4539.102539,4558.846191,4425.256348,4539.358887,4549.871582,4417.436035,4583.205078,4397.563965,4483.333496,4512.436035,4564.615234,4386.538574,4367.436035,4505.384766,4537.692383,4522.179688,4493.846191,4373.589844,4387.307617,4562.05127,4511.282227,4480.897461,4389.871582,4582.05127,4388.333496,4555.384766,4515.384766,4404.615234,4522.05127,4524.871582,2875,1,21,512,15354,,,,0,4,4,4,4,4,4,4,4,4,4,4,4,4,4,4,4,4,4,4,4,4,4,4,4,4,4,4,4,4,4,4,4,100,,,,,,,,,,,,,,,,,,,,,,,,,,,,,,,,,,,,,,,,,,,,,,,,,,,,,,,,,,,,,,,,,,,,,,,,,,,,,,,,,,,,,,,,,,,,,,,,,,,,,,,,,,,,,,,,,,,,,,,,,,,,,,,,,,,,,,,,,,,,,,,,,,,,,,,,,,,,,,,,,,,,,,,,,,,,,,,,,,,,,,,,,,,,,,,,,,,,,,,,,,,,,,
1764666121.867585,9929,0,4379.358887,4402.692383,4533.205078,4551.922852,4419.487305,4530.897461,4538.846191,4403.717773,4568.589844,4412.563965,4477.179688,4503.717773,4558.717773,4388.205078,4362.179688,4506.794922,4530.128418,4520,4493.333496,4366.410156,4383.589844,4556.025879,4504.358887,4475.384766,4366.282227,4573.077148,4384.102539,4549.743652,4510,4395.897461,4515.897461,4517.179688,2719,1,21,512,15354,,,,0,4,4,4,4,4,4,4,4,4,4,4,4,4,4,4,4,4,4,4,4,4,4,4,4,4,4,4,4,4,4,4,4,100,,,,,,,,,,,,,,,,,,,,,,,,,,,,,,,,,,,18866,0,0.313785,-0.621399,-0.345459,0.629333,0.816018,-0.572335,-0.048834,-8.5,46.5,3.666667,,,,,,,,,,,,,,,,,,,,,,,,,,,,,,,,,,,,,,,,,,,,,,,,,,,,,,,,,,,,,,,,,,,,,,,,,,,,,,,,,,,,,,,,,,,,,,,,,,,,,,,,,,,,,,,,,,,,,,,,,,,,,,,,,,,,,,,,,,,,,,,,,,,,,,,,,,,,,,,,
1764666121.871491,9930,0,4380.128418,4408.461426,4538.717773,4555.897461,4424.487305,4533.461426,4541.666504,4405.641113,4566.282227,4429.102539,4484.358887,4506.922852,4565,4397.05127,4366.538574,4515.641113,4534.615234,4535.512695,4506.922852,4372.94873,4391.410156,4562.05127,4509.230957,4483.846191,4361.922852,4580.897461,4388.974121,4554.743652,4512.307617,4402.307617,4523.589844,4520,1330,1,21,768,15362,,,,0,4,4,4,4,4,4,4,4,4,4,4,4,4,4,4,4,4,4,4,4,4,4,4,4,4,4,4,4,4,4,4,4,100,,,,,,,,,,,,,,,,,,,,,,,,,,,,,,,,,,,,,,,,,,,,,,,,,,,,,,,,,,,,,,,,,,,,,,,,,,,,,,,,,,,,,,,,,,,,,,,,,,,,,,,,,,,,,,,,,,,,,,,,,,,,,,,,,,,,,,,,,,,,,,,,,,,,,,,,,,,,,,,,,,,,,,,,,,,,,,,,,,,,,,,,,,,,,,,,,,,,,,,,,,,,,,
1764666121.875397,9931,0,4391.282227,4422.692383,4554.615234,4570.256348,4438.461426,4545.769043,4558.461426,4424.358887,4580.384766,4431.666504,4500.512695,4520.256348,4580.384766,4407.94873,4380,4527.94873,4549.358887,4559.102539,4526.153809,4389.871582,4406.410156,4575.641113,4522.179688,4500.256348,4389.102539,4600.384766,4397.05127,4566.153809,4520.512695,4419.358887,4537.692383,4532.820313,2698,1,21,768,15362,,,,0,4,4,4,4,4,4,4,4,4,4,4,4,4,4,4,4,4,4,4,4,4,4,4,4,4,4,4,4,4,4,4,4,100,,,,,,,,,,,,,,,,,,,,,,,,,,,,,,,,,,,,,,,,,,,,,,,,,,,,,,,,,,,,,,,,,,,,,,,,,,,,,,,,,,,,,,,,,,,,,,,,,,,,,,,,,,,,,,,,,,,,,,,,,,,,,,,,,,,,,,,,,,,,,,,,,,,,,,,,,,,,,,,,,,,,,,,,,,,,,,,,,,,,,,,,,,,,,,,,,,,,,,,,,,,,,,
1764666121.879302,9932,0,4404.358887,4434.487305,4570.641113,4585.769043,4452.436035,4558.205078,4578.461426,4447.179688,4602.436035,4408.846191,4513.717773,4533.974121,4595,4413.461426,4394.743652,4536.538574,4564.358887,4575,4538.461426,4406.153809,4417.94873,4587.436035,4533.717773,4512.179688,4429.487305,4619.230957,4401.153809,4575.256348,4528.461426,4433.589844,4546.153809,4547.05127,2475,1,21,1024,15370,,,,0,4,4,4,4,4,4,4,4,4,4,4,4,4,4,4,4,4,4,4,4,4,4,4,4,4,4,4,4,4,4,4,4,100,,,,,,,,,,,,,,,,,,,,,,,,,,,,,,,,,,,,,,,,,,,,,,,,,,,,,,,,,,,,,,,,,,,,,,,,,,,,,,,,,,,,,,,,,,,,,,,,,,,,,,,,,,,,,,,,,,,,,,,,,,,,,,,,,,,,,,,,,,,,,,,,,,,,,,,,,,,,,,,,,,,,,,,,,,,,,,,,,,,,,,,,,,,,,,,,,,,,,,,,,,,,,,
1764666121.883208,9933,0,4409.487305,4434.743652,4574.615234,4590.897461,4456.666504,4560.641113,4587.820313,4456.922852,4618.461426,4366.538574,4514.871582,4538.205078,4599.230957,4409.230957,4401.666504,4535.641113,4568.974121,4573.077148,4537.307617,4411.410156,4417.436035,4590.128418,4536.153809,4511.538574,4447.05127,4626.794922,4398.461426,4576.025879,4530.384766,4433.589844,4542.307617,4552.436035,2171,1,21,1024,15370,,,,0,4,4,4,4,4,4,4,4,4,4,4,4,4,4,4,4,4,4,4,4,4,4,4,4,4,4,4,4,4,4,4,4,100,,,,,,,,,,,,,,,,,,,,,,,,,,,,,,,,,,,18867,0,0.314159,-0.620789,-0.345215,0.629883,0.84483,-0.568429,-0.041509,-8.666667,48.666668,5.166667,,,,,,,,,,,,,,,,,,,,,,,,,,,,,,,,,,,,,,,,,,,,,,,,,,,,,,,,,,,,,,,,,,,,,,,,,,,,,,,,,,,,,,,,,,,,,,,,,,,,,,,,,,,,,,,,,,,,,,,,,,,,,,,,,,,,,,,,,,,,,,,,,,,,,,,,,,,,,,,,
1764666121.887114,9934,0,4402.692383,4423.077148,4562.563965,4581.025879,4447.820313,4550.384766,4580.512695,4445.384766,4618.205078,4326.666504,4505.384766,4530.384766,4590.897461,4397.436035,4396.666504,4525.641113,4560.384766,4556.538574,4525.512695,4403.077148,4405.256348,4582.820313,4528.717773,4499.487305,4420.897461,4620.256348,4391.922852,4569.102539,4524.871582,4419.743652,4530.256348,4545.128418,2706,1,21,1280,15378,,,,0,4,4,4,4,4,4,4,4,4,4,4,4,4,4,4,4,4,4,4,4,4,4,4,4,4,4,4,4,4,4,4,4,100,,,,,,,,,,,,,,,,,,,,,,,,,,,,,,,,,,,,,,,,,,,,,,,,,,,,,,,,,,,,,,,,,,,,,,,,,,,,,,,,,,,,,,,,,,,,,,,,,,,,,,,,,,,,,,,,,,,,,,,,,,,,,,,,,,,,,,,,,,,,,,,,,,,,,,,,,,,,,,,,,,,,,,,,,,,,,,,,,,,,,,,,,,,,,,,,,,,,,,,,,,,,,,
1764666121.891020,9935,0,4389.102539,4407.94873,4543.077148,4563.205078,4432.563965,4534.358887,4562.436035,4420.641113,4603.846191,4314.743652,4494.871582,4516.794922,4576.282227,4386.153809,4385.256348,4512.94873,4545.384766,4537.436035,4512.563965,4388.333496,4389.615234,4571.794922,4518.333496,4485.769043,4366.025879,4605.897461,4387.692383,4560.897461,4516.410156,4402.436035,4520.641113,4530.769043,2494,1,21,1280,15378,,,,0,4,4,4,4,4,4,4,4,4,4,4,4,4,4,4,4,4,4,4,4,4,4,4,4,4,4,4,4,4,4,4,4,100,,,,,,,,,,,,,,,,,,,,,,,,,,,,,,,,,,,,,,,,,,,,,,,,,,,,,,,,,,,,,,,,,,,,,,,,,,,,,,,,,,,,,,,,,,,,,,,,,,,,,,,,,,,,,,,,,,,,,,,,,,,,,,,,,,,,,,,,,,,,,,,,,,,,,,,,,,,,,,,,,,,,,,,,,,,,,,,,,,,,,,,,,,,,,,,,,,,,,,,,,,,,,,
1764666121.894925,9936,0,4378.333496,4399.358887,4530.128418,4549.487305,4421.794922,4523.589844,4547.05127,4399.358887,4588.077148,4342.94873,4492.436035,4507.179688,4565.384766,4383.717773,4377.307617,4505.769043,4534.615234,4528.333496,4507.307617,4377.563965,4380.384766,4565.128418,4512.692383,4480.384766,4322.307617,4593.589844,4390.128418,4558.333496,4510.769043,4394.102539,4521.666504,4519.743652,2858,1,21,1536,15385,,,,0,4,4,4,4,4,4,4,4,4,4,4,4,4,4,4,4,4,4,4,4,4,4,4,4,4,4,4,4,4,4,4,4,100,,,,,,,,,,,,,,,,,,,,,,,,,,,,,,,,,,,,,,,,,,,,,,,,,,,,,,,,,,,,,,,,,,,,,,,,,,,,,,,,,,,,,,,,,,,,,,,,,,,,,,,,,,,,,,,,,,,,,,,,,,,,,,,,,,,,,,,,,,,,,,,,,,,,,,,,,,,,,,,,,,,,,,,,,,,,,,,,,,,,,,,,,,,,,,,,,,,,,,,,,,,,,,
1764666121.898831,9937,0,4377.05127,4401.153809,4531.666504,4548.205078,4421.794922,4523.846191,4543.589844,4394.358887,4583.333496,4398.461426,4498.974121,4506.794922,4564.487305,4391.410156,4378.461426,4507.563965,4535,4532.179688,4512.179688,4376.922852,4382.307617,4567.05127,4514.743652,4486.025879,4321.538574,4590.897461,4398.974121,4563.077148,4510.641113,4398.974121,4532.436035,4519.102539,2896,1,21,1536,15385,,,,0,4,4,4,4,4,4,4,4,4,4,4,4,4,4,4,4,4,4,4,4,4,4,4,4,4,4,4,4,4,4,4,4,100,,,,,,,,,,,,,,,,,,,,,,,,,,,,,,,,,,,18868,0,0.314353,-0.620544,-0.345032,0.630127,0.84483,-0.568429,-0.041509,-8.666667,48.666668,5.166667,,,,,,,,,,,,,,,,,,,,,,,,,,,,,,,,,,,,,,,,,,,,,,,,,,,,,,,,,,,,,,,,,,,,,,,,,,,,,,,,,,,,,,,,,,,,,,,,,,,,,,,,,,,,,,,,,,,,,,,,,,,,,,,,,,,,,,,,,,,,,,,,,,,,,,,,,,,,,,,,
1764666121.902737,9938,0,4383.717773,4408.717773,4543.589844,4557.820313,4430.256348,4531.794922,4551.282227,4405.897461,4592.307617,4448.077148,4507.820313,4513.461426,4571.538574,4402.820313,4386.025879,4515,4543.974121,4542.436035,4521.025879,4384.871582,4391.666504,4574.358887,4520.769043,4496.025879,4360.897461,4598.205078,4408.333496,4569.743652,4514.102539,4410.897461,4544.615234,4527.307617,1719,1,21,1792,15393,,,,0,4,4,4,4,4,4,4,4,4,4,4,4,4,4,4,4,4,4,4,4,4,4,4,4,4,4,4,4,4,4,4,4,100,1,66.666664,4,4,4,4,4,4,4,4,4,3,4,4,4,4,4,4,4,4,4,4,4,4,4,4,1,4,4,4,4,4,4,4,,,,,,,,,,,,,1.42465,1.768319,0.90928,0.467118,0.591482,2.279681,2.359306,0.828027,0.621989,0.694792,1.903326,1.483798,0.916387,0.955017,0.943882,2.563391,1.300302,1.142923,0.890348,0.814222,2.083229,2.261159,0.692347,1.039449,0.865957,1.85192,1.374809,0.691274,0.538928,0.494133,1.380445,1.812859,0.791345,0.517401,0.713805,1.603696,1.833503,0.839496,1.088041,0.937971,1.396934,0.925231,1.757409,1.113352,1.322835,1.613872,2.189949,0.781561,2.911374,1.627149,0.843595,1.507009,0.740468,0.384408,0.692152,1.147211,2.035922,0.710112,0.340056,0.549253,1.585268,1.572194,1.023716,0.346201,0.476237,0.911528,0.645101,0.434136,0.316898,0.481903,0.258404,1.364528,1.102525,0.600469,0.90768,0.26802,1.750554,1.058845,0.291319,0.568578,1.472894,3.263361,1.261762,0.473509,0.705832,0.812692,6.739727,3.509318,1.09741,1.589794,0.406112,4.623194,2.708388,0.758891,1.103917,1.195424,1.651303,1.011643,0.742403,0.767036,1.662302,2.870439,1.419043,1.130013,1.081323,1.247397,2.449049,1.134342,0.497969,0.789464,2.005668,3.252562,0.68631,0.286104,0.57549,1.700609,2.276973,1.205682,0.63092,0.811162,1.918262,4.888781,7.521266,15.135765,10.738166,2.055298,1.489709,0.479355,1.088291,0.789252,2.08951,3.341845,1.233061,1.288789,1.623851,1.681945,2.986437,1.285616,0.69428,0.94364,0.681485,1.2922,0.407432,0.341098,0.386517,1.7597,2.614475,0.64669,0.67784,0.716054,2.482866,3.416172,1.430631,1.789901,0.810123,1.820246,2.644826,0.86436,0.857326,0.831781
1764666121.906643,9939,0,4391.025879,4414.615234,4555,4569.230957,4438.333496,4539.230957,4561.538574,4423.461426,4606.410156,4458.589844,4510.641113,4520,4578.974121,4408.846191,4391.922852,4520.641113,4552.94873,4547.94873,4524.615234,4394.102539,4400.256348,4579.487305,4524.358887,4500.512695,4408.333496,4608.846191,4412.05127,4571.794922,4516.794922,4419.230957,4549.102539,4536.666504,2836,1,21,1792,15393,,,,0,4,4,4,4,4,4,4,4,4,4,4,4,4,4,4,4,4,4,4,4,4,4,4,4,4,4,4,4,4,4,4,4,100,,,,,,,,,,,,,,,,,,,,,,,,,,,,,,,,,,,,,,,,,,,,,,,,,,,,,,,,,,,,,,,,,,,,,,,,,,,,,,,,,,,,,,,,,,,,,,,,,,,,,,,,,,,,,,,,,,,,,,,,,,,,,,,,,,,,,,,,,,,,,,,,,,,,,,,,,,,,,,,,,,,,,,,,,,,,,,,,,,,,,,,,,,,,,,,,,,,,,,,,,,,,,,
1764666121.910549,9940,0,4392.436035,4414.743652,4557.820313,4574.743652,4439.230957,4540.512695,4566.153809,4434.743652,4613.589844,4422.436035,4504.743652,4520.769043,4580.384766,4405.384766,4389.615234,4518.974121,4554.230957,4542.692383,4518.333496,4398.077148,4402.179688,4576.794922,4522.436035,4494.615234,4432.436035,4614.487305,4408.205078,4566.282227,4516.025879,4418.589844,4543.846191,4540.512695,2512,1,21,2048,15401,,,,0,4,4,4,4,4,4,4,4,4,4,4,4,4,4,4,4,4,4,4,4,4,4,4,4,4,4,4,4,4,4,4,4,100,,,,,,,,,,,,,,,,,,,,,,,,,,,,,,,,,,,,,,,,,,,,,,,,,,,,,,,,,,,,,,,,,,,,,,,,,,,,,,,,,,,,,,,,,,,,,,,,,,,,,,,,,,,,,,,,,,,,,,,,,,,,,,,,,,,,,,,,,,,,,,,,,,,,,,,,,,,,,,,,,,,,,,,,,,,,,,,,,,,,,,,,,,,,,,,,,,,,,,,,,,,,,,
1764666121.914454,9941,0,4387.307617,4411.025879,4552.436035,4572.436035,4432.436035,4536.410156,4563.205078,4434.743652,4608.589844,4364.871582,4493.846191,4515.512695,4575,4395,4379.615234,4510.384766,4547.05127,4529.871582,4506.153809,4395.641113,4398.333496,4567.692383,4517.307617,4482.436035,4427.307617,4611.794922,4400.128418,4556.666504,4512.692383,4411.410156,4535.128418,4538.461426,2803,1,21,2048,15401,,,,0,4,4,4,4,4,4,4,4,4,4,4,4,4,4,4,4,4,4,4,4,4,4,4,4,4,4,4,4,4,4,4,4,100,,,,,,,,,,,,,,,,,,,,,,,,,,,,,,,,,,,18869,0,0.314546,-0.6203,-0.344849,0.630371,0.807716,-0.579172,-0.046392,-6.666667,45.166668,5.166667,,,,,,,,,,,,,,,,,,,,,,,,,,,,,,,,,,,,,,,,,,,,,,,,,,,,,,,,,,,,,,,,,,,,,,,,,,,,,,,,,,,,,,,,,,,,,,,,,,,,,,,,,,,,,,,,,,,,,,,,,,,,,,,,,,,,,,,,,,,,,,,,,,,,,,,,,,,,,,,,
1764666121.918360,9942,0,4380.384766,4407.94873,4545.641113,4566.538574,4423.205078,4532.179688,4557.307617,4427.179688,4596.794922,4324.230957,4484.871582,4509.102539,4567.179688,4384.615234,4367.563965,4500.512695,4537.820313,4518.589844,4496.922852,4390.769043,4394.102539,4559.871582,4514.230957,4473.461426,4411.410156,4604.230957,4393.717773,4550.256348,4509.487305,4405.512695,4532.307617,4535.512695,2907,1,21,2304,15409,,,,0,4,4,4,4,4,4,4,4,4,4,4,4,4,4,4,4,4,4,4,4,4,4,4,4,4,4,4,4,4,4,4,4,100,,,,,,,,,,,,,,,,,,,,,,,,,,,,,,,,,,,,,,,,,,,,,,,,,,,,,,,,,,,,,,,,,,,,,,,,,,,,,,,,,,,,,,,,,,,,,,,,,,,,,,,,,,,,,,,,,,,,,,,,,,,,,,,,,,,,,,,,,,,,,,,,,,,,,,,,,,,,,,,,,,,,,,,,,,,,,,,,,,,,,,,,,,,,,,,,,,,,,,,,,,,,,,
1764666121.922266,9943,0,4378.077148,4408.974121,4544.230957,4562.820313,4418.461426,4532.692383,4554.487305,4420.512695,4588.461426,4322.692383,4482.820313,4507.436035,4562.692383,4380.641113,4360.512695,4495.897461,4534.871582,4516.025879,4497.563965,4388.333496,4395.128418,4560.256348,4517.05127,4474.102539,4403.974121,4598.589844,4393.717773,4552.05127,4509.487305,4406.410156,4538.717773,4536.538574,2832,1,21,2304,15409,,,,0,4,4,4,4,4,4,4,4,4,4,4,4,4,4,4,4,4,4,4,4,4,4,4,4,4,4,4,4,4,4,4,4,100,,,,,,,,,,,,,,,,,,,,,,,,,,,,,,,,,,,,,,,,,,,,,,,,,,,,,,,,,,,,,,,,,,,,,,,,,,,,,,,,,,,,,,,,,,,,,,,,,,,,,,,,,,,,,,,,,,,,,,,,,,,,,,,,,,,,,,,,,,,,,,,,,,,,,,,,,,,,,,,,,,,,,,,,,,,,,,,,,,,,,,,,,,,,,,,,,,,,,,,,,,,,,,
1764666121.926172,9944,0,4382.94873,4413.333496,4550.256348,4563.717773,4420.897461,4538.333496,4557.05127,4420.769043,4590.128418,4352.179688,4487.94873,4512.436035,4564.487305,4384.743652,4362.179688,4498.717773,4541.153809,4522.94873,4506.794922,4390.256348,4401.410156,4569.487305,4524.871582,4483.717773,4406.410156,4599.102539,4399.743652,4561.025879,4513.205078,4413.846191,4549.102539,4542.179688,2723,1,21,768,15417,,,,0,4,4,4,4,4,4,4,4,4,4,4,4,4,4,4,4,4,4,4,4,4,4,4,4,4,4,4,4,4,4,4,4,100,,,,,,,,,,,,,,,,,,,,,,,,,,,,,,,,,,,,,,,,,,,,,,,,,,,,,,,,,,,,,,,,,,,,,,,,,,,,,,,,,,,,,,,,,,,,,,,,,,,,,,,,,,,,,,,,,,,,,,,,,,,,,,,,,,,,,,,,,,,,,,,,,,,,,,,,,,,,,,,,,,,,,,,,,,,,,,,,,,,,,,,,,,,,,,,,,,,,,,,,,,,,,,
1764666121.930077,9945,0,4391.538574,4417.563965,4558.461426,4567.436035,4427.307617,4545.256348,4561.922852,4425.641113,4599.230957,4387.179688,4495.512695,4520.256348,4570.512695,4393.717773,4371.153809,4506.538574,4552.563965,4533.974121,4517.307617,4394.102539,4408.077148,4580.897461,4532.692383,4494.487305,4405.641113,4604.615234,4406.922852,4571.025879,4518.077148,4421.922852,4553.974121,4547.563965,2830,1,21,768,15417,,,,0,4,4,4,4,4,4,4,4,4,4,4,4,4,4,4,4,4,4,4,4,4,4,4,4,4,4,4,4,4,4,4,4,100,,,,,,,,,,,,,,,,,,,,,,,,,,,,,,,,,,,18870,0,0.314554,-0.620178,-0.344727,0.630554,0.816506,-0.566964,-0.056159,-6.666667,45.166668,5.166667,,,,,,,,,,,,,,,,,,,,,,,,,,,,,,,,,,,,,,,,,,,,,,,,,,,,,,,,,,,,,,,,,,,,,,,,,,,,,,,,,,,,,,,,,,,,,,,,,,,,,,,,,,,,,,,,,,,,,,,,,,,,,,,,,,,,,,,,,,,,,,,,,,,,,,,,,,,,,,,,
1764666121.933983,9946,0,4397.692383,4417.563965,4561.153809,4568.974121,4431.153809,4548.077148,4563.077148,4427.179688,4606.282227,4406.153809,4499.230957,4524.615234,4576.025879,4402.563965,4381.282227,4514.615234,4561.153809,4543.077148,4522.307617,4396.282227,4409.743652,4586.410156,4534.871582,4498.974121,4393.461426,4609.230957,4408.589844,4574.615234,4520,4423.974121,4547.692383,4546.410156,1899,1,21,256,15424,,,,0,4,4,4,4,4,4,4,4,4,4,4,4,4,4,4,4,4,4,4,4,4,4,4,4,4,4,4,4,4,4,4,4,100,,,,,,,,,,,,,,,,,,,,,,,,,,,,,,,,,,,,,,,,,,,,,,,,,,,,,,,,,,,,,,,,,,,,,,,,,,,,,,,,,,,,,,,,,,,,,,,,,,,,,,,,,,,,,,,,,,,,,,,,,,,,,,,,,,,,,,,,,,,,,,,,,,,,,,,,,,,,,,,,,,,,,,,,,,,,,,,,,,,,,,,,,,,,,,,,,,,,,,,,,,,,,,
1764666121.937889,9947,0,4397.307617,4412.307617,4553.974121,4564.487305,4428.077148,4545,4557.563965,4419.615234,4603.077148,4405.384766,4496.538574,4522.307617,4577.179688,4407.307617,4386.410156,4519.230957,4562.307617,4547.563965,4521.025879,4395.128418,4405.128418,4583.333496,4530.256348,4495.256348,4376.282227,4607.563965,4401.666504,4568.846191,4517.307617,4417.692383,4533.333496,4536.794922,2613,1,21,256,15424,,,,0,4,4,4,4,4,4,4,4,4,4,4,4,4,4,4,4,4,4,4,4,4,4,4,4,4,4,4,4,4,4,4,4,100,,,,,,,,,,,,,,,,,,,,,,,,,,,,,,,,,,,,,,,,,,,,,,,,,,,,,,,,,,,,,,,,,,,,,,,,,,,,,,,,,,,,,,,,,,,,,,,,,,,,,,,,,,,,,,,,,,,,,,,,,,,,,,,,,,,,,,,,,,,,,,,,,,,,,,,,,,,,,,,,,,,,,,,,,,,,,,,,,,,,,,,,,,,,,,,,,,,,,,,,,,,,,,
1764666121.941795,9948,0,4392.436035,4405.384766,4540.512695,4554.743652,4420,4539.487305,4548.589844,4406.282227,4590.512695,4394.871582,4490,4516.666504,4574.615234,4407.436035,4385.256348,4520.128418,4558.077148,4548.974121,4518.589844,4392.563965,4398.717773,4576.922852,4523.461426,4488.974121,4368.717773,4599.102539,4390.128418,4557.94873,4512.307617,4407.692383,4520.641113,4524.102539,2702,1,21,256,15432,,,,0,4,4,4,4,4,4,4,4,4,4,4,4,4,4,4,4,4,4,4,4,4,4,4,4,4,4,4,4,4,4,4,4,100,,,,,,,,,,,,,,,,,,,,,,,,,,,,,,,,,,,,,,,,,,,,,,,,,,,,,,,,,,,,,,,,,,,,,,,,,,,,,,,,,,,,,,,,,,,,,,,,,,,,,,,,,,,,,,,,,,,,,,,,,,,,,,,,,,,,,,,,,,,,,,,,,,,,,,,,,,,,,,,,,,,,,,,,,,,,,,,,,,,,,,,,,,,,,,,,,,,,,,,,,,,,,,
1764666121.945700,9949,0,4389.487305,4402.436035,4530.512695,4546.282227,4414.358887,4536.922852,4543.974121,4398.333496,4578.589844,4384.487305,4485.512695,4514.743652,4572.436035,4404.615234,4382.05127,4519.358887,4554.871582,4550.256348,4520.384766,4392.05127,4396.282227,4575.384766,4520.512695,4487.307617,4375.512695,4589.358887,4382.307617,4551.153809,4509.871582,4401.538574,4518.589844,4516.922852,2542,1,21,256,15432,,,,0,4,4,4,4,4,4,4,4,4,4,4,4,4,4,4,4,4,4,4,4,4,4,4,4,4,4,4,4,4,4,4,4,100,,,,,,,,,,,,,,,,,,,,,,,,,,,,,,,,,,,18871,0,0.314612,-0.619934,-0.344666,0.630798,0.827249,-0.565987,-0.047857,-8.833333,44.166668,5,,,,,,,,,,,,,,,,,,,,,,,,,,,,,,,,,,,,,,,,,,,,,,,,,,,,,,,,,,,,,,,,,,,,,,,,,,,,,,,,,,,,,,,,,,,,,,,,,,,,,,,,,,,,,,,,,,,,,,,,,,,,,,,,,,,,,,,,,,,,,,,,,,,,,,,,,,,,,,,,
1764666121.949506,9950,0,4393.077148,4406.794922,4531.153809,4546.025879,4417.05127,4541.025879,4549.358887,4403.974121,4577.563965,4376.538574,4486.538574,4520.512695,4575.128418,4401.153809,4381.153809,4519.102539,4557.563965,4552.820313,4527.179688,4394.615234,4399.102539,4582.307617,4523.974121,4492.436035,4386.410156,4585.641113,4384.487305,4555.128418,4512.94873,4403.974121,4528.333496,4520.384766,2660,1,21,512,15440,,,,0,4,4,4,4,4,4,4,4,4,4,4,4,4,4,4,4,4,4,4,4,4,4,4,4,4,4,4,4,4,4,4,4,100,,,,,,,,,,,,,,,,,,,,,,,,,,,,,,,,,,,,,,,,,,,,,,,,,,,,,,,,,,,,,,,,,,,,,,,,,,,,,,,,,,,,,,,,,,,,,,,,,,,,,,,,,,,,,,,,,,,,,,,,,,,,,,,,,,,,,,,,,,,,,,,,,,,,,,,,,,,,,,,,,,,,,,,,,,,,,,,,,,,,,,,,,,,,,,,,,,,,,,,,,,,,,,
1764666121.953412,9951,0,4400.897461,4415.897461,4540.769043,4554.358887,4427.05127,4549.615234,4561.794922,4420,4588.589844,4367.820313,4491.410156,4530.384766,4582.307617,4398.333496,4382.820313,4518.974121,4564.871582,4554.487305,4533.333496,4397.307617,4403.077148,4592.563965,4530,4499.743652,4385.256348,4590.897461,4394.102539,4567.820313,4519.743652,4412.436035,4542.436035,4530,2795,1,21,512,15440,,,,0,4,4,4,4,4,4,4,4,4,4,4,4,4,4,4,4,4,4,4,4,4,4,4,4,4,4,4,4,4,4,4,4,100,,,,,,,,,,,,,,,,,,,,,,,,,,,,,,,,,,,,,,,,,,,,,,,,,,,,,,,,,,,,,,,,,,,,,,,,,,,,,,,,,,,,,,,,,,,,,,,,,,,,,,,,,,,,,,,,,,,,,,,,,,,,,,,,,,,,,,,,,,,,,,,,,,,,,,,,,,,,,,,,,,,,,,,,,,,,,,,,,,,,,,,,,,,,,,,,,,,,,,,,,,,,,,
1764666121.957318,9952,0,4405.256348,4422.05127,4549.358887,4563.333496,4435.641113,4555.384766,4571.025879,4432.692383,4601.922852,4357.820313,4494.743652,4535.641113,4587.820313,4396.666504,4383.589844,4517.05127,4570,4552.436035,4532.436035,4395.769043,4401.666504,4596.922852,4531.666504,4500.641113,4368.589844,4600.128418,4400.769043,4578.589844,4524.102539,4419.102539,4549.230957,4535,2755,1,21,512,15448,,,,0,4,4,4,4,4,4,4,4,4,4,4,4,4,4,4,4,4,4,4,4,4,4,4,4,4,4,4,4,4,4,4,4,100,,,,,,,,,,,,,,,,,,,,,,,,,,,,,,,,,,,,,,,,,,,,,,,,,,,,,,,,,,,,,,,,,,,,,,,,,,,,,,,,,,,,,,,,,,,,,,,,,,,,,,,,,,,,,,,,,,,,,,,,,,,,,,,,,,,,,,,,,,,,,,,,,,,,,,,,,,,,,,,,,,,,,,,,,,,,,,,,,,,,,,,,,,,,,,,,,,,,,,,,,,,,,,
1764666121.961224,9953,0,4400.256348,4418.717773,4547.436035,4563.333496,4434.102539,4551.922852,4568.461426,4429.871582,4606.538574,4351.153809,4492.94873,4529.615234,4585.384766,4396.666504,4381.025879,4512.94873,4566.538574,4545.897461,4522.94873,4388.717773,4393.461426,4590.128418,4525.384766,4491.666504,4351.282227,4604.871582,4394.871582,4577.05127,4520.897461,4416.794922,4541.922852,4528.205078,2936,1,21,512,15448,,,,0,4,4,4,4,4,4,4,4,4,4,4,4,4,4,4,4,4,4,4,4,4,4,4,4,4,4,4,4,4,4,4,4,100,,,,,,,,,,,,,,,,,,,,,,,,,,,,,,,,,,,18872,0,0.314793,-0.61969,-0.344604,0.630981,0.811134,-0.565499,-0.047857,-8.333333,44.666668,5.5,,,,,,,,,,,,,,,,,,,,,,,,,,,,,,,,,,,,,,,,,,,,,,,,,,,,,,,,,,,,,,,,,,,,,,,,,,,,,,,,,,,,,,,,,,,,,,,,,,,,,,,,,,,,,,,,,,,,,,,,,,,,,,,,,,,,,,,,,,,,,,,,,,,,,,,,,,,,,,,,
1764666121.965129,9954,0,4387.94873,4406.794922,4534.358887,4552.820313,4422.179688,4540.128418,4554.743652,4412.179688,4600.512695,4357.820313,4488.205078,4515.641113,4575.512695,4398.846191,4377.179688,4509.358887,4555.641113,4539.487305,4511.538574,4380.512695,4384.358887,4576.794922,4514.743652,4477.820313,4354.230957,4601.538574,4377.692383,4562.820313,4510.512695,4406.153809,4524.358887,4512.820313,2570,1,21,256,15456,,,,0,4,4,4,4,4,4,4,4,4,4,4,4,4,4,4,4,4,4,4,4,4,4,4,4,4,4,4,4,4,4,4,4,100,,,,,,,,,,,,,,,,,,,,,,,,,,,,,,,,,,,,,,,,,,,,,,,,,,,,,,,,,,,,,,,,,,,,,,,,,,,,,,,,,,,,,,,,,,,,,,,,,,,,,,,,,,,,,,,,,,,,,,,,,,,,,,,,,,,,,,,,,,,,,,,,,,,,,,,,,,,,,,,,,,,,,,,,,,,,,,,,,,,,,,,,,,,,,,,,,,,,,,,,,,,,,,
1764666121.969035,9955,0,4377.94873,4394.871582,4519.871582,4540.384766,4408.846191,4528.846191,4541.153809,4392.436035,4592.94873,4384.871582,4486.794922,4505,4565.641113,4404.230957,4377.179688,4510.256348,4545.641113,4539.358887,4508.589844,4378.205078,4383.077148,4568.205078,4508.077148,4470,4383.717773,4595,4361.666504,4547.05127,4500.641113,4395.641113,4509.487305,4500.384766,2842,1,21,256,15456,,,,0,4,4,4,4,4,4,4,4,4,4,4,4,4,4,4,4,4,4,4,4,4,4,4,4,4,4,4,4,4,4,4,4,100,,,,,,,,,,,,,,,,,,,,,,,,,,,,,,,,,,,,,,,,,,,,,,,,,,,,,,,,,,,,,,,,,,,,,,,,,,,,,,,,,,,,,,,,,,,,,,,,,,,,,,,,,,,,,,,,,,,,,,,,,,,,,,,,,,,,,,,,,,,,,,,,,,,,,,,,,,,,,,,,,,,,,,,,,,,,,,,,,,,,,,,,,,,,,,,,,,,,,,,,,,,,,,
1764666121.972941,9956,0,4379.102539,4392.307617,4515.512695,4537.563965,4404.743652,4527.179688,4538.974121,4385.641113,4594.743652,4425.641113,4492.820313,4506.666504,4564.487305,4411.666504,4383.589844,4517.307617,4544.871582,4547.820313,4518.846191,4385.641113,4393.333496,4572.05127,4511.538574,4475.256348,4422.820313,4592.563965,4360.641113,4542.820313,4499.358887,4395,4508.589844,4500.769043,2728,1,21,512,15463,,,,0,4,4,4,4,4,4,4,4,4,4,4,4,4,4,4,4,4,4,4,4,4,4,4,4,4,4,4,4,4,4,4,4,100,,,,,,,,,,,,,,,,,,,,,,,,,,,,,,,,,,,,,,,,,,,,,,,,,,,,,,,,,,,,,,,,,,,,,,,,,,,,,,,,,,,,,,,,,,,,,,,,,,,,,,,,,,,,,,,,,,,,,,,,,,,,,,,,,,,,,,,,,,,,,,,,,,,,,,,,,,,,,,,,,,,,,,,,,,,,,,,,,,,,,,,,,,,,,,,,,,,,,,,,,,,,,,
1764666121.976847,9957,0,4390.769043,4401.153809,4524.358887,4548.333496,4412.307617,4536.666504,4550.384766,4395.769043,4607.820313,4455.641113,4503.589844,4519.102539,4573.333496,4417.436035,4393.077148,4527.179688,4553.333496,4560.128418,4535.512695,4398.205078,4409.487305,4584.615234,4522.820313,4489.615234,4443.589844,4596.794922,4376.794922,4552.563965,4508.077148,4405.769043,4522.179688,4512.94873,2773,1,21,512,15463,,,,0,4,4,4,4,4,4,4,4,4,4,4,4,4,4,4,4,4,4,4,4,4,4,4,4,4,4,4,4,4,4,4,4,100,,,,,,,,,,,,,,,,,,,,,,,,,,,,,,,,,,,18873,0,0.315038,-0.619385,-0.344482,0.631226,0.822366,-0.566475,-0.050787,-9.5,47.166668,3.833333,,,,,,,,,,,,,,,,,,,,,,,,,,,,,,,,,,,,,,,,,,,,,,,,,,,,,,,,,,,,,,,,,,,,,,,,,,,,,,,,,,,,,,,,,,,,,,,,,,,,,,,,,,,,,,,,,,,,,,,,,,,,,,,,,,,,,,,,,,,,,,,,,,,,,,,,,,,,,,,,
1764666121.980753,9958,0,4403.461426,4413.974121,4538.333496,4565.128418,4424.102539,4550,4566.153809,4413.846191,4622.563965,4448.974121,4511.922852,4531.410156,4584.743652,4416.922852,4398.846191,4533.717773,4562.563965,4567.307617,4544.743652,4405.897461,4420.769043,4594.230957,4532.692383,4501.666504,4430.769043,4601.794922,4398.846191,4567.307617,4520.256348,4420.384766,4538.333496,4526.538574,2783,1,21,768,15471,,,,0,4,4,4,4,4,4,4,4,4,4,4,4,4,4,4,4,4,4,4,4,4,4,4,4,4,4,4,4,4,4,4,4,100,,,,,,,,,,,,,,,,,,,,,,,,,,,,,,,,,,,,,,,,,,,,,,,,,,,,,,,,,,,,,,,,,,,,,,,,,,,,,,,,,,,,,,,,,,,,,,,,,,,,,,,,,,,,,,,,,,,,,,,,,,,,,,,,,,,,,,,,,,,,,,,,,,,,,,,,,,,,,,,,,,,,,,,,,,,,,,,,,,,,,,,,,,,,,,,,,,,,,,,,,,,,,,
1764666121.984658,9959,0,4407.307617,4420.897461,4546.025879,4575.512695,4431.410156,4557.436035,4574.358887,4425.384766,4627.179688,4401.922852,4511.282227,4533.077148,4588.974121,4409.230957,4395.256348,4532.94873,4562.94873,4563.333496,4538.205078,4401.922852,4419.358887,4591.538574,4533.589844,4501.794922,4396.410156,4600.512695,4411.153809,4575,4526.922852,4428.461426,4544.230957,4531.025879,2961,1,21,768,15471,,,,0,4,4,4,4,4,4,4,4,4,4,4,4,4,4,4,4,4,4,4,4,4,4,4,4,4,4,4,4,4,4,4,4,100,,,,,,,,,,,,,,,,,,,,,,,,,,,,,,,,,,,,,,,,,,,,,,,,,,,,,,,,,,,,,,,,,,,,,,,,,,,,,,,,,,,,,,,,,,,,,,,,,,,,,,,,,,,,,,,,,,,,,,,,,,,,,,,,,,,,,,,,,,,,,,,,,,,,,,,,,,,,,,,,,,,,,,,,,,,,,,,,,,,,,,,,,,,,,,,,,,,,,,,,,,,,,,
1764666121.988564,9960,0,4400.128418,4417.563965,4542.05127,4572.05127,4430.384766,4554.871582,4570,4423.333496,4618.333496,4340.769043,4501.666504,4522.563965,4582.179688,4398.333496,4383.333496,4525.769043,4552.94873,4550,4520,4388.589844,4406.922852,4577.820313,4525.384766,4490.384766,4369.102539,4591.794922,4406.666504,4570.256348,4524.358887,4425.769043,4536.538574,4524.743652,2867,1,21,1024,15479,,,,0,4,4,4,4,4,4,4,4,4,4,4,4,4,4,4,4,4,4,4,4,4,4,4,4,4,4,4,4,4,4,4,4,100,,,,,,,,,,,,,,,,,,,,,,,,,,,,,,,,,,,,,,,,,,,,,,,,,,,,,,,,,,,,,,,,,,,,,,,,,,,,,,,,,,,,,,,,,,,,,,,,,,,,,,,,,,,,,,,,,,,,,,,,,,,,,,,,,,,,,,,,,,,,,,,,,,,,,,,,,,,,,,,,,,,,,,,,,,,,,,,,,,,,,,,,,,,,,,,,,,,,,,,,,,,,,,
1764666121.992470,9961,0,4388.846191,4409.102539,4530.769043,4558.077148,4425.769043,4545.897461,4557.692383,4411.922852,4603.333496,4304.743652,4489.743652,4508.974121,4569.487305,4390.769043,4370.512695,4517.820313,4539.358887,4535.769043,4502.692383,4376.025879,4393.077148,4563.205078,4515.512695,4477.307617,4366.922852,4583.205078,4391.666504,4558.846191,4516.538574,4417.05127,4523.589844,4515,2709,1,21,1024,15479,,,,0,4,4,4,4,4,4,4,4,4,4,4,4,4,4,4,4,4,4,4,4,4,4,4,4,4,4,4,4,4,4,4,4,100,,,,,,,,,,,,,,,,,,,,,,,,,,,,,,,,,,,18874,0,0.315759,-0.618286,-0.344116,0.632141,0.832133,-0.566475,-0.043951,-9.666667,44.5,2.833333,,,,,,,,,,,,,,,,,,,,,,,,,,,,,,,,,,,,,,,,,,,,,,,,,,,,,,,,,,,,,,,,,,,,,,,,,,,,,,,,,,,,,,,,,,,,,,,,,,,,,,,,,,,,,,,,,,,,,,,,,,,,,,,,,,,,,,,,,,,,,,,,,,,,,,,,,,,,,,,,
1764666121.996376,9962,0,4383.589844,4405,4522.307617,4544.487305,4425,4539.358887,4548.333496,4402.94873,4593.974121,4316.025879,4484.487305,4503.589844,4560.512695,4391.153809,4365,4514.230957,4531.922852,4529.230957,4497.436035,4373.333496,4387.179688,4558.205078,4512.692383,4473.589844,4382.820313,4583.846191,4380.256348,4552.179688,4511.922852,4412.179688,4517.563965,4511.538574,1333,1,21,1280,15487,,,,0,4,4,4,4,4,4,4,4,4,4,4,4,4,4,4,4,4,4,4,4,4,4,4,4,4,4,4,4,4,4,4,4,100,,,,,,,,,,,,,,,,,,,,,,,,,,,,,,,,,,,,,,,,,,,,,,,,,,,,,,,,,,,,,,,,,,,,,,,,,,,,,,,,,,,,,,,,,,,,,,,,,,,,,,,,,,,,,,,,,,,,,,,,,,,,,,,,,,,,,,,,,,,,,,,,,,,,,,,,,,,,,,,,,,,,,,,,,,,,,,,,,,,,,,,,,,,,,,,,,,,,,,,,,,,,,,
1764666122.000281,9963,0,4389.487305,4411.794922,4524.871582,4541.794922,4431.282227,4541.794922,4550.512695,4405.128418,4595.384766,4362.94873,4490.512695,4511.538574,4562.179688,4398.846191,4370.512695,4516.794922,4535.641113,4532.436035,4505.128418,4381.666504,4391.410156,4565.641113,4520.512695,4483.205078,4394.358887,4596.153809,4384.358887,4558.461426,4515.769043,4417.436035,4525.256348,4518.974121,2689,1,21,1280,15487,,,,0,4,4,4,4,4,4,4,4,4,4,4,4,4,4,4,4,4,4,4,4,4,4,4,4,4,4,4,4,4,4,4,4,100,,,,,,,,,,,,,,,,,,,,,,,,,,,,,,,,,,,,,,,,,,,,,,,,,,,,,,,,,,,,,,,,,,,,,,,,,,,,,,,,,,,,,,,,,,,,,,,,,,,,,,,,,,,,,,,,,,,,,,,,,,,,,,,,,,,,,,,,,,,,,,,,,,,,,,,,,,,,,,,,,,,,,,,,,,,,,,,,,,,,,,,,,,,,,,,,,,,,,,,,,,,,,,
1764666122.004187,9964,0,4403.717773,4427.563965,4538.461426,4552.436035,4440.897461,4553.589844,4563.717773,4417.692383,4603.974121,4410.128418,4504.358887,4527.820313,4573.717773,4407.820313,4382.692383,4522.179688,4548.077148,4540.512695,4517.94873,4393.846191,4400,4580.128418,4534.743652,4500.384766,4387.820313,4612.692383,4404.743652,4575.641113,4526.922852,4431.153809,4543.333496,4533.333496,2470,1,21,1536,15495,,,,0,4,4,4,4,4,4,4,4,4,4,4,4,4,4,4,4,4,4,4,4,4,4,4,4,4,4,4,4,4,4,4,4,100,,,,,,,,,,,,,,,,,,,,,,,,,,,,,,,,,,,,,,,,,,,,,,,,,,,,,,,,,,,,,,,,,,,,,,,,,,,,,,,,,,,,,,,,,,,,,,,,,,,,,,,,,,,,,,,,,,,,,,,,,,,,,,,,,,,,,,,,,,,,,,,,,,,,,,,,,,,,,,,,,,,,,,,,,,,,,,,,,,,,,,,,,,,,,,,,,,,,,,,,,,,,,,
1764666122.008093,9965,0,4417.94873,4443.589844,4554.871582,4569.358887,4446.025879,4567.94873,4579.615234,4432.436035,4611.410156,4424.487305,4516.922852,4541.922852,4586.922852,4411.282227,4392.179688,4525.384766,4561.410156,4545.769043,4525.897461,4401.282227,4405,4591.922852,4546.410156,4514.230957,4369.358887,4623.205078,4429.871582,4593.333496,4538.205078,4445.128418,4561.666504,4546.153809,2166,1,21,1536,15495,,,,0,4,4,4,4,4,4,4,4,4,4,4,4,4,4,4,4,4,4,4,4,4,4,4,4,4,4,4,4,4,4,4,4,100,,,,,,,,,,,,,,,,,,,,,,,,,,,,,,,,,,,18875,0,0.316244,-0.617737,-0.343872,0.632568,0.832133,-0.566475,-0.053717,-8.166667,45.666668,2.833333,,,,,,,,,,,,,,,,,,,,,,,,,,,,,,,,,,,,,,,,,,,,,,,,,,,,,,,,,,,,,,,,,,,,,,,,,,,,,,,,,,,,,,,,,,,,,,,,,,,,,,,,,,,,,,,,,,,,,,,,,,,,,,,,,,,,,,,,,,,,,,,,,,,,,,,,,,,,,,,,
1764666122.011999,9966,0,4424.358887,4450.512695,4563.461426,4580.641113,4441.025879,4575.897461,4587.692383,4439.487305,4612.179688,4399.487305,4519.358887,4545.256348,4592.563965,4407.05127,4391.666504,4523.205078,4567.436035,4543.589844,4524.358887,4399.230957,4403.077148,4594.487305,4548.846191,4517.05127,4356.282227,4622.820313,4443.333496,4600.384766,4542.563965,4450.128418,4570,4550.384766,2703,1,21,1792,15503,,,,0,4,4,4,4,4,4,4,4,4,4,4,4,4,4,4,4,4,4,4,4,4,4,4,4,4,4,4,4,4,4,4,4,100,,,,,,,,,,,,,,,,,,,,,,,,,,,,,,,,,,,,,,,,,,,,,,,,,,,,,,,,,,,,,,,,,,,,,,,,,,,,,,,,,,,,,,,,,,,,,,,,,,,,,,,,,,,,,,,,,,,,,,,,,,,,,,,,,,,,,,,,,,,,,,,,,,,,,,,,,,,,,,,,,,,,,,,,,,,,,,,,,,,,,,,,,,,,,,,,,,,,,,,,,,,,,,
1764666122.015904,9967,0,4420.128418,4444.871582,4558.077148,4577.94873,4427.05127,4572.563965,4582.94873,4434.487305,4606.282227,4357.94873,4509.487305,4536.922852,4586.282227,4398.717773,4381.282227,4516.538574,4563.205078,4535.512695,4516.025879,4389.615234,4396.794922,4588.205078,4541.410156,4508.589844,4362.05127,4615.384766,4435.769043,4592.820313,4538.205078,4443.333496,4564.358887,4544.615234,2485,1,21,1792,15503,,,,0,4,4,4,4,4,4,4,4,4,4,4,4,4,4,4,4,4,4,4,4,4,4,4,4,4,4,4,4,4,4,4,4,100,,,,,,,,,,,,,,,,,,,,,,,,,,,,,,,,,,,,,,,,,,,,,,,,,,,,,,,,,,,,,,,,,,,,,,,,,,,,,,,,,,,,,,,,,,,,,,,,,,,,,,,,,,,,,,,,,,,,,,,,,,,,,,,,,,,,,,,,,,,,,,,,,,,,,,,,,,,,,,,,,,,,,,,,,,,,,,,,,,,,,,,,,,,,,,,,,,,,,,,,,,,,,,
1764666122.019810,9968,0,4409.230957,4431.666504,4542.692383,4563.077148,4412.05127,4560.384766,4569.102539,4421.153809,4598.589844,4333.077148,4493.461426,4523.205078,4572.307617,4392.94873,4368.589844,4510,4552.563965,4527.436035,4508.205078,4379.743652,4392.307617,4579.230957,4530.128418,4496.410156,4385.384766,4609.358887,4412.307617,4576.922852,4529.487305,4430.641113,4550.384766,4534.358887,2852,1,21,2048,15510,,,,0,4,4,4,4,4,4,4,4,4,4,4,4,4,4,4,4,4,4,4,4,4,4,4,4,4,4,4,4,4,4,4,4,100,,,,,,,,,,,,,,,,,,,,,,,,,,,,,,,,,,,,,,,,,,,,,,,,,,,,,,,,,,,,,,,,,,,,,,,,,,,,,,,,,,,,,,,,,,,,,,,,,,,,,,,,,,,,,,,,,,,,,,,,,,,,,,,,,,,,,,,,,,,,,,,,,,,,,,,,,,,,,,,,,,,,,,,,,,,,,,,,,,,,,,,,,,,,,,,,,,,,,,,,,,,,,,
1764666122.023716,9969,0,4400.384766,4420.897461,4529.230957,4547.820313,4405.769043,4548.077148,4556.410156,4408.974121,4595.128418,4342.820313,4482.436035,4513.461426,4560.897461,4394.230957,4362.179688,4507.692383,4544.871582,4525.512695,4507.179688,4377.307617,4394.487305,4575.512695,4523.589844,4490.128418,4411.922852,4610.897461,4389.487305,4564.743652,4523.205078,4422.436035,4539.487305,4527.94873,2843,1,21,2048,15510,,,,0,4,4,4,4,4,4,4,4,4,4,4,4,4,4,4,4,4,4,4,4,4,4,4,4,4,4,4,4,4,4,4,4,100,,,,,,,,,,,,,,,,,,,,,,,,,,,,,,,,,,,18876,0,0.316671,-0.617188,-0.343567,0.633057,0.832133,-0.566475,-0.053717,-10.166667,45,4.5,,,,,,,,,,,,,,,,,,,,,,,,,,,,,,,,,,,,,,,,,,,,,,,,,,,,,,,,,,,,,,,,,,,,,,,,,,,,,,,,,,,,,,,,,,,,,,,,,,,,,,,,,,,,,,,,,,,,,,,,,,,,,,,,,,,,,,,,,,,,,,,,,,,,,,,,,,,,,,,,
1764666122.027622,9970,0,4400.128418,4420.384766,4528.077148,4544.358887,4412.94873,4544.358887,4553.974121,4406.666504,4599.743652,4376.666504,4483.589844,4513.589844,4560.384766,4402.563965,4365.897461,4510.256348,4547.436035,4531.538574,4513.461426,4384.615234,4403.205078,4580.512695,4527.307617,4494.487305,4424.871582,4619.487305,4383.717773,4565.384766,4523.846191,4425.897461,4540.384766,4530.512695,1720,1,21,2304,15518,,,,0,4,4,4,4,4,4,4,4,4,4,4,4,4,4,4,4,4,4,4,4,4,4,4,4,4,4,4,4,4,4,4,4,100,,,,,,,,,,,,,,,,,,,,,,,,,,,,,,,,,,,,,,,,,,,,,,,1.625505,1.658565,0.930703,0.551546,0.547531,2.498747,2.28774,0.746353,0.734925,0.673688,1.77178,1.365831,0.959072,1.09788,0.922123,2.401227,1.280323,1.070529,0.968145,0.819946,2.026844,2.214447,0.799338,1.158289,0.80774,2.063503,1.290161,0.604346,0.626217,0.46747,1.503324,1.786591,0.697758,0.59818,0.619874,1.621575,1.84825,0.873018,1.289559,0.816962,1.396958,0.987306,1.626601,1.085225,1.2189,1.542206,2.250386,0.778479,2.980858,1.647899,0.937688,1.512188,0.708919,0.504518,0.665755,1.277285,1.841378,0.673231,0.402507,0.486766,1.6353,1.512654,0.984949,0.386773,0.431583,0.680203,0.631228,0.419686,0.322426,0.403176,0.27092,1.27661,1.077872,0.635971,0.802277,0.317565,1.574176,0.984498,0.386386,0.524123,1.615208,2.96355,1.245611,0.524846,0.637698,0.787187,6.218498,3.190157,1.224996,1.41584,0.391221,4.475451,2.463074,0.800662,0.990694,0.966672,1.610139,1.026662,0.799572,0.719343,1.605718,2.717879,1.443704,1.303466,0.995589,1.324381,2.375356,1.149741,0.605475,0.706988,2.032363,3.058435,0.709945,0.323176,0.497735,1.807959,2.316843,1.232196,0.666225,0.779894,2.017292,5.042621,7.436382,17.255278,12.257857,1.935924,1.43242,0.521649,1.216876,0.914503,2.100068,3.283628,1.147744,1.295119,1.503733,1.89639,2.925636,1.172243,0.711462,0.827947,0.813207,1.282633,0.392648,0.347959,0.35592,1.778046,2.566939,0.632461,0.729693,0.720375,2.136046,3.165763,1.32122,1.804365,0.74041,1.728851,2.553338,0.808542,0.901989,0.839143
1764666122.031528,9971,0,4408.205078,4428.846191,4539.743652,4554.487305,4428.589844,4550.769043,4563.077148,4414.615234,4611.025879,4407.179688,4494.743652,4521.794922,4571.153809,4412.563965,4376.025879,4515.384766,4558.846191,4541.025879,4521.538574,4396.410156,4413.077148,4590.384766,4538.589844,4505.641113,4417.820313,4628.077148,4398.974121,4577.692383,4530,4438.717773,4552.436035,4540,2823,1,21,2304,15518,,,,0,4,4,4,4,4,4,4,4,4,4,4,4,4,4,4,4,4,4,4,4,4,4,4,4,4,4,4,4,4,4,4,4,100,,,,,,,,,,,,,,,,,,,,,,,,,,,,,,,,,,,,,,,,,,,,,,,,,,,,,,,,,,,,,,,,,,,,,,,,,,,,,,,,,,,,,,,,,,,,,,,,,,,,,,,,,,,,,,,,,,,,,,,,,,,,,,,,,,,,,,,,,,,,,,,,,,,,,,,,,,,,,,,,,,,,,,,,,,,,,,,,,,,,,,,,,,,,,,,,,,,,,,,,,,,,,,
1764666122.035433,9972,0,4417.563965,4438.333496,4554.615234,4568.461426,4441.410156,4560.384766,4575.512695,4423.974121,4622.820313,4414.358887,4506.794922,4530.128418,4584.487305,4417.436035,4385,4519.230957,4570.128418,4546.922852,4523.974121,4403.205078,4417.307617,4597.563965,4549.102539,4515,4399.358887,4628.846191,4423.717773,4591.153809,4535.769043,4450.256348,4566.153809,4548.846191,2534,1,21,2048,15526,,,,0,4,4,4,4,4,4,4,4,4,4,4,4,4,4,4,4,4,4,4,4,4,4,4,4,4,4,4,4,4,4,4,4,100,,,,,,,,,,,,,,,,,,,,,,,,,,,,,,,,,,,,,,,,,,,,,,,,,,,,,,,,,,,,,,,,,,,,,,,,,,,,,,,,,,,,,,,,,,,,,,,,,,,,,,,,,,,,,,,,,,,,,,,,,,,,,,,,,,,,,,,,,,,,,,,,,,,,,,,,,,,,,,,,,,,,,,,,,,,,,,,,,,,,,,,,,,,,,,,,,,,,,,,,,,,,,,
1764666122.039339,9973,0,4420.128418,4440.512695,4561.282227,4573.589844,4442.94873,4564.615234,4581.025879,4425.512695,4627.563965,4399.615234,4510.897461,4531.538574,4590.384766,4413.717773,4386.922852,4519.230957,4572.436035,4545.512695,4518.974121,4399.615234,4413.461426,4596.922852,4551.153809,4515.641113,4386.538574,4620.769043,4439.743652,4595,4536.025879,4450.897461,4571.025879,4549.615234,2801,1,21,2048,15526,,,,0,4,4,4,4,4,4,4,4,4,4,4,4,4,4,4,4,4,4,4,4,4,4,4,4,4,4,4,4,4,4,4,4,100,,,,,,,,,,,,,,,,,,,,,,,,,,,,,,,,,,,18877,0,0.317089,-0.616699,-0.343384,0.633423,0.821878,-0.570382,-0.037114,-10.166667,45.333332,4.166667,,,,,,,,,,,,,,,,,,,,,,,,,,,,,,,,,,,,,,,,,,,,,,,,,,,,,,,,,,,,,,,,,,,,,,,,,,,,,,,,,,,,,,,,,,,,,,,,,,,,,,,,,,,,,,,,,,,,,,,,,,,,,,,,,,,,,,,,,,,,,,,,,,,,,,,,,,,,,,,,
1764666122.043245,9974,0,4413.589844,4433.846191,4555.256348,4565,4433.717773,4560.256348,4576.025879,4417.692383,4621.538574,4381.794922,4505.641113,4525.128418,4585.641113,4403.974121,4380.769043,4515.769043,4564.871582,4538.846191,4511.153809,4388.846191,4404.743652,4590.384766,4543.846191,4507.436035,4391.282227,4610.641113,4436.282227,4586.025879,4530,4439.487305,4564.102539,4541.025879,2916,1,21,1280,15534,,,,0,4,4,4,4,4,4,4,4,4,4,4,4,4,4,4,4,4,4,4,4,4,4,4,4,4,4,4,4,4,4,4,4,100,,,,,,,,,,,,,,,,,,,,,,,,,,,,,,,,,,,,,,,,,,,,,,,,,,,,,,,,,,,,,,,,,,,,,,,,,,,,,,,,,,,,,,,,,,,,,,,,,,,,,,,,,,,,,,,,,,,,,,,,,,,,,,,,,,,,,,,,,,,,,,,,,,,,,,,,,,,,,,,,,,,,,,,,,,,,,,,,,,,,,,,,,,,,,,,,,,,,,,,,,,,,,,
1764666122.047151,9975,0,4402.179688,4422.820313,4541.410156,4549.102539,4422.05127,4551.153809,4564.743652,4407.436035,4607.563965,4377.563965,4496.025879,4515.769043,4574.743652,4394.743652,4370.641113,4511.538574,4553.589844,4533.333496,4507.820313,4379.871582,4397.307617,4582.436035,4532.05127,4495.897461,4409.615234,4607.05127,4416.282227,4570.512695,4521.282227,4423.333496,4550.769043,4528.461426,2838,1,21,1280,15534,,,,0,4,4,4,4,4,4,4,4,4,4,4,4,4,4,4,4,4,4,4,4,4,4,4,4,4,4,4,4,4,4,4,4,100,,,,,,,,,,,,,,,,,,,,,,,,,,,,,,,,,,,,,,,,,,,,,,,,,,,,,,,,,,,,,,,,,,,,,,,,,,,,,,,,,,,,,,,,,,,,,,,,,,,,,,,,,,,,,,,,,,,,,,,,,,,,,,,,,,,,,,,,,,,,,,,,,,,,,,,,,,,,,,,,,,,,,,,,,,,,,,,,,,,,,,,,,,,,,,,,,,,,,,,,,,,,,,
1764666122.051056,9976,0,4392.179688,4414.102539,4528.717773,4536.666504,4415.641113,4542.436035,4554.358887,4401.666504,4592.436035,4386.794922,4488.461426,4508.717773,4565.128418,4391.794922,4362.436035,4509.487305,4545.641113,4532.563965,4511.794922,4379.743652,4395.256348,4576.794922,4522.563965,4486.922852,4423.717773,4611.794922,4392.94873,4557.307617,4514.230957,4411.410156,4538.717773,4518.974121,2723,1,21,256,15542,,,,0,4,4,4,4,4,4,4,4,4,4,4,4,4,4,4,4,4,4,4,4,4,4,4,4,4,4,4,4,4,4,4,4,100,,,,,,,,,,,,,,,,,,,,,,,,,,,,,,,,,,,,,,,,,,,,,,,,,,,,,,,,,,,,,,,,,,,,,,,,,,,,,,,,,,,,,,,,,,,,,,,,,,,,,,,,,,,,,,,,,,,,,,,,,,,,,,,,,,,,,,,,,,,,,,,,,,,,,,,,,,,,,,,,,,,,,,,,,,,,,,,,,,,,,,,,,,,,,,,,,,,,,,,,,,,,,,
1764666122.054962,9977,0,4387.563965,4410.256348,4523.974121,4534.871582,4416.794922,4537.179688,4549.615234,4401.538574,4582.94873,4395.128418,4486.025879,4506.282227,4561.282227,4396.282227,4360.256348,4511.025879,4543.717773,4535.641113,4519.230957,4387.307617,4398.077148,4574.102539,4519.230957,4483.589844,4416.025879,4619.102539,4378.717773,4551.666504,4510.897461,4407.820313,4532.307617,4516.794922,2830,1,21,256,15542,,,,0,4,4,4,4,4,4,4,4,4,4,4,4,4,4,4,4,4,4,4,4,4,4,4,4,4,4,4,4,4,4,4,4,100,,,,,,,,,,,,,,,,,,,,,,,,,,,,,,,,,,,18878,0,0.317517,-0.616272,-0.343079,0.633789,0.829203,-0.561592,-0.038579,-9.666667,45,2.5,,,,,,,,,,,,,,,,,,,,,,,,,,,,,,,,,,,,,,,,,,,,,,,,,,,,,,,,,,,,,,,,,,,,,,,,,,,,,,,,,,,,,,,,,,,,,,,,,,,,,,,,,,,,,,,,,,,,,,,,,,,,,,,,,,,,,,,,,,,,,,,,,,,,,,,,,,,,,,,,
1764666122.058868,9978,0,4388.461426,4410.641113,4528.333496,4543.077148,4422.05127,4535.128418,4550.512695,4403.589844,4582.563965,4391.794922,4488.589844,4507.692383,4563.333496,4404.743652,4364.871582,4514.487305,4545.769043,4538.333496,4523.333496,4396.025879,4401.153809,4573.461426,4521.666504,4485.641113,4384.743652,4621.282227,4378.846191,4554.102539,4510.769043,4411.794922,4531.794922,4521.282227,1904,1,21,512,15549,,,,0,4,4,4,4,4,4,4,4,4,4,4,4,4,4,4,4,4,4,4,4,4,4,4,4,4,4,4,4,4,4,4,4,100,,,,,,,,,,,,,,,,,,,,,,,,,,,,,,,,,,,,,,,,,,,,,,,,,,,,,,,,,,,,,,,,,,,,,,,,,,,,,,,,,,,,,,,,,,,,,,,,,,,,,,,,,,,,,,,,,,,,,,,,,,,,,,,,,,,,,,,,,,,,,,,,,,,,,,,,,,,,,,,,,,,,,,,,,,,,,,,,,,,,,,,,,,,,,,,,,,,,,,,,,,,,,,
1764666122.062774,9979,0,4392.692383,4412.692383,4538.461426,4556.282227,4426.538574,4536.282227,4554.487305,4404.615234,4590.897461,4380.641113,4494.487305,4511.153809,4568.589844,4412.436035,4373.846191,4517.179688,4548.589844,4537.436035,4520.897461,4399.230957,4400.384766,4574.871582,4527.179688,4491.025879,4348.461426,4615.897461,4389.615234,4561.410156,4512.820313,4419.230957,4535.512695,4528.846191,2615,1,21,512,15549,,,,0,4,4,4,4,4,4,4,4,4,4,4,4,4,4,4,4,4,4,4,4,4,4,4,4,4,4,4,4,4,4,4,4,100,,,,,,,,,,,,,,,,,,,,,,,,,,,,,,,,,,,,,,,,,,,,,,,,,,,,,,,,,,,,,,,,,,,,,,,,,,,,,,,,,,,,,,,,,,,,,,,,,,,,,,,,,,,,,,,,,,,,,,,,,,,,,,,,,,,,,,,,,,,,,,,,,,,,,,,,,,,,,,,,,,,,,,,,,,,,,,,,,,,,,,,,,,,,,,,,,,,,,,,,,,,,,,
1764666122.066680,9980,0,4397.05127,4414.871582,4549.487305,4568.077148,4427.692383,4540.128418,4558.717773,4405.256348,4603.461426,4373.846191,4501.538574,4515.256348,4573.589844,4416.282227,4383.205078,4517.179688,4550.256348,4533.333496,4513.717773,4395.769043,4395.641113,4577.436035,4531.922852,4497.179688,4333.974121,4607.692383,4401.282227,4568.461426,4516.153809,4425,4540.897461,4535,2712,1,21,512,15557,,,,0,4,4,4,4,4,4,4,4,4,4,4,4,4,4,4,4,4,4,4,4,4,4,4,4,4,4,4,4,4,4,4,4,100,,,,,,,,,,,,,,,,,,,,,,,,,,,,,,,,,,,,,,,,,,,,,,,,,,,,,,,,,,,,,,,,,,,,,,,,,,,,,,,,,,,,,,,,,,,,,,,,,,,,,,,,,,,,,,,,,,,,,,,,,,,,,,,,,,,,,,,,,,,,,,,,,,,,,,,,,,,,,,,,,,,,,,,,,,,,,,,,,,,,,,,,,,,,,,,,,,,,,,,,,,,,,,
1764666122.070585,9981,0,4398.974121,4416.025879,4556.410156,4574.871582,4426.153809,4545.384766,4561.410156,4408.077148,4614.743652,4377.820313,4508.205078,4518.333496,4576.538574,4415.384766,4389.743652,4515.384766,4550.512695,4530.384766,4507.692383,4389.871582,4390.769043,4579.871582,4533.333496,4501.538574,4356.153809,4603.205078,4404.743652,4570.897461,4519.743652,4425.769043,4544.871582,4536.666504,2551,1,21,512,15557,,,,0,4,4,4,4,4,4,4,4,4,4,4,4,4,4,4,4,4,4,4,4,4,4,4,4,4,4,4,4,4,4,4,4,100,,,,,,,,,,,,,,,,,,,,,,,,,,,,,,,,,,,18879,0,0.318428,-0.615295,-0.342407,0.634644,0.831644,-0.565499,-0.039556,-9.666667,46.166668,5.833333,,,,,,,,,,,,,,,,,,,,,,,,,,,,,,,,,,,,,,,,,,,,,,,,,,,,,,,,,,,,,,,,,,,,,,,,,,,,,,,,,,,,,,,,,,,,,,,,,,,,,,,,,,,,,,,,,,,,,,,,,,,,,,,,,,,,,,,,,,,,,,,,,,,,,,,,,,,,,,,,
1764666122.074491,9982,0,4397.94873,4415.641113,4557.307617,4576.410156,4424.487305,4549.487305,4563.461426,4413.974121,4620.769043,4388.589844,4513.589844,4520.128418,4578.333496,4411.666504,4392.692383,4514.871582,4550.769043,4533.717773,4508.589844,4387.94873,4391.794922,4581.025879,4531.794922,4503.077148,4404.871582,4606.410156,4398.589844,4568.077148,4522.436035,4422.05127,4545.384766,4534.615234,2666,1,21,768,15565,,,,0,4,4,4,4,4,4,4,4,4,4,4,4,4,4,4,4,4,4,4,4,4,4,4,4,4,4,4,4,4,4,4,4,100,,,,,,,,,,,,,,,,,,,,,,,,,,,,,,,,,,,,,,,,,,,,,,,,,,,,,,,,,,,,,,,,,,,,,,,,,,,,,,,,,,,,,,,,,,,,,,,,,,,,,,,,,,,,,,,,,,,,,,,,,,,,,,,,,,,,,,,,,,,,,,,,,,,,,,,,,,,,,,,,,,,,,,,,,,,,,,,,,,,,,,,,,,,,,,,,,,,,,,,,,,,,,,
1764666122.078397,9983,0,4396.410156,4414.743652,4554.102539,4575.256348,4425.641113,4551.282227,4566.666504,4421.410156,4622.563965,4400,4518.589844,4521.666504,4580.769043,4409.358887,4393.589844,4518.589844,4554.102539,4545.641113,4518.205078,4394.358887,4401.666504,4582.436035,4530.641113,4503.717773,4452.94873,4615.897461,4390.128418,4564.102539,4523.846191,4418.461426,4543.717773,4532.436035,2801,1,21,768,15565,,,,0,4,4,4,4,4,4,4,4,4,4,4,4,4,4,4,4,4,4,4,4,4,4,4,4,4,4,4,4,4,4,4,4,100,,,,,,,,,,,,,,,,,,,,,,,,,,,,,,,,,,,,,,,,,,,,,,,,,,,,,,,,,,,,,,,,,,,,,,,,,,,,,,,,,,,,,,,,,,,,,,,,,,,,,,,,,,,,,,,,,,,,,,,,,,,,,,,,,,,,,,,,,,,,,,,,,,,,,,,,,,,,,,,,,,,,,,,,,,,,,,,,,,,,,,,,,,,,,,,,,,,,,,,,,,,,,,
1764666122.082303,9984,0,4397.692383,4415.769043,4550.897461,4573.974121,4429.615234,4551.153809,4571.794922,4427.692383,4624.487305,4411.282227,4523.717773,4524.615234,4585.641113,4411.282227,4395.384766,4526.666504,4562.179688,4563.333496,4533.333496,4408.077148,4418.077148,4586.666504,4532.94873,4506.025879,4474.871582,4626.410156,4388.461426,4564.358887,4524.615234,4419.230957,4542.820313,4534.102539,2771,1,21,1024,15573,,,,0,4,4,4,4,4,4,4,4,4,4,4,4,4,4,4,4,4,4,4,4,4,4,4,4,4,4,4,4,4,4,4,4,100,,,,,,,,,,,,,,,,,,,,,,,,,,,,,,,,,,,,,,,,,,,,,,,,,,,,,,,,,,,,,,,,,,,,,,,,,,,,,,,,,,,,,,,,,,,,,,,,,,,,,,,,,,,,,,,,,,,,,,,,,,,,,,,,,,,,,,,,,,,,,,,,,,,,,,,,,,,,,,,,,,,,,,,,,,,,,,,,,,,,,,,,,,,,,,,,,,,,,,,,,,,,,,
1764666122.086208,9985,0,4401.538574,4418.717773,4549.743652,4571.666504,4433.205078,4549.487305,4576.538574,4429.102539,4628.974121,4423.333496,4526.922852,4528.461426,4591.025879,4416.538574,4398.589844,4535.256348,4571.666504,4579.102539,4546.153809,4421.410156,4432.94873,4593.333496,4538.333496,4510.897461,4462.692383,4631.922852,4396.153809,4569.743652,4524.487305,4423.717773,4543.589844,4538.846191,2961,1,21,1024,15573,,,,0,4,4,4,4,4,4,4,4,4,4,4,4,4,4,4,4,4,4,4,4,4,4,4,4,4,4,4,4,4,4,4,4,100,,,,,,,,,,,,,,,,,,,,,,,,,,,,,,,,,,,18880,0,0.318428,-0.615295,-0.342407,0.634644,0.819924,-0.566475,-0.042974,-10,47.5,3.833333,,,,,,,,,,,,,,,,,,,,,,,,,,,,,,,,,,,,,,,,,,,,,,,,,,,,,,,,,,,,,,,,,,,,,,,,,,,,,,,,,,,,,,,,,,,,,,,,,,,,,,,,,,,,,,,,,,,,,,,,,,,,,,,,,,,,,,,,,,,,,,,,,,,,,,,,,,,,,,,,
1764666122.090114,9986,0,4403.974121,4419.871582,4547.820313,4565.256348,4431.666504,4545.256348,4576.410156,4423.205078,4632.05127,4433.077148,4524.358887,4530.128418,4591.666504,4420.128418,4400.769043,4538.589844,4575.769043,4583.974121,4549.230957,4425.512695,4438.333496,4598.589844,4541.282227,4514.871582,4429.230957,4629.102539,4405.641113,4575.128418,4522.307617,4426.025879,4543.077148,4540.641113,2585,1,21,1280,15581,,,,0,4,4,4,4,4,4,4,4,4,4,4,4,4,4,4,4,4,4,4,4,4,4,4,4,4,4,4,4,4,4,4,4,100,,,,,,,,,,,,,,,,,,,,,,,,,,,,,,,,,,,,,,,,,,,,,,,,,,,,,,,,,,,,,,,,,,,,,,,,,,,,,,,,,,,,,,,,,,,,,,,,,,,,,,,,,,,,,,,,,,,,,,,,,,,,,,,,,,,,,,,,,,,,,,,,,,,,,,,,,,,,,,,,,,,,,,,,,,,,,,,,,,,,,,,,,,,,,,,,,,,,,,,,,,,,,,
1764666122.094020,9987,0,4400.641113,4415.384766,4541.538574,4553.717773,4422.94873,4537.692383,4569.230957,4410.897461,4626.282227,4431.282227,4513.974121,4526.025879,4583.974121,4417.436035,4397.05127,4532.563965,4569.871582,4572.692383,4540.256348,4416.538574,4431.282227,4597.179688,4536.794922,4512.94873,4396.794922,4619.230957,4407.436035,4573.974121,4517.820313,4421.025879,4538.077148,4534.487305,2862,1,21,1280,15581,,,,0,4,4,4,4,4,4,4,4,4,4,4,4,4,4,4,4,4,4,4,4,4,4,4,4,4,4,4,4,4,4,4,4,100,,,,,,,,,,,,,,,,,,,,,,,,,,,,,,,,,,,,,,,,,,,,,,,,,,,,,,,,,,,,,,,,,,,,,,,,,,,,,,,,,,,,,,,,,,,,,,,,,,,,,,,,,,,,,,,,,,,,,,,,,,,,,,,,,,,,,,,,,,,,,,,,,,,,,,,,,,,,,,,,,,,,,,,,,,,,,,,,,,,,,,,,,,,,,,,,,,,,,,,,,,,,,,
1764666122.097926,9988,0,4391.922852,4406.282227,4531.666504,4541.025879,4411.282227,4529.743652,4557.94873,4397.94873,4609.871582,4412.94873,4499.615234,4517.05127,4569.871582,4408.205078,4385.897461,4518.333496,4556.025879,4549.230957,4524.230957,4400.384766,4416.282227,4588.717773,4525.384766,4504.487305,4380.128418,4607.179688,4399.743652,4565.384766,4512.307617,4410.512695,4531.282227,4521.538574,2758,1,21,1536,15588,,,,0,4,4,4,4,4,4,4,4,4,4,4,4,4,4,4,4,4,4,4,4,4,4,4,4,4,4,4,4,4,4,4,4,100,,,,,,,,,,,,,,,,,,,,,,,,,,,,,,,,,,,,,,,,,,,,,,,,,,,,,,,,,,,,,,,,,,,,,,,,,,,,,,,,,,,,,,,,,,,,,,,,,,,,,,,,,,,,,,,,,,,,,,,,,,,,,,,,,,,,,,,,,,,,,,,,,,,,,,,,,,,,,,,,,,,,,,,,,,,,,,,,,,,,,,,,,,,,,,,,,,,,,,,,,,,,,,
1764666122.101832,9989,0,4383.974121,4398.846191,4523.846191,4534.487305,4404.358887,4526.282227,4549.871582,4392.307617,4591.666504,4384.615234,4488.333496,4508.333496,4556.794922,4397.94873,4371.922852,4503.589844,4542.692383,4526.666504,4510.641113,4387.94873,4402.94873,4578.846191,4513.974121,4494.743652,4376.666504,4599.487305,4391.153809,4556.922852,4509.487305,4402.820313,4529.230957,4509.487305,2790,1,21,1536,15588,,,,0,4,4,4,4,4,4,4,4,4,4,4,4,4,4,4,4,4,4,4,4,4,4,4,4,4,4,4,4,4,4,4,4,100,,,,,,,,,,,,,,,,,,,,,,,,,,,,,,,,,,,18881,0,0.319325,-0.614258,-0.341736,0.635559,0.815041,-0.56208,-0.037114,-9.333333,45.333332,3.666667,,,,,,,,,,,,,,,,,,,,,,,,,,,,,,,,,,,,,,,,,,,,,,,,,,,,,,,,,,,,,,,,,,,,,,,,,,,,,,,,,,,,,,,,,,,,,,,,,,,,,,,,,,,,,,,,,,,,,,,,,,,,,,,,,,,,,,,,,,,,,,,,,,,,,,,,,,,,,,,,
1764666122.105737,9990,0,4382.563965,4398.333496,4522.94873,4537.563965,4406.666504,4529.871582,4550.128418,4396.282227,4584.230957,4362.307617,4485.512695,4505.512695,4551.666504,4393.333496,4363.461426,4497.436035,4537.179688,4518.846191,4506.666504,4386.025879,4398.077148,4574.230957,4510.897461,4489.743652,4373.589844,4599.615234,4391.153809,4556.538574,4511.538574,4404.615234,4535.512695,4504.871582,2804,1,21,1792,15596,,,,0,4,4,4,4,4,4,4,4,4,4,4,4,4,4,4,4,4,4,4,4,4,4,4,4,4,4,4,4,4,4,4,4,100,,,,,,,,,,,,,,,,,,,,,,,,,,,,,,,,,,,,,,,,,,,,,,,,,,,,,,,,,,,,,,,,,,,,,,,,,,,,,,,,,,,,,,,,,,,,,,,,,,,,,,,,,,,,,,,,,,,,,,,,,,,,,,,,,,,,,,,,,,,,,,,,,,,,,,,,,,,,,,,,,,,,,,,,,,,,,,,,,,,,,,,,,,,,,,,,,,,,,,,,,,,,,,
1764666122.109643,9991,0,4388.461426,4404.358887,4527.436035,4546.794922,4415.641113,4538.077148,4557.820313,4404.871582,4591.922852,4358.717773,4490.384766,4510.128418,4555.897461,4397.05127,4366.282227,4504.358887,4541.153809,4530.512695,4512.820313,4393.205078,4402.436035,4577.692383,4517.820313,4491.538574,4365.256348,4605.769043,4400.641113,4565.256348,4517.179688,4414.487305,4546.153809,4507.563965,2979,1,21,1792,15596,,,,0,4,4,4,4,4,4,4,4,4,4,4,4,4,4,4,4,4,4,4,4,4,4,4,4,4,4,4,4,4,4,4,4,100,,,,,,,,,,,,,,,,,,,,,,,,,,,,,,,,,,,,,,,,,,,,,,,,,,,,,,,,,,,,,,,,,,,,,,,,,,,,,,,,,,,,,,,,,,,,,,,,,,,,,,,,,,,,,,,,,,,,,,,,,,,,,,,,,,,,,,,,,,,,,,,,,,,,,,,,,,,,,,,,,,,,,,,,,,,,,,,,,,,,,,,,,,,,,,,,,,,,,,,,,,,,,,
1764666122.113549,9992,0,4397.436035,4411.410156,4531.538574,4555.641113,4424.871582,4545.641113,4567.563965,4411.153809,4607.179688,4371.666504,4498.974121,4519.358887,4565.769043,4406.282227,4379.358887,4519.871582,4550.641113,4552.94873,4523.077148,4402.563965,4411.538574,4586.153809,4529.871582,4497.692383,4359.102539,4612.94873,4411.282227,4576.153809,4522.563965,4424.615234,4552.94873,4512.436035,2881,1,21,2048,15604,,,,0,4,4,4,4,4,4,4,4,4,4,4,4,4,4,4,4,4,4,4,4,4,4,4,4,4,4,4,4,4,4,4,4,100,,,,,,,,,,,,,,,,,,,,,,,,,,,,,,,,,,,,,,,,,,,,,,,,,,,,,,,,,,,,,,,,,,,,,,,,,,,,,,,,,,,,,,,,,,,,,,,,,,,,,,,,,,,,,,,,,,,,,,,,,,,,,,,,,,,,,,,,,,,,,,,,,,,,,,,,,,,,,,,,,,,,,,,,,,,,,,,,,,,,,,,,,,,,,,,,,,,,,,,,,,,,,,
1764666122.117455,9993,0,4404.358887,4414.871582,4531.794922,4560,4429.230957,4549.615234,4574.230957,4412.94873,4617.692383,4385.897461,4507.307617,4528.461426,4576.025879,4415.769043,4395.641113,4533.589844,4560,4571.025879,4530.384766,4408.461426,4419.230957,4593.717773,4538.846191,4503.846191,4366.025879,4617.179688,4414.358887,4581.025879,4524.230957,4427.820313,4551.282227,4515.128418,2726,1,21,2048,15604,,,,0,4,4,4,4,4,4,4,4,4,4,4,4,4,4,4,4,4,4,4,4,4,4,4,4,4,4,4,4,4,4,4,4,100,,,,,,,,,,,,,,,,,,,,,,,,,,,,,,,,,,,18882,0,0.31974,-0.613647,-0.341309,0.636169,0.827249,-0.555732,-0.028812,-10,46.333332,2.666667,,,,,,,,,,,,,,,,,,,,,,,,,,,,,,,,,,,,,,,,,,,,,,,,,,,,,,,,,,,,,,,,,,,,,,,,,,,,,,,,,,,,,,,,,,,,,,,,,,,,,,,,,,,,,,,,,,,,,,,,,,,,,,,,,,,,,,,,,,,,,,,,,,,,,,,,,,,,,,,,
1764666122.121360,9994,0,4406.666504,4413.589844,4528.461426,4559.615234,4428.205078,4549.743652,4576.025879,4412.94873,4616.410156,4388.077148,4512.820313,4533.333496,4582.179688,4420.897461,4405.897461,4536.922852,4564.743652,4573.077148,4531.153809,4409.487305,4421.538574,4595,4539.230957,4506.538574,4385.384766,4617.692383,4407.820313,4577.179688,4522.05127,4422.820313,4542.563965,4514.487305,1335,1,21,2304,15612,,,,0,4,4,4,4,4,4,4,4,4,4,4,4,4,4,4,4,4,4,4,4,4,4,4,4,4,4,4,4,4,4,4,4,100,,,,,,,,,,,,,,,,,,,,,,,,,,,,,,,,,,,,,,,,,,,,,,,,,,,,,,,,,,,,,,,,,,,,,,,,,,,,,,,,,,,,,,,,,,,,,,,,,,,,,,,,,,,,,,,,,,,,,,,,,,,,,,,,,,,,,,,,,,,,,,,,,,,,,,,,,,,,,,,,,,,,,,,,,,,,,,,,,,,,,,,,,,,,,,,,,,,,,,,,,,,,,,
1764666122.125266,9995,0,4403.974121,4410.256348,4524.487305,4555.641113,4423.846191,4547.563965,4574.102539,4413.333496,4605.384766,4378.974121,4513.974121,4531.410156,4582.436035,4419.615234,4405,4529.102539,4562.05127,4558.974121,4527.307617,4407.563965,4417.692383,4588.589844,4530.897461,4504.487305,4403.205078,4614.871582,4396.410156,4567.179688,4518.077148,4413.717773,4532.563965,4511.794922,2704,1,21,2304,15612,,,,0,4,4,4,4,4,4,4,4,4,4,4,4,4,4,4,4,4,4,4,4,4,4,4,4,4,4,4,4,4,4,4,4,100,,,,,,,,,,,,,,,,,,,,,,,,,,,,,,,,,,,,,,,,,,,,,,,,,,,,,,,,,,,,,,,,,,,,,,,,,,,,,,,,,,,,,,,,,,,,,,,,,,,,,,,,,,,,,,,,,,,,,,,,,,,,,,,,,,,,,,,,,,,,,,,,,,,,,,,,,,,,,,,,,,,,,,,,,,,,,,,,,,,,,,,,,,,,,,,,,,,,,,,,,,,,,,
1764666122.129172,9996,0,4398.333496,4408.717773,4523.461426,4550,4419.743652,4545.128418,4570,4413.077148,4592.820313,4370.897461,4511.666504,4523.846191,4577.307617,4413.589844,4394.230957,4517.05127,4553.846191,4539.743652,4523.461426,4405,4410.512695,4578.717773,4519.615234,4499.358887,4405.769043,4610.897461,4387.820313,4557.436035,4515.512695,4407.179688,4526.922852,4509.615234,2486,1,21,2560,15620,,,,0,4,4,4,4,4,4,4,4,4,4,4,4,4,4,4,4,4,4,4,4,4,4,4,4,4,4,4,4,4,4,4,4,100,,,,,,,,,,,,,,,,,,,,,,,,,,,,,,,,,,,,,,,,,,,,,,,,,,,,,,,,,,,,,,,,,,,,,,,,,,,,,,,,,,,,,,,,,,,,,,,,,,,,,,,,,,,,,,,,,,,,,,,,,,,,,,,,,,,,,,,,,,,,,,,,,,,,,,,,,,,,,,,,,,,,,,,,,,,,,,,,,,,,,,,,,,,,,,,,,,,,,,,,,,,,,,
1764666122.133078,9997,0,4393.717773,4411.922852,4528.333496,4546.153809,4419.102539,4544.871582,4566.538574,4411.666504,4587.307617,4374.743652,4508.717773,4516.153809,4570.897461,4407.307617,4382.179688,4509.358887,4545.769043,4528.846191,4523.974121,4404.102539,4405.256348,4572.563965,4512.820313,4496.025879,4393.333496,4609.615234,4387.307617,4553.846191,4516.153809,4408.589844,4528.974121,4511.282227,2172,1,21,2560,15620,,,,0,4,4,4,4,4,4,4,4,4,4,4,4,4,4,4,4,4,4,4,4,4,4,4,4,4,4,4,4,4,4,4,4,100,,,,,,,,,,,,,,,,,,,,,,,,,,,,,,,,,,,18883,0,0.320567,-0.612854,-0.34082,0.63678,0.827249,-0.555732,-0.028812,-8.833333,43.333332,2,,,,,,,,,,,,,,,,,,,,,,,,,,,,,,,,,,,,,,,,,,,,,,,,,,,,,,,,,,,,,,,,,,,,,,,,,,,,,,,,,,,,,,,,,,,,,,,,,,,,,,,,,,,,,,,,,,,,,,,,,,,,,,,,,,,,,,,,,,,,,,,,,,,,,,,,,,,,,,,,
1764666122.136983,9998,0,4394.102539,4420.384766,4539.871582,4548.205078,4423.333496,4548.589844,4566.025879,4411.153809,4592.692383,4390.641113,4508.846191,4514.230957,4568.205078,4406.153809,4378.333496,4510.897461,4544.358887,4533.717773,4529.230957,4406.538574,4405.897461,4575.384766,4515.256348,4498.589844,4380.897461,4614.871582,4395.384766,4559.487305,4520.769043,4418.717773,4538.717773,4518.846191,2718,1,21,2560,15628,,,,0,4,4,4,4,4,4,4,4,4,4,4,4,4,4,4,4,4,4,4,4,4,4,4,4,4,4,4,4,4,4,4,4,100,,,,,,,,,,,,,,,,,,,,,,,,,,,,,,,,,,,,,,,,,,,,,,,,,,,,,,,,,,,,,,,,,,,,,,,,,,,,,,,,,,,,,,,,,,,,,,,,,,,,,,,,,,,,,,,,,,,,,,,,,,,,,,,,,,,,,,,,,,,,,,,,,,,,,,,,,,,,,,,,,,,,,,,,,,,,,,,,,,,,,,,,,,,,,,,,,,,,,,,,,,,,,,
1764666122.140889,9999,0,4400.128418,4431.153809,4554.102539,4557.05127,4430.384766,4555.256348,4569.230957,4414.230957,4606.282227,4408.333496,4513.333496,4520.769043,4572.05127,4412.179688,4387.05127,4520.256348,4551.538574,4550.769043,4536.410156,4412.307617,4412.563965,4586.025879,4524.871582,4507.05127,4383.974121,4626.282227,4406.666504,4571.538574,4527.692383,4432.436035,4552.179688,4530.512695,2499,1,21,2560,15628,,,,0,4,4,4,4,4,4,4,4,4,4,4,4,4,4,4,4,4,4,4,4,4,4,4,4,4,4,4,4,4,4,4,4,100,,,,,,,,,,,,,,,,,,,,,,,,,,,,,,,,,,,,,,,,,,,,,,,,,,,,,,,,,,,,,,,,,,,,,,,,,,,,,,,,,,,,,,,,,,,,,,,,,,,,,,,,,,,,,,,,,,,,,,,,,,,,,,,,,,,,,,,,,,,,,,,,,,,,,,,,,,,,,,,,,,,,,,,,,,,,,,,,,,,,,,,,,,,,,,,,,,,,,,,,,,,,,,
1764666122.144795,10000,0,4408.077148,4438.974121,4563.974121,4568.077148,4435.512695,4561.025879,4573.846191,4421.025879,4620.384766,4416.538574,4519.358887,4531.794922,4580.256348,4422.179688,4403.205078,4531.410156,4562.820313,4569.230957,4541.794922,4418.333496,4421.410156,4597.563965,4535.384766,4516.794922,4403.717773,4637.307617,4413.589844,4582.692383,4533.333496,4441.666504,4561.922852,4540.512695,2869,1,21,2561,15635,,,,0,4,4,4,4,4,4,4,4,4,4,4,4,4,4,4,4,4,4,4,4,4,4,4,4,4,4,4,4,4,4,4,4,100,,,,,,,,,,,,,,,,,,,,,,,,,,,,,,,,,,,,,,,,,,,,,,,,,,,,,,,,,,,,,,,,,,,,,,,,,,,,,,,,,,,,,,,,,,,,,,,,,,,,,,,,,,,,,,,,,,,,,,,,,,,,,,,,,,,,,,,,,,,,,,,,,,,,,,,,,,,,,,,,,,,,,,,,,,,,,,,,,,,,,,,,,,,,,,,,,,,,,,,,,,,,,,
1764666122.148701,10001,0,4412.563965,4439.743652,4563.461426,4573.846191,4435.256348,4561.922852,4576.922852,4427.94873,4626.794922,4411.025879,4523.333496,4540.512695,4587.307617,4429.487305,4416.153809,4537.692383,4571.282227,4579.743652,4544.358887,4421.410156,4427.94873,4603.589844,4540.769043,4522.179688,4425.512695,4640,4412.307617,4587.05127,4534.487305,4441.410156,4562.436035,4542.436035,2851,1,21,2561,15635,,,,0,4,4,4,4,4,4,4,4,4,4,4,4,4,4,4,4,4,4,4,4,4,4,4,4,4,4,4,4,4,4,4,4,100,,,,,,,,,,,,,,,,,,,,,,,,,,,,,,,,,,,18884,0,0.32097,-0.612305,-0.340515,0.637268,0.828714,-0.54743,-0.041997,-7.833333,45.166668,5.166667,,,,,,,,,,,,,,,,,,,,,,,,,,,,,,,,,,,,,,,,,,,,,,,,,,,,,,,,,,,,,,,,,,,,,,,,,,,,,,,,,,,,,,,,,,,,,,,,,,,,,,,,,,,,,,,,,,,,,,,,,,,,,,,,,,,,,,,,,,,,,,,,,,,,,,,,,,,,,,,,
1764666122.152607,10002,0,4411.153809,4433.974121,4553.077148,4570.769043,4430,4557.563965,4576.666504,4431.153809,4622.436035,4397.563965,4523.461426,4541.153809,4588.461426,4429.102539,4416.410156,4536.025879,4572.692383,4578.589844,4545.128418,4420.641113,4429.358887,4602.05127,4539.871582,4520.384766,4431.025879,4631.794922,4406.025879,4583.717773,4530.897461,4433.333496,4553.461426,4535.256348,1730,1,21,2560,15643,,,,0,4,4,4,4,4,4,4,4,4,4,4,4,4,4,4,4,4,4,4,4,4,4,4,4,4,4,4,4,4,4,4,4,100,,,,,,,,,,,,,,,,,,,,,,,,,,,,,,,,,,,,,,,,,,,,,,,1.751589,1.43561,1.0269,0.686733,0.521206,2.566966,2.030406,0.745929,0.871919,0.670856,1.676072,1.256526,1.161829,1.236882,0.897511,2.00523,1.190041,1.094902,1.008085,0.813752,1.840564,1.993684,0.997917,1.267799,0.759904,2.139981,1.141552,0.585384,0.738516,0.462622,1.509133,1.59109,0.60782,0.726875,0.559293,1.555755,1.70631,0.99519,1.474126,0.753722,1.367409,1.046368,1.494026,1.082987,1.098415,1.357074,2.243976,1.077734,3.154598,1.789339,0.979126,1.425645,0.674664,0.675336,0.627187,1.412587,1.524484,0.65491,0.496249,0.454327,1.563072,1.366347,0.924248,0.471277,0.422424,0.464832,0.643865,0.389366,0.354825,0.359351,0.29255,1.246716,1.025869,0.715169,0.755469,0.359817,1.384244,0.909453,0.518613,0.48647,1.699258,2.462119,1.259606,0.618118,0.595728,0.722802,5.495337,2.921983,1.368964,1.294661,0.388385,4.176086,2.275827,0.888574,0.917535,0.706008,1.52904,1.145998,0.888812,0.706896,1.456069,2.528665,1.727407,1.534055,0.914393,1.326175,2.166469,1.274295,0.74986,0.635091,1.952805,2.546988,0.823916,0.405587,0.441014,1.757167,2.179921,1.337749,0.729188,0.770009,2.08276,4.75339,7.425231,19.209135,13.558231,1.663914,1.302406,0.658366,1.342237,1.067491,1.976918,3.016028,1.127263,1.287383,1.406997,2.033277,2.677847,1.122092,0.759908,0.764175,0.955212,1.191669,0.40752,0.370697,0.325504,1.737592,2.365436,0.713274,0.778168,0.738225,1.782961,2.801823,1.285142,1.734088,0.711664,1.599267,2.396079,0.876335,0.922467,0.846811
1764666122.156512,10003,0,4406.153809,4426.794922,4539.615234,4561.922852,4423.846191,4551.538574,4573.333496,4428.846191,4609.871582,4387.692383,4521.282227,4533.974121,4582.94873,4421.410156,4402.94873,4528.461426,4567.307617,4568.846191,4544.743652,4417.05127,4425.641113,4595.641113,4535.256348,4512.94873,4414.487305,4618.717773,4401.538574,4577.05127,4525.641113,4423.974121,4541.410156,4523.717773,2839,1,21,2560,15643,,,,0,4,4,4,4,4,4,4,4,4,4,4,4,4,4,4,4,4,4,4,4,4,4,4,4,4,4,4,4,4,4,4,4,100,,,,,,,,,,,,,,,,,,,,,,,,,,,,,,,,,,,,,,,,,,,,,,,,,,,,,,,,,,,,,,,,,,,,,,,,,,,,,,,,,,,,,,,,,,,,,,,,,,,,,,,,,,,,,,,,,,,,,,,,,,,,,,,,,,,,,,,,,,,,,,,,,,,,,,,,,,,,,,,,,,,,,,,,,,,,,,,,,,,,,,,,,,,,,,,,,,,,,,,,,,,,,,
1764666122.160418,10004,0,4401.538574,4423.717773,4531.410156,4554.102539,4421.410156,4547.563965,4568.461426,4421.666504,4595.897461,4388.846191,4519.102539,4523.717773,4574.358887,4412.05127,4383.846191,4520.128418,4559.102539,4556.922852,4542.307617,4412.94873,4419.102539,4588.974121,4530.641113,4505,4387.692383,4610.897461,4402.94873,4572.563965,4522.307617,4419.743652,4534.102539,4514.871582,2577,1,21,2304,15651,,,,0,4,4,4,4,4,4,4,4,4,4,4,4,4,4,4,4,4,4,4,4,4,4,4,4,4,4,4,4,4,4,4,4,100,,,,,,,,,,,,,,,,,,,,,,,,,,,,,,,,,,,,,,,,,,,,,,,,,,,,,,,,,,,,,,,,,,,,,,,,,,,,,,,,,,,,,,,,,,,,,,,,,,,,,,,,,,,,,,,,,,,,,,,,,,,,,,,,,,,,,,,,,,,,,,,,,,,,,,,,,,,,,,,,,,,,,,,,,,,,,,,,,,,,,,,,,,,,,,,,,,,,,,,,,,,,,,
1764666122.164324,10005,0,4400.128418,4426.666504,4532.563965,4552.692383,4423.974121,4546.922852,4564.102539,4412.94873,4587.436035,4398.589844,4517.94873,4516.922852,4567.94873,4407.436035,4370.256348,4515.641113,4553.077148,4548.846191,4537.307617,4409.615234,4412.820313,4585.897461,4528.205078,4501.666504,4370.641113,4615,4408.717773,4572.563965,4522.307617,4422.307617,4535.897461,4513.333496,2816,1,21,2304,15651,,,,0,4,4,4,4,4,4,4,4,4,4,4,4,4,4,4,4,4,4,4,4,4,4,4,4,4,4,4,4,4,4,4,4,100,,,,,,,,,,,,,,,,,,,,,,,,,,,,,,,,,,,18885,0,0.322074,-0.611084,-0.339722,0.638306,0.823831,-0.558662,-0.037114,-9.166667,47.166668,3.5,,,,,,,,,,,,,,,,,,,,,,,,,,,,,,,,,,,,,,,,,,,,,,,,,,,,,,,,,,,,,,,,,,,,,,,,,,,,,,,,,,,,,,,,,,,,,,,,,,,,,,,,,,,,,,,,,,,,,,,,,,,,,,,,,,,,,,,,,,,,,,,,,,,,,,,,,,,,,,,,
1764666122.168230,10006,0,4402.563965,4433.461426,4541.282227,4558.205078,4430.256348,4549.230957,4562.179688,4406.666504,4588.846191,4408.717773,4518.461426,4517.563965,4567.436035,4410.256348,4369.102539,4516.282227,4552.820313,4547.563965,4531.153809,4408.333496,4410.128418,4588.461426,4529.230957,4506.025879,4378.205078,4629.102539,4414.487305,4575.769043,4524.615234,4429.615234,4545,4519.230957,2929,1,21,2560,15659,,,,0,4,4,4,4,4,4,4,4,4,4,4,4,4,4,4,4,4,4,4,4,4,4,4,4,4,4,4,4,4,4,4,4,100,,,,,,,,,,,,,,,,,,,,,,,,,,,,,,,,,,,,,,,,,,,,,,,,,,,,,,,,,,,,,,,,,,,,,,,,,,,,,,,,,,,,,,,,,,,,,,,,,,,,,,,,,,,,,,,,,,,,,,,,,,,,,,,,,,,,,,,,,,,,,,,,,,,,,,,,,,,,,,,,,,,,,,,,,,,,,,,,,,,,,,,,,,,,,,,,,,,,,,,,,,,,,,
1764666122.172135,10007,0,4407.94873,4440.641113,4552.692383,4567.307617,4437.307617,4553.461426,4564.487305,4406.922852,4600,4413.974121,4520.897461,4525.384766,4573.846191,4418.077148,4378.846191,4520.512695,4558.974121,4552.820313,4527.05127,4410,4411.538574,4596.025879,4533.717773,4517.563965,4410,4643.205078,4418.333496,4580.512695,4527.94873,4437.563965,4556.794922,4529.743652,2848,1,21,2560,15659,,,,0,4,4,4,4,4,4,4,4,4,4,4,4,4,4,4,4,4,4,4,4,4,4,4,4,4,4,4,4,4,4,4,4,100,,,,,,,,,,,,,,,,,,,,,,,,,,,,,,,,,,,,,,,,,,,,,,,,,,,,,,,,,,,,,,,,,,,,,,,,,,,,,,,,,,,,,,,,,,,,,,,,,,,,,,,,,,,,,,,,,,,,,,,,,,,,,,,,,,,,,,,,,,,,,,,,,,,,,,,,,,,,,,,,,,,,,,,,,,,,,,,,,,,,,,,,,,,,,,,,,,,,,,,,,,,,,,
1764666122.176041,10008,0,4414.487305,4446.025879,4561.025879,4575,4441.922852,4558.461426,4571.538574,4414.871582,4615,4415,4525.512695,4536.025879,4584.102539,4424.871582,4392.307617,4526.153809,4568.461426,4560.897461,4526.794922,4414.487305,4414.871582,4604.615234,4540.256348,4531.666504,4449.615234,4647.692383,4420.897461,4585.897461,4531.282227,4443.205078,4566.666504,4540.897461,2735,1,21,2560,15667,,,,0,4,4,4,4,4,4,4,4,4,4,4,4,4,4,4,4,4,4,4,4,4,4,4,4,4,4,4,4,4,4,4,4,100,,,,,,,,,,,,,,,,,,,,,,,,,,,,,,,,,,,,,,,,,,,,,,,,,,,,,,,,,,,,,,,,,,,,,,,,,,,,,,,,,,,,,,,,,,,,,,,,,,,,,,,,,,,,,,,,,,,,,,,,,,,,,,,,,,,,,,,,,,,,,,,,,,,,,,,,,,,,,,,,,,,,,,,,,,,,,,,,,,,,,,,,,,,,,,,,,,,,,,,,,,,,,,
1764666122.179947,10009,0,4419.102539,4448.077148,4562.307617,4577.94873,4442.307617,4561.153809,4580.256348,4426.666504,4625.256348,4413.846191,4529.871582,4543.205078,4592.692383,4425.512695,4401.410156,4530.897461,4575.769043,4566.922852,4528.461426,4418.589844,4416.282227,4608.333496,4545.641113,4540.897461,4472.692383,4640.128418,4423.077148,4590.384766,4533.846191,4444.358887,4570.641113,4548.205078,2844,1,21,2560,15667,,,,0,4,4,4,4,4,4,4,4,4,4,4,4,4,4,4,4,4,4,4,4,4,4,4,4,4,4,4,4,4,4,4,4,100,,,,,,,,,,,,,,,,,,,,,,,,,,,,,,,,,,,18886,0,0.322882,-0.610291,-0.339233,0.638916,0.84483,-0.555732,-0.035649,-9.333333,46.5,3.666667,,,,,,,,,,,,,,,,,,,,,,,,,,,,,,,,,,,,,,,,,,,,,,,,,,,,,,,,,,,,,,,,,,,,,,,,,,,,,,,,,,,,,,,,,,,,,,,,,,,,,,,,,,,,,,,,,,,,,,,,,,,,,,,,,,,,,,,,,,,,,,,,,,,,,,,,,,,,,,,,
1764666122.183853,10010,0,4418.974121,4445.769043,4556.153809,4575.897461,4437.820313,4559.102539,4585.769043,4435.384766,4623.846191,4409.615234,4530.512695,4542.436035,4594.487305,4419.230957,4401.666504,4532.94873,4575.769043,4566.153809,4527.820313,4418.717773,4413.333496,4603.846191,4546.538574,4539.102539,4460.897461,4626.666504,4423.717773,4591.025879,4533.974121,4440.256348,4567.307617,4548.589844,1913,1,21,2560,15674,,,,0,4,4,4,4,4,4,4,4,4,4,4,4,4,4,4,4,4,4,4,4,4,4,4,4,4,4,4,4,4,4,4,4,100,,,,,,,,,,,,,,,,,,,,,,,,,,,,,,,,,,,,,,,,,,,,,,,,,,,,,,,,,,,,,,,,,,,,,,,,,,,,,,,,,,,,,,,,,,,,,,,,,,,,,,,,,,,,,,,,,,,,,,,,,,,,,,,,,,,,,,,,,,,,,,,,,,,,,,,,,,,,,,,,,,,,,,,,,,,,,,,,,,,,,,,,,,,,,,,,,,,,,,,,,,,,,,
1764666122.187759,10011,0,4413.974121,4439.871582,4546.410156,4571.025879,4430.512695,4552.179688,4584.615234,4436.410156,4611.025879,4399.871582,4525.512695,4534.743652,4588.461426,4410.512695,4393.717773,4530.769043,4568.077148,4558.333496,4522.94873,4413.717773,4407.692383,4593.205078,4541.922852,4527.179688,4414.871582,4616.153809,4422.307617,4587.179688,4531.410156,4432.820313,4558.205078,4542.436035,2623,1,21,2560,15674,,,,0,4,4,4,4,4,4,4,4,4,4,4,4,4,4,4,4,4,4,4,4,4,4,4,4,4,4,4,4,4,4,4,4,100,,,,,,,,,,,,,,,,,,,,,,,,,,,,,,,,,,,,,,,,,,,,,,,,,,,,,,,,,,,,,,,,,,,,,,,,,,,,,,,,,,,,,,,,,,,,,,,,,,,,,,,,,,,,,,,,,,,,,,,,,,,,,,,,,,,,,,,,,,,,,,,,,,,,,,,,,,,,,,,,,,,,,,,,,,,,,,,,,,,,,,,,,,,,,,,,,,,,,,,,,,,,,,
1764666122.191664,10012,0,4407.05127,4433.589844,4539.230957,4567.179688,4424.871582,4544.102539,4577.94873,4431.666504,4595.641113,4385.769043,4517.692383,4526.025879,4578.974121,4405.897461,4383.205078,4525.512695,4557.05127,4548.589844,4516.538574,4406.794922,4403.461426,4583.205078,4535.256348,4513.205078,4357.307617,4614.615234,4420.769043,4582.05127,4527.307617,4425.897461,4549.102539,4533.589844,2728,1,21,2561,15682,,,,0,4,4,4,4,4,4,4,4,4,4,4,4,4,4,4,4,4,4,4,4,4,4,4,4,4,4,4,4,4,4,4,4,100,,,,,,,,,,,,,,,,,,,,,,,,,,,,,,,,,,,,,,,,,,,,,,,,,,,,,,,,,,,,,,,,,,,,,,,,,,,,,,,,,,,,,,,,,,,,,,,,,,,,,,,,,,,,,,,,,,,,,,,,,,,,,,,,,,,,,,,,,,,,,,,,,,,,,,,,,,,,,,,,,,,,,,,,,,,,,,,,,,,,,,,,,,,,,,,,,,,,,,,,,,,,,,
1764666122.195570,10013,0,4402.179688,4430.128418,4537.563965,4566.410156,4424.487305,4538.974121,4569.743652,4425.897461,4588.846191,4373.205078,4511.666504,4521.922852,4571.794922,4408.333496,4376.794922,4520.641113,4548.589844,4544.358887,4514.358887,4402.94873,4404.102539,4579.615234,4530.384766,4505.641113,4319.615234,4621.025879,4420.897461,4579.487305,4523.974121,4422.820313,4545,4526.666504,2562,1,21,2561,15682,,,,0,4,4,4,4,4,4,4,4,4,4,4,4,4,4,4,4,4,4,4,4,4,4,4,4,4,4,4,4,4,4,4,4,100,,,,,,,,,,,,,,,,,,,,,,,,,,,,,,,,,,,18887,0,0.32361,-0.609314,-0.338684,0.639771,0.828226,-0.555732,-0.037114,-9.166667,46,1.833333,,,,,,,,,,,,,,,,,,,,,,,,,,,,,,,,,,,,,,,,,,,,,,,,,,,,,,,,,,,,,,,,,,,,,,,,,,,,,,,,,,,,,,,,,,,,,,,,,,,,,,,,,,,,,,,,,,,,,,,,,,,,,,,,,,,,,,,,,,,,,,,,,,,,,,,,,,,,,,,,
1764666122.199476,10014,0,4400.128418,4429.487305,4539.102539,4567.436035,4429.102539,4538.077148,4563.461426,4421.538574,4595.128418,4367.436035,4509.358887,4523.461426,4569.230957,4415,4377.436035,4519.615234,4545.128418,4548.589844,4519.615234,4403.589844,4409.102539,4581.666504,4528.589844,4506.153809,4323.205078,4629.358887,4420.512695,4579.487305,4522.563965,4423.461426,4545.512695,4523.333496,2678,1,21,2562,15690,,,,0,4,4,4,4,4,4,4,4,4,4,4,4,4,4,4,4,4,4,4,4,4,4,4,4,4,4,4,4,4,4,4,4,100,,,,,,,,,,,,,,,,,,,,,,,,,,,,,,,,,,,,,,,,,,,,,,,,,,,,,,,,,,,,,,,,,,,,,,,,,,,,,,,,,,,,,,,,,,,,,,,,,,,,,,,,,,,,,,,,,,,,,,,,,,,,,,,,,,,,,,,,,,,,,,,,,,,,,,,,,,,,,,,,,,,,,,,,,,,,,,,,,,,,,,,,,,,,,,,,,,,,,,,,,,,,,,
1764666122.203382,10015,0,4398.461426,4427.94873,4538.589844,4566.410156,4434.230957,4538.846191,4559.358887,4416.153809,4608.717773,4370.384766,4509.615234,4525.897461,4569.102539,4419.358887,4382.692383,4522.307617,4544.615234,4556.666504,4528.846191,4405.769043,4413.717773,4583.077148,4527.436035,4508.717773,4366.282227,4631.922852,4413.846191,4577.563965,4521.538574,4423.974121,4546.153809,4521.922852,2815,1,21,2562,15690,,,,0,4,4,4,4,4,4,4,4,4,4,4,4,4,4,4,4,4,4,4,4,4,4,4,4,4,4,4,4,4,4,4,4,100,,,,,,,,,,,,,,,,,,,,,,,,,,,,,,,,,,,,,,,,,,,,,,,,,,,,,,,,,,,,,,,,,,,,,,,,,,,,,,,,,,,,,,,,,,,,,,,,,,,,,,,,,,,,,,,,,,,,,,,,,,,,,,,,,,,,,,,,,,,,,,,,,,,,,,,,,,,,,,,,,,,,,,,,,,,,,,,,,,,,,,,,,,,,,,,,,,,,,,,,,,,,,,
1764666122.207287,10016,0,4394.230957,4422.563965,4533.077148,4560.641113,4434.743652,4538.333496,4555.512695,4407.05127,4618.461426,4379.871582,4510.641113,4524.230957,4568.077148,4417.94873,4388.077148,4525.128418,4542.94873,4559.871582,4534.615234,4405.384766,4414.230957,4578.589844,4523.589844,4506.794922,4425.769043,4626.538574,4398.846191,4569.487305,4519.102539,4420.897461,4543.205078,4520.769043,2774,1,21,2563,15698,,,,0,4,4,4,4,4,4,4,4,4,4,4,4,4,4,4,4,4,4,4,4,4,4,4,4,4,4,4,4,4,4,4,4,100,,,,,,,,,,,,,,,,,,,,,,,,,,,,,,,,,,,,,,,,,,,,,,,,,,,,,,,,,,,,,,,,,,,,,,,,,,,,,,,,,,,,,,,,,,,,,,,,,,,,,,,,,,,,,,,,,,,,,,,,,,,,,,,,,,,,,,,,,,,,,,,,,,,,,,,,,,,,,,,,,,,,,,,,,,,,,,,,,,,,,,,,,,,,,,,,,,,,,,,,,,,,,,
1764666122.211193,10017,0,4388.205078,4414.358887,4525.641113,4551.922852,4429.102539,4535.641113,4551.410156,4396.025879,4617.94873,4393.333496,4511.410156,4518.077148,4565.641113,4412.94873,4391.153809,4524.487305,4538.846191,4553.717773,4532.563965,4401.282227,4411.282227,4569.358887,4517.05127,4499.358887,4470.512695,4617.563965,4380.897461,4557.179688,4514.871582,4415.128418,4537.692383,4519.743652,3010,1,21,2563,15698,,,,0,4,4,4,4,4,4,4,4,4,4,4,4,4,4,4,4,4,4,4,4,4,4,4,4,4,4,4,4,4,4,4,4,100,,,,,,,,,,,,,,,,,,,,,,,,,,,,,,,,,,,18888,0,0.32433,-0.608337,-0.338135,0.640625,0.843365,-0.564522,-0.033696,-6.5,45,1.166667,,,,,,,,,,,,,,,,,,,,,,,,,,,,,,,,,,,,,,,,,,,,,,,,,,,,,,,,,,,,,,,,,,,,,,,,,,,,,,,,,,,,,,,,,,,,,,,,,,,,,,,,,,,,,,,,,,,,,,,,,,,,,,,,,,,,,,,,,,,,,,,,,,,,,,,,,,,,,,,,
1764666122.215099,10018,0,4384.102539,4407.94873,4522.05127,4545.256348,4421.666504,4533.461426,4549.230957,4389.615234,4609.230957,4407.05127,4512.05127,4512.307617,4563.974121,4409.743652,4392.179688,4520.769043,4535,4542.692383,4525.897461,4396.410156,4408.717773,4562.307617,4511.282227,4491.282227,4478.461426,4613.461426,4369.487305,4547.307617,4511.025879,4411.153809,4533.589844,4519.358887,2590,1,21,2564,15706,,,,0,4,4,4,4,4,4,4,4,4,4,4,4,4,4,4,4,4,4,4,4,4,4,4,4,4,4,4,4,4,4,4,4,100,,,,,,,,,,,,,,,,,,,,,,,,,,,,,,,,,,,,,,,,,,,,,,,,,,,,,,,,,,,,,,,,,,,,,,,,,,,,,,,,,,,,,,,,,,,,,,,,,,,,,,,,,,,,,,,,,,,,,,,,,,,,,,,,,,,,,,,,,,,,,,,,,,,,,,,,,,,,,,,,,,,,,,,,,,,,,,,,,,,,,,,,,,,,,,,,,,,,,,,,,,,,,,
1764666122.219005,10019,0,4385.641113,4407.94873,4526.025879,4545.641113,4418.461426,4534.615234,4551.922852,4393.205078,4600.384766,4416.282227,4512.94873,4512.692383,4566.153809,4412.05127,4393.461426,4518.077148,4535.512695,4536.282227,4521.410156,4394.487305,4410.256348,4563.333496,4510.897461,4487.820313,4450.384766,4618.974121,4371.025879,4546.153809,4510,4412.563965,4533.974121,4519.615234,2864,1,21,2564,15706,,,,0,4,4,4,4,4,4,4,4,4,4,4,4,4,4,4,4,4,4,4,4,4,4,4,4,4,4,4,4,4,4,4,4,100,,,,,,,,,,,,,,,,,,,,,,,,,,,,,,,,,,,,,,,,,,,,,,,,,,,,,,,,,,,,,,,,,,,,,,,,,,,,,,,,,,,,,,,,,,,,,,,,,,,,,,,,,,,,,,,,,,,,,,,,,,,,,,,,,,,,,,,,,,,,,,,,,,,,,,,,,,,,,,,,,,,,,,,,,,,,,,,,,,,,,,,,,,,,,,,,,,,,,,,,,,,,,,
1764666122.222910,10020,0,4393.717773,4414.615234,4535.128418,4554.102539,4422.820313,4540.256348,4560.256348,4406.025879,4597.563965,4416.538574,4514.615234,4521.410156,4572.820313,4419.487305,4397.692383,4521.025879,4542.692383,4541.666504,4523.717773,4396.922852,4415.641113,4573.461426,4517.563965,4491.153809,4407.307617,4630.897461,4384.615234,4555,4513.461426,4419.743652,4539.743652,4520.641113,2766,1,21,2565,15713,,,,0,4,4,4,4,4,4,4,4,4,4,4,4,4,4,4,4,4,4,4,4,4,4,4,4,4,4,4,4,4,4,4,4,100,,,,,,,,,,,,,,,,,,,,,,,,,,,,,,,,,,,,,,,,,,,,,,,,,,,,,,,,,,,,,,,,,,,,,,,,,,,,,,,,,,,,,,,,,,,,,,,,,,,,,,,,,,,,,,,,,,,,,,,,,,,,,,,,,,,,,,,,,,,,,,,,,,,,,,,,,,,,,,,,,,,,,,,,,,,,,,,,,,,,,,,,,,,,,,,,,,,,,,,,,,,,,,
1764666122.226816,10021,0,4405.384766,4424.230957,4543.974121,4566.666504,4431.794922,4548.717773,4571.410156,4421.410156,4601.666504,4408.333496,4517.94873,4534.743652,4582.179688,4428.077148,4405.769043,4529.871582,4554.743652,4557.94873,4532.05127,4402.692383,4421.922852,4587.820313,4528.589844,4499.358887,4375.256348,4641.025879,4403.205078,4569.615234,4520.641113,4429.358887,4548.846191,4522.563965,2788,1,21,2565,15713,,,,0,4,4,4,4,4,4,4,4,4,4,4,4,4,4,4,4,4,4,4,4,4,4,4,4,4,4,4,4,4,4,4,4,100,,,,,,,,,,,,,,,,,,,,,,,,,,,,,,,,,,,18889,0,0.325328,-0.607178,-0.337524,0.641541,0.826761,-0.57087,-0.027347,-8.166667,47.333332,2.833333,,,,,,,,,,,,,,,,,,,,,,,,,,,,,,,,,,,,,,,,,,,,,,,,,,,,,,,,,,,,,,,,,,,,,,,,,,,,,,,,,,,,,,,,,,,,,,,,,,,,,,,,,,,,,,,,,,,,,,,,,,,,,,,,,,,,,,,,,,,,,,,,,,,,,,,,,,,,,,,,
1764666122.230722,10022,0,4415.897461,4431.922852,4547.436035,4576.922852,4439.358887,4556.153809,4580.512695,4431.153809,4608.974121,4399.102539,4522.94873,4545.769043,4590.256348,4433.333496,4415.128418,4540.384766,4566.922852,4575.641113,4541.025879,4409.487305,4425.512695,4599.487305,4538.846191,4508.461426,4367.692383,4642.563965,4418.333496,4583.205078,4528.974121,4437.307617,4557.820313,4525.128418,2805,1,21,2566,15721,,,,0,4,4,4,4,4,4,4,4,4,4,4,4,4,4,4,4,4,4,4,4,4,4,4,4,4,4,4,4,4,4,4,4,100,,,,,,,,,,,,,,,,,,,,,,,,,,,,,,,,,,,,,,,,,,,,,,,,,,,,,,,,,,,,,,,,,,,,,,,,,,,,,,,,,,,,,,,,,,,,,,,,,,,,,,,,,,,,,,,,,,,,,,,,,,,,,,,,,,,,,,,,,,,,,,,,,,,,,,,,,,,,,,,,,,,,,,,,,,,,,,,,,,,,,,,,,,,,,,,,,,,,,,,,,,,,,,
1764666122.234628,10023,0,4421.538574,4434.615234,4543.717773,4579.230957,4440.769043,4559.230957,4583.974121,4431.282227,4614.487305,4396.025879,4527.563965,4549.615234,4593.589844,4433.205078,4420.512695,4545.897461,4573.589844,4584.358887,4544.743652,4414.230957,4424.871582,4603.846191,4543.717773,4514.487305,4379.358887,4634.743652,4425,4590.384766,4534.358887,4440.769043,4562.436035,4527.179688,2984,1,21,2566,15721,,,,0,4,4,4,4,4,4,4,4,4,4,4,4,4,4,4,4,4,4,4,4,4,4,4,4,4,4,4,4,4,4,4,4,100,,,,,,,,,,,,,,,,,,,,,,,,,,,,,,,,,,,,,,,,,,,,,,,,,,,,,,,,,,,,,,,,,,,,,,,,,,,,,,,,,,,,,,,,,,,,,,,,,,,,,,,,,,,,,,,,,,,,,,,,,,,,,,,,,,,,,,,,,,,,,,,,,,,,,,,,,,,,,,,,,,,,,,,,,,,,,,,,,,,,,,,,,,,,,,,,,,,,,,,,,,,,,,
1764666122.238534,10024,0,4420.512695,4431.922852,4534.487305,4571.922852,4435.384766,4557.05127,4580.769043,4423.461426,4614.615234,4398.461426,4528.461426,4545.641113,4590.128418,4427.94873,4416.410156,4542.94873,4572.179688,4579.487305,4541.538574,4414.358887,4420.641113,4600.641113,4541.666504,4515.384766,4395.384766,4622.307617,4423.077148,4588.589844,4533.846191,4438.333496,4559.230957,4526.153809,2886,1,21,2567,15729,,,,0,4,4,4,4,4,4,4,4,4,4,4,4,4,4,4,4,4,4,4,4,4,4,4,4,4,4,4,4,4,4,4,4,100,,,,,,,,,,,,,,,,,,,,,,,,,,,,,,,,,,,,,,,,,,,,,,,,,,,,,,,,,,,,,,,,,,,,,,,,,,,,,,,,,,,,,,,,,,,,,,,,,,,,,,,,,,,,,,,,,,,,,,,,,,,,,,,,,,,,,,,,,,,,,,,,,,,,,,,,,,,,,,,,,,,,,,,,,,,,,,,,,,,,,,,,,,,,,,,,,,,,,,,,,,,,,,
1764666122.242439,10025,0,4413.974121,4425.256348,4522.563965,4558.205078,4426.410156,4551.153809,4572.307617,4412.820313,4607.94873,4397.179688,4523.205078,4536.794922,4581.025879,4419.102539,4402.307617,4532.820313,4564.358887,4565.128418,4533.846191,4409.487305,4415.128418,4592.820313,4534.871582,4511.538574,4404.743652,4611.538574,4415.897461,4579.743652,4527.436035,4430.512695,4548.077148,4520.128418,2733,1,21,2567,15729,,,,0,4,4,4,4,4,4,4,4,4,4,4,4,4,4,4,4,4,4,4,4,4,4,4,4,4,4,4,4,4,4,4,4,100,,,,,,,,,,,,,,,,,,,,,,,,,,,,,,,,,,,18890,0,0.326095,-0.606201,-0.336914,0.642395,0.826761,-0.57087,-0.027347,-7.833333,45.166668,1.833333,,,,,,,,,,,,,,,,,,,,,,,,,,,,,,,,,,,,,,,,,,,,,,,,,,,,,,,,,,,,,,,,,,,,,,,,,,,,,,,,,,,,,,,,,,,,,,,,,,,,,,,,,,,,,,,,,,,,,,,,,,,,,,,,,,,,,,,,,,,,,,,,,,,,,,,,,,,,,,,,
1764666122.246345,10026,0,4406.025879,4417.94873,4512.179688,4545.769043,4418.589844,4544.871582,4563.077148,4404.615234,4597.436035,4386.282227,4513.717773,4528.205078,4570.512695,4409.615234,4383.717773,4521.922852,4554.871582,4550,4526.025879,4402.05127,4409.743652,4584.487305,4527.307617,4505.256348,4406.794922,4607.05127,4408.077148,4568.846191,4518.974121,4420.897461,4534.487305,4511.282227,1329,1,21,2568,15737,,,,0,4,4,4,4,4,4,4,4,4,4,4,4,4,4,4,4,4,4,4,4,4,4,4,4,4,4,4,4,4,4,4,4,100,,,,,,,,,,,,,,,,,,,,,,,,,,,,,,,,,,,,,,,,,,,,,,,,,,,,,,,,,,,,,,,,,,,,,,,,,,,,,,,,,,,,,,,,,,,,,,,,,,,,,,,,,,,,,,,,,,,,,,,,,,,,,,,,,,,,,,,,,,,,,,,,,,,,,,,,,,,,,,,,,,,,,,,,,,,,,,,,,,,,,,,,,,,,,,,,,,,,,,,,,,,,,,
1764666122.250251,10027,0,4401.538574,4414.358887,4508.589844,4542.563965,4415.256348,4541.922852,4557.820313,4402.179688,4589.487305,4372.05127,4505.256348,4524.487305,4564.358887,4403.461426,4370,4517.436035,4549.615234,4542.820313,4522.179688,4397.436035,4406.410156,4579.487305,4523.717773,4501.282227,4409.487305,4611.153809,4403.717773,4561.794922,4513.846191,4415.128418,4527.563965,4506.153809,2710,1,21,2568,15737,,,,0,4,4,4,4,4,4,4,4,4,4,4,4,4,4,4,4,4,4,4,4,4,4,4,4,4,4,4,4,4,4,4,4,100,,,,,,,,,,,,,,,,,,,,,,,,,,,,,,,,,,,,,,,,,,,,,,,,,,,,,,,,,,,,,,,,,,,,,,,,,,,,,,,,,,,,,,,,,,,,,,,,,,,,,,,,,,,,,,,,,,,,,,,,,,,,,,,,,,,,,,,,,,,,,,,,,,,,,,,,,,,,,,,,,,,,,,,,,,,,,,,,,,,,,,,,,,,,,,,,,,,,,,,,,,,,,,
1764666122.254157,10028,0,4404.102539,4418.717773,4515.897461,4552.307617,4417.307617,4544.871582,4560,4406.538574,4590.384766,4370.128418,4503.846191,4528.974121,4567.307617,4404.615234,4368.846191,4522.563965,4553.333496,4547.820313,4525.512695,4399.743652,4406.922852,4581.153809,4527.436035,4504.487305,4421.794922,4623.333496,4404.871582,4563.077148,4516.153809,4418.205078,4535.128418,4511.410156,2484,1,21,2564,15745,,,,0,4,4,4,4,4,4,4,4,4,4,4,4,4,4,4,4,4,4,4,4,4,4,4,4,4,4,4,4,4,4,4,4,100,,,,,,,,,,,,,,,,,,,,,,,,,,,,,,,,,,,,,,,,,,,,,,,,,,,,,,,,,,,,,,,,,,,,,,,,,,,,,,,,,,,,,,,,,,,,,,,,,,,,,,,,,,,,,,,,,,,,,,,,,,,,,,,,,,,,,,,,,,,,,,,,,,,,,,,,,,,,,,,,,,,,,,,,,,,,,,,,,,,,,,,,,,,,,,,,,,,,,,,,,,,,,,
1764666122.258062,10029,0,4413.461426,4430.256348,4532.94873,4570.512695,4422.692383,4553.589844,4569.102539,4416.153809,4601.410156,4388.589844,4511.282227,4540.769043,4578.974121,4413.333496,4379.871582,4534.102539,4566.282227,4562.436035,4536.025879,4409.871582,4413.461426,4590.384766,4538.589844,4516.153809,4444.358887,4638.846191,4410.512695,4572.436035,4524.743652,4428.974121,4555.128418,4526.538574,2170,1,21,2564,15745,,,,0,4,4,4,4,4,4,4,4,4,4,4,4,4,4,4,4,4,4,4,4,4,4,4,4,4,4,4,4,4,4,4,4,100,,,,,,,,,,,,,,,,,,,,,,,,,,,,,,,,,,,18891,0,0.327741,-0.603882,-0.335632,0.644409,0.823831,-0.55622,-0.028324,-8.666667,46,1.833333,,,,,,,,,,,,,,,,,,,,,,,,,,,,,,,,,,,,,,,,,,,,,,,,,,,,,,,,,,,,,,,,,,,,,,,,,,,,,,,,,,,,,,,,,,,,,,,,,,,,,,,,,,,,,,,,,,,,,,,,,,,,,,,,,,,,,,,,,,,,,,,,,,,,,,,,,,,,,,,,
1764666122.261968,10030,0,4425.128418,4442.692383,4551.538574,4586.025879,4427.820313,4563.974121,4580.512695,4426.282227,4616.282227,4418.974121,4522.563965,4554.743652,4593.589844,4425,4395.256348,4543.846191,4582.94873,4578.461426,4549.102539,4423.077148,4424.487305,4603.717773,4551.794922,4530.769043,4464.102539,4650.384766,4417.179688,4584.487305,4534.871582,4440.512695,4575.897461,4542.05127,2716,1,21,2560,15753,,,,0,4,4,4,4,4,4,4,4,4,4,4,4,4,4,4,4,4,4,4,4,4,4,4,4,4,4,4,4,4,4,4,4,100,,,,,,,,,,,,,,,,,,,,,,,,,,,,,,,,,,,,,,,,,,,,,,,,,,,,,,,,,,,,,,,,,,,,,,,,,,,,,,,,,,,,,,,,,,,,,,,,,,,,,,,,,,,,,,,,,,,,,,,,,,,,,,,,,,,,,,,,,,,,,,,,,,,,,,,,,,,,,,,,,,,,,,,,,,,,,,,,,,,,,,,,,,,,,,,,,,,,,,,,,,,,,,
1764666122.265874,10031,0,4432.94873,4448.461426,4560.897461,4589.230957,4429.487305,4570.897461,4588.205078,4431.282227,4624.487305,4442.692383,4530.384766,4563.846191,4603.205078,4433.077148,4404.871582,4544.615234,4594.230957,4585.897461,4556.538574,4432.179688,4434.358887,4613.205078,4559.743652,4538.974121,4463.589844,4651.538574,4421.153809,4592.307617,4541.025879,4445,4583.717773,4546.666504,2494,1,21,2560,15753,,,,0,4,4,4,4,4,4,4,4,4,4,4,4,4,4,4,4,4,4,4,4,4,4,4,4,4,4,4,4,4,4,4,4,100,,,,,,,,,,,,,,,,,,,,,,,,,,,,,,,,,,,,,,,,,,,,,,,,,,,,,,,,,,,,,,,,,,,,,,,,,,,,,,,,,,,,,,,,,,,,,,,,,,,,,,,,,,,,,,,,,,,,,,,,,,,,,,,,,,,,,,,,,,,,,,,,,,,,,,,,,,,,,,,,,,,,,,,,,,,,,,,,,,,,,,,,,,,,,,,,,,,,,,,,,,,,,,
1764666122.269780,10032,0,4433.333496,4444.487305,4555.641113,4579.230957,4426.794922,4570.641113,4588.846191,4428.846191,4619.102539,4445.128418,4529.871582,4563.846191,4603.205078,4432.94873,4404.230957,4535.769043,4593.589844,4579.487305,4552.563965,4432.05127,4436.922852,4612.05127,4557.179688,4533.974121,4437.563965,4642.563965,4420.769043,4591.794922,4540.384766,4440.384766,4574.358887,4536.538574,2871,1,21,2048,15760,,,,0,4,4,4,4,4,4,4,4,4,4,4,4,4,4,4,4,4,4,4,4,4,4,4,4,4,4,4,4,4,4,4,4,100,,,,,,,,,,,,,,,,,,,,,,,,,,,,,,,,,,,,,,,,,,,,,,,,,,,,,,,,,,,,,,,,,,,,,,,,,,,,,,,,,,,,,,,,,,,,,,,,,,,,,,,,,,,,,,,,,,,,,,,,,,,,,,,,,,,,,,,,,,,,,,,,,,,,,,,,,,,,,,,,,,,,,,,,,,,,,,,,,,,,,,,,,,,,,,,,,,,,,,,,,,,,,,
1764666122.273686,10033,0,4427.179688,4434.102539,4540.512695,4563.205078,4422.179688,4564.358887,4583.205078,4421.410156,4602.692383,4427.05127,4522.563965,4555.384766,4595.256348,4425.641113,4396.410156,4522.94873,4582.05127,4562.307617,4538.205078,4422.307617,4430,4600.256348,4545.897461,4517.179688,4400.128418,4629.487305,4416.538574,4583.846191,4534.358887,4430.128418,4555.512695,4518.974121,2856,1,21,2048,15760,,,,0,4,4,4,4,4,4,4,4,4,4,4,4,4,4,4,4,4,4,4,4,4,4,4,4,4,4,4,4,4,4,4,4,100,,,,,,,,,,,,,,,,,,,,,,,,,,,,,,,,,,,18892,0,0.328354,-0.602844,-0.335022,0.645386,0.823831,-0.55622,-0.028324,-7.5,47.166668,2.666667,,,,,,,,,,,,,,,,,,,,,,,,,,,,,,,,,,,,,,,,,,,,,,,,,,,,,,,,,,,,,,,,,,,,,,,,,,,,,,,,,,,,,,,,,,,,,,,,,,,,,,,,,,,,,,,,,,,,,,,,,,,,,,,,,,,,,,,,,,,,,,,,,,,,,,,,,,,,,,,,
1764666122.277591,10034,0,4418.589844,4423.717773,4526.666504,4551.153809,4419.487305,4556.282227,4574.230957,4413.461426,4585.128418,4403.333496,4513.846191,4543.205078,4585.641113,4415.897461,4387.94873,4513.589844,4566.794922,4543.461426,4520.512695,4408.077148,4416.922852,4585.128418,4532.179688,4498.077148,4372.307617,4619.487305,4410.769043,4573.589844,4527.05127,4421.025879,4541.282227,4506.922852,1726,1,21,1536,15768,,,,0,4,4,4,4,4,4,4,4,4,4,4,4,4,4,4,4,4,4,4,4,4,4,4,4,4,4,4,4,4,4,4,4,100,,,,,,,,,,,,,,,,,,,,,,,,,,,,,,,,,,,,,,,,,,,,,,,1.817571,1.188118,1.217375,0.840417,0.520241,2.523447,1.683391,0.868015,0.996081,0.690077,1.743794,1.205151,1.578515,1.337848,0.889536,1.569097,1.051539,1.244057,1.001779,0.813623,1.606544,1.684795,1.259881,1.336142,0.733656,2.124737,0.996024,0.666775,0.838073,0.48544,1.439311,1.306449,0.566397,0.858985,0.55397,1.469938,1.453743,1.215167,1.597378,0.76031,1.365927,1.106342,1.44553,1.077641,0.998797,1.148918,2.178399,1.74262,3.467441,2.247524,0.936469,1.28459,0.690531,0.868044,0.595533,1.519121,1.192022,0.708235,0.609138,0.466087,1.382514,1.170115,0.899327,0.589707,0.455173,0.315688,0.680605,0.353358,0.41182,0.369662,0.316496,1.269004,0.972131,0.830089,0.783821,0.382517,1.226283,0.838112,0.654913,0.471591,1.703364,1.893663,1.363141,0.738591,0.598274,0.63927,4.780763,2.77801,1.509082,1.272868,0.407885,3.86739,2.207388,1.022543,0.903262,0.488156,1.471996,1.391425,1.000637,0.733823,1.276044,2.40424,2.273052,1.78814,0.862673,1.271895,1.935606,1.536165,0.896475,0.591585,1.809311,1.870398,1.046047,0.512134,0.418806,1.592011,1.950545,1.562582,0.808362,0.787033,2.13147,4.2097,7.570801,20.63203,14.292193,1.338685,1.176081,0.93113,1.456421,1.245325,1.825811,2.655025,1.26756,1.245077,1.34462,2.116073,2.346505,1.218618,0.822231,0.757989,1.114015,1.068274,0.469948,0.402256,0.303434,1.693233,2.089698,0.92953,0.811783,0.781655,1.531914,2.422319,1.446379,1.608481,0.729473,1.583472,2.224393,1.091303,0.921536,0.857743
