Timestamp,EEG.Counter,EEG.Interpolated,EEG.Cz,EEG.Fz,EEG.Fp1,EEG.F7,EEG.F3,EEG.FC1,EEG.C3,EEG.FC5,EEG.FT9,EEG.T7,EEG.CP5,EEG.CP1,EEG.P3,EEG.P7,EEG.PO9,EEG.O1,EEG.Pz,EEG.Oz,EEG.O2,EEG.PO10,EEG.P8,EEG.P4,EEG.CP2,EEG.CP6,EEG.T8,EEG.FT10,EEG.FC6,EEG.C4,EEG.FC2,EEG.F4,EEG.F8,EEG.Fp2,EEG.RawCq,EEG.Battery,EEG.BatteryPercent,EEG.FwBufferSize,EEG.FwClockTime,MarkerIndex,MarkerType,MarkerValueInt,EEG.MarkerHardware,CQ.Cz,CQ.Fz,CQ.Fp1,CQ.F7,CQ.F3,CQ.FC1,CQ.C3,CQ.FC5,CQ.FT9,CQ.T7,CQ.CP5,CQ.CP1,CQ.P3,CQ.P7,CQ.PO9,CQ.O1,CQ.Pz,CQ.Oz,CQ.O2,CQ.PO10,CQ.P8,CQ.P4,CQ.CP2,CQ.CP6,CQ.T8,CQ.FT10,CQ.FC6,CQ.C4,CQ.FC2,CQ.F4,CQ.F8,CQ.Fp2,CQ.Overall,EQ.SampleRateQuality,EQ.OVERALL,EQ.Cz,EQ.Fz,EQ.Fp1,EQ.F7,EQ.F3,EQ.FC1,EQ.C3,EQ.FC5,EQ.FT9,EQ.T7,EQ.CP5,EQ.CP1,EQ.P3,EQ.P7,EQ.PO9,EQ.O1,EQ.Pz,EQ.Oz,EQ.O2,EQ.PO10,EQ.P8,EQ.P4,EQ.CP2,EQ.CP6,EQ.T8,EQ.FT10,EQ.FC6,EQ.C4,EQ.FC2,EQ.F4,EQ.F8,EQ.Fp2,MOT.CounterMems,MOT.InterpolatedMems,MOT.Q0,MOT.Q1,MOT.Q2,MOT.Q3,MOT.AccX,MOT.AccY,MOT.AccZ,MOT.MagX,MOT.MagY,MOT.MagZ,POW.Cz.Theta,POW.Cz.Alpha,POW.Cz.BetaL,POW.Cz.BetaH,POW.Cz.Gamma,POW.Fz.Theta,POW.Fz.Alpha,POW.Fz.BetaL,POW.Fz.BetaH,POW.Fz.Gamma,POW.Fp1.Theta,POW.Fp1.Alpha,POW.Fp1.BetaL,POW.Fp1.BetaH,POW.Fp1.Gamma,POW.F7.Theta,POW.F7.Alpha,POW.F7.BetaL,POW.F7.BetaH,POW.F7.Gamma,POW.F3.Theta,POW.F3.Alpha,POW.F3.BetaL,POW.F3.BetaH,POW.F3.Gamma,POW.FC1.Theta,POW.FC1.Alpha,POW.FC1.BetaL,POW.FC1.BetaH,POW.FC1.Gamma,POW.C3.Theta,POW.C3.Alpha,POW.C3.BetaL,POW.C3.BetaH,POW.C3.Gamma,POW.FC5.Theta,POW.FC5.Alpha,POW.FC5.BetaL,POW.FC5.BetaH,POW.FC5.Gamma,POW.FT9.Theta,POW.FT9.Alpha,POW.FT9.BetaL,POW.FT9.BetaH,POW.FT9.Gamma,POW.T7.Theta,POW.T7.Alpha,POW.T7.BetaL,POW.T7.BetaH,POW.T7.Gamma,POW.CP5.Theta,POW.CP5.Alpha,POW.CP5.BetaL,POW.CP5.BetaH,POW.CP5.Gamma,POW.CP1.Theta,POW.CP1.Alpha,POW.CP1.BetaL,POW.CP1.BetaH,POW.CP1.Gamma,POW.P3.Theta,POW.P3.Alpha,POW.P3.BetaL,POW.P3.BetaH,POW.P3.Gamma,POW.P7.Theta,POW.P7.Alpha,POW.P7.BetaL,POW.P7.BetaH,POW.P7.Gamma,POW.PO9.Theta,POW.PO9.Alpha,POW.PO9.BetaL,POW.PO9.BetaH,POW.PO9.Gamma,POW.O1.Theta,POW.O1.Alpha,POW.O1.BetaL,POW.O1.BetaH,POW.O1.Gamma,POW.Pz.Theta,POW.Pz.Alpha,POW.Pz.BetaL,POW.Pz.BetaH,POW.Pz.Gamma,POW.Oz.Theta,POW.Oz.Alpha,POW.Oz.BetaL,POW.Oz.BetaH,POW.Oz.Gamma,POW.O2.Theta,POW.O2.Alpha,POW.O2.BetaL,POW.O2.BetaH,POW.O2.Gamma,POW.PO10.Theta,POW.PO10.Alpha,POW.PO10.BetaL,POW.PO10.BetaH,POW.PO10.Gamma,POW.P8.Theta,POW.P8.Alpha,POW.P8.BetaL,POW.P8.BetaH,POW.P8.Gamma,POW.P4.Theta,POW.P4.Alpha,POW.P4.BetaL,POW.P4.BetaH,POW.P4.Gamma,POW.CP2.Theta,POW.CP2.Alpha,POW.CP2.BetaL,POW.CP2.BetaH,POW.CP2.Gamma,POW.CP6.Theta,POW.CP6.Alpha,POW.CP6.BetaL,POW.CP6.BetaH,POW.CP6.Gamma,POW.T8.Theta,POW.T8.Alpha,POW.T8.BetaL,POW.T8.BetaH,POW.T8.Gamma,POW.FT10.Theta,POW.FT10.Alpha,POW.FT10.BetaL,POW.FT10.BetaH,POW.FT10.Gamma,POW.FC6.Theta,POW.FC6.Alpha,POW.FC6.BetaL,POW.FC6.BetaH,POW.FC6.Gamma,POW.C4.Theta,POW.C4.Alpha,POW.C4.BetaL,POW.C4.BetaH,POW.C4.Gamma,POW.FC2.Theta,POW.FC2.Alpha,POW.FC2.BetaL,POW.FC2.BetaH,POW.FC2.Gamma,POW.F4.Theta,POW.F4.Alpha,POW.F4.BetaL,POW.F4.BetaH,POW.F4.Gamma,POW.F8.Theta,POW.F8.Alpha,POW.F8.BetaL,POW.F8.BetaH,POW.F8.Gamma,POW.Fp2.Theta,POW.Fp2.Alpha,POW.Fp2.BetaL,POW.Fp2.BetaH,POW.Fp2.Gamma
1763974595.436698,52698.0,0.0,4275.384766,4299.102539,4401.794922,4416.794922,4311.282227,4435.128418,4438.974121,4267.692383,4482.436035,4271.025879,4394.102539,4411.922852,4465.897461,4255.0,4255.0,4402.436035,4440.769043,4437.307617,4423.205078,4279.743652,4272.436035,4469.743652,4416.794922,4389.871582,4288.077148,4473.333496,4280.897461,4461.794922,4414.487305,4291.794922,4422.436035,4401.922852,2848.0,1.0,18.0,2048.0,53735.0,5.0,1.0,1.0,0.0,4.0,4.0,4.0,4.0,4.0,4.0,4.0,4.0,4.0,4.0,4.0,4.0,4.0,4.0,4.0,4.0,4.0,4.0,4.0,4.0,4.0,4.0,4.0,4.0,4.0,4.0,4.0,4.0,4.0,4.0,4.0,4.0,100.0,,,,,,,,,,,,,,,,,,,,,,,,,,,,,,,,,,,,,,,,,,,,,,,,,,,,,,,,,,,,,,,,,,,,,,,,,,,,,,,,,,,,,,,,,,,,,,,,,,,,,,,,,,,,,,,,,,,,,,,,,,,,,,,,,,,,,,,,,,,,,,,,,,,,,,,,,,,,,,,,,,,,,,,,,,,,,,,,,,,,,,,,,,,,,,,,,,,,,,,,,,,,,,
1763974595.440604,52699.0,0.0,4275.641113,4298.333496,4404.743652,4416.794922,4310.769043,4432.307617,4432.05127,4271.538574,4489.743652,4272.692383,4383.717773,4408.717773,4465.128418,4269.358887,4271.538574,4417.05127,4440.256348,4441.794922,4417.563965,4287.436035,4281.538574,4466.538574,4416.153809,4391.410156,4293.846191,4479.230957,4283.589844,4459.358887,4412.94873,4288.974121,4428.077148,4420.256348,3047.0,1.0,18.0,2048.0,53735.0,,,,0.0,4.0,4.0,4.0,4.0,4.0,4.0,4.0,4.0,4.0,4.0,4.0,4.0,4.0,4.0,4.0,4.0,4.0,4.0,4.0,4.0,4.0,4.0,4.0,4.0,4.0,4.0,4.0,4.0,4.0,4.0,4.0,4.0,100.0,,,,,,,,,,,,,,,,,,,,,,,,,,,,,,,,,,,,,,,,,,,,,,,,,,,,,,,,,,,,,,,,,,,,,,,,,,,,,,,,,,,,,,,,,,,,,,,,,,,,,,,,,,,,,,,,,,,,,,,,,,,,,,,,,,,,,,,,,,,,,,,,,,,,,,,,,,,,,,,,,,,,,,,,,,,,,,,,,,,,,,,,,,,,,,,,,,,,,,,,,,,,,,
1763974595.44451,52700.0,0.0,4270.769043,4290.512695,4396.410156,4410.256348,4307.563965,4426.025879,4419.743652,4267.692383,4486.666504,4280.384766,4367.563965,4400.769043,4458.717773,4289.487305,4281.794922,4421.538574,4435.256348,4437.820313,4402.94873,4288.846191,4281.153809,4455.128418,4409.615234,4385.512695,4296.922852,4477.563965,4283.717773,4450.0,4404.102539,4279.615234,4422.820313,4423.205078,2981.0,1.0,18.0,1280.0,53742.0,,,,0.0,4.0,4.0,4.0,4.0,4.0,4.0,4.0,4.0,4.0,4.0,4.0,4.0,4.0,4.0,4.0,4.0,4.0,4.0,4.0,4.0,4.0,4.0,4.0,4.0,4.0,4.0,4.0,4.0,4.0,4.0,4.0,4.0,100.0,,,,,,,,,,,,,,,,,,,,,,,,,,,,,,,,,,,,,,,,,,,,,,,,,,,,,,,,,,,,,,,,,,,,,,,,,,,,,,,,,,,,,,,,,,,,,,,,,,,,,,,,,,,,,,,,,,,,,,,,,,,,,,,,,,,,,,,,,,,,,,,,,,,,,,,,,,,,,,,,,,,,,,,,,,,,,,,,,,,,,,,,,,,,,,,,,,,,,,,,,,,,,,
1763974595.448416,52701.0,0.0,4266.922852,4282.820313,4382.94873,4400.128418,4306.025879,4421.922852,4412.05127,4260.512695,4476.153809,4288.461426,4358.461426,4395.641113,4454.487305,4302.820313,4282.563965,4415.384766,4430.384766,4430.0,4389.230957,4284.615234,4272.94873,4444.871582,4403.974121,4378.974121,4294.487305,4471.025879,4282.692383,4440.897461,4395.897461,4269.871582,4413.333496,4409.487305,2882.0,1.0,18.0,1280.0,53742.0,,,,0.0,4.0,4.0,4.0,4.0,4.0,4.0,4.0,4.0,4.0,4.0,4.0,4.0,4.0,4.0,4.0,4.0,4.0,4.0,4.0,4.0,4.0,4.0,4.0,4.0,4.0,4.0,4.0,4.0,4.0,4.0,4.0,4.0,100.0,,,,,,,,,,,,,,,,,,,,,,,,,,,,,,,,,,,45943.0,0.0,0.563464,0.318848,0.244995,0.72168,0.976682,-0.254426,-0.012697,31.666666,-22.0,-26.833334,,,,,,,,,,,,,,,,,,,,,,,,,,,,,,,,,,,,,,,,,,,,,,,,,,,,,,,,,,,,,,,,,,,,,,,,,,,,,,,,,,,,,,,,,,,,,,,,,,,,,,,,,,,,,,,,,,,,,,,,,,,,,,,,,,,,,,,,,,,,,,,,,,,,,,,,,,,,,,,,
1763974595.452322,52702.0,0.0,4268.333496,4280.897461,4373.077148,4391.794922,4308.589844,4423.077148,4414.871582,4255.897461,4466.538574,4289.871582,4363.589844,4398.205078,4457.05127,4301.666504,4276.666504,4403.846191,4429.358887,4423.461426,4383.974121,4278.205078,4262.436035,4442.692383,4403.589844,4376.666504,4283.846191,4466.025879,4283.717773,4437.692383,4394.487305,4265.897461,4407.563965,4388.974121,3039.0,1.0,18.0,256.0,53750.0,,,,0.0,4.0,4.0,4.0,4.0,4.0,4.0,4.0,4.0,4.0,4.0,4.0,4.0,4.0,4.0,4.0,4.0,4.0,4.0,4.0,4.0,4.0,4.0,4.0,4.0,4.0,4.0,4.0,4.0,4.0,4.0,4.0,4.0,100.0,,,,,,,,,,,,,,,,,,,,,,,,,,,,,,,,,,,,,,,,,,,,,,,,,,,,,,,,,,,,,,,,,,,,,,,,,,,,,,,,,,,,,,,,,,,,,,,,,,,,,,,,,,,,,,,,,,,,,,,,,,,,,,,,,,,,,,,,,,,,,,,,,,,,,,,,,,,,,,,,,,,,,,,,,,,,,,,,,,,,,,,,,,,,,,,,,,,,,,,,,,,,,,
1763974595.456228,52703.0,0.0,4273.461426,4285.641113,4371.922852,4390.128418,4313.461426,4427.820313,4426.410156,4258.205078,4464.615234,4281.282227,4379.615234,4406.538574,4464.487305,4289.615234,4270.256348,4394.871582,4432.05127,4420.384766,4387.563965,4273.717773,4255.512695,4448.333496,4407.94873,4378.846191,4268.589844,4467.307617,4289.102539,4441.153809,4399.871582,4269.615234,4410.256348,4375.256348,2962.0,1.0,18.0,256.0,53750.0,,,,0.0,4.0,4.0,4.0,4.0,4.0,4.0,4.0,4.0,4.0,4.0,4.0,4.0,4.0,4.0,4.0,4.0,4.0,4.0,4.0,4.0,4.0,4.0,4.0,4.0,4.0,4.0,4.0,4.0,4.0,4.0,4.0,4.0,100.0,,,,,,,,,,,,,,,,,,,,,,,,,,,,,,,,,,,,,,,,,,,,,,,,,,,,,,,,,,,,,,,,,,,,,,,,,,,,,,,,,,,,,,,,,,,,,,,,,,,,,,,,,,,,,,,,,,,,,,,,,,,,,,,,,,,,,,,,,,,,,,,,,,,,,,,,,,,,,,,,,,,,,,,,,,,,,,,,,,,,,,,,,,,,,,,,,,,,,,,,,,,,,,
1763974595.460134,52704.0,0.0,4277.94873,4293.205078,4379.102539,4396.282227,4317.307617,4432.692383,4438.974121,4267.563965,4471.153809,4266.794922,4396.025879,4415.0,4470.769043,4278.333496,4268.205078,4394.230957,4436.538574,4421.282227,4396.025879,4273.077148,4255.897461,4456.922852,4413.077148,4383.077148,4259.102539,4475.384766,4297.436035,4447.820313,4407.94873,4278.589844,4420.256348,4377.563965,2889.0,1.0,18.0,256.0,53758.0,,,,0.0,4.0,4.0,4.0,4.0,4.0,4.0,4.0,4.0,4.0,4.0,4.0,4.0,4.0,4.0,4.0,4.0,4.0,4.0,4.0,4.0,4.0,4.0,4.0,4.0,4.0,4.0,4.0,4.0,4.0,4.0,4.0,4.0,100.0,,,,,,,,,,,,,,,,,,,,,,,,,,,,,,,,,,,,,,,,,,,,,,,,,,,,,,,,,,,,,,,,,,,,,,,,,,,,,,,,,,,,,,,,,,,,,,,,,,,,,,,,,,,,,,,,,,,,,,,,,,,,,,,,,,,,,,,,,,,,,,,,,,,,,,,,,,,,,,,,,,,,,,,,,,,,,,,,,,,,,,,,,,,,,,,,,,,,,,,,,,,,,,
1763974595.46404,52705.0,0.0,4279.358887,4299.358887,4390.384766,4408.333496,4318.846191,4435.384766,4445.641113,4280.512695,4481.282227,4257.307617,4403.846191,4419.102539,4472.436035,4277.307617,4272.05127,4403.077148,4441.153809,4426.538574,4405.897461,4276.153809,4264.487305,4464.615234,4416.282227,4388.077148,4265.769043,4486.538574,4304.871582,4454.743652,4415.0,4288.589844,4432.94873,4395.128418,2919.0,1.0,18.0,256.0,53758.0,,,,0.0,4.0,4.0,4.0,4.0,4.0,4.0,4.0,4.0,4.0,4.0,4.0,4.0,4.0,4.0,4.0,4.0,4.0,4.0,4.0,4.0,4.0,4.0,4.0,4.0,4.0,4.0,4.0,4.0,4.0,4.0,4.0,4.0,100.0,,,,,,,,,,,,,,,,,,,,,,,,,,,,,,,,,,,45944.0,0.0,0.563447,0.318787,0.244934,0.721741,0.980588,-0.24124,-0.006837,31.666666,-22.5,-27.666666,,,,,,,,,,,,,,,,,,,,,,,,,,,,,,,,,,,,,,,,,,,,,,,,,,,,,,,,,,,,,,,,,,,,,,,,,,,,,,,,,,,,,,,,,,,,,,,,,,,,,,,,,,,,,,,,,,,,,,,,,,,,,,,,,,,,,,,,,,,,,,,,,,,,,,,,,,,,,,,,
1763974595.467846,52706.0,0.0,4278.717773,4302.692383,4400.128418,4421.282227,4318.717773,4435.384766,4444.102539,4291.153809,4488.846191,4261.666504,4400.384766,4418.589844,4470.256348,4286.794922,4279.615234,4416.538574,4445.384766,4435.769043,4415.641113,4280.512695,4277.692383,4470.384766,4417.94873,4393.589844,4290.0,4494.743652,4307.05127,4460.0,4419.230957,4296.025879,4442.692383,4417.94873,2311.0,1.0,18.0,256.0,53766.0,,,,0.0,4.0,4.0,4.0,4.0,4.0,4.0,4.0,4.0,4.0,4.0,4.0,4.0,4.0,4.0,4.0,4.0,4.0,4.0,4.0,4.0,4.0,4.0,4.0,4.0,4.0,4.0,4.0,4.0,4.0,4.0,4.0,4.0,100.0,,,,,,,,,,,,,,,,,,,,,,,,,,,,,,,,,,,,,,,,,,,,,,,,,,,,,,,,,,,,,,,,,,,,,,,,,,,,,,,,,,,,,,,,,,,,,,,,,,,,,,,,,,,,,,,,,,,,,,,,,,,,,,,,,,,,,,,,,,,,,,,,,,,,,,,,,,,,,,,,,,,,,,,,,,,,,,,,,,,,,,,,,,,,,,,,,,,,,,,,,,,,,,
1763974595.471751,52707.0,0.0,4277.307617,4302.94873,4403.077148,4428.077148,4316.922852,4432.94873,4436.538574,4293.205078,4490.512695,4278.205078,4388.333496,4415.128418,4465.769043,4298.333496,4285.769043,4425.256348,4447.179688,4444.358887,4422.179688,4283.333496,4288.205078,4472.436035,4417.563965,4397.692383,4318.974121,4495.384766,4301.538574,4461.538574,4419.743652,4298.589844,4444.230957,4431.538574,3008.0,1.0,18.0,256.0,53766.0,,,,0.0,4.0,4.0,4.0,4.0,4.0,4.0,4.0,4.0,4.0,4.0,4.0,4.0,4.0,4.0,4.0,4.0,4.0,4.0,4.0,4.0,4.0,4.0,4.0,4.0,4.0,4.0,4.0,4.0,4.0,4.0,4.0,4.0,100.0,,,,,,,,,,,,,,,,,,,,,,,,,,,,,,,,,,,,,,,,,,,,,,,,,,,,,,,,,,,,,,,,,,,,,,,,,,,,,,,,,,,,,,,,,,,,,,,,,,,,,,,,,,,,,,,,,,,,,,,,,,,,,,,,,,,,,,,,,,,,,,,,,,,,,,,,,,,,,,,,,,,,,,,,,,,,,,,,,,,,,,,,,,,,,,,,,,,,,,,,,,,,,,
1763974595.475557,52708.0,0.0,4274.487305,4299.230957,4395.897461,4423.333496,4312.563965,4427.436035,4426.282227,4282.820313,4485.897461,4294.871582,4372.820313,4409.487305,4458.974121,4301.282227,4285.128418,4421.282227,4442.820313,4444.358887,4420.128418,4282.307617,4288.589844,4466.282227,4412.820313,4395.512695,4332.692383,4486.666504,4288.589844,4456.282227,4414.102539,4294.358887,4435.384766,4426.153809,2877.0,1.0,18.0,256.0,53774.0,,,,0.0,4.0,4.0,4.0,4.0,4.0,4.0,4.0,4.0,4.0,4.0,4.0,4.0,4.0,4.0,4.0,4.0,4.0,4.0,4.0,4.0,4.0,4.0,4.0,4.0,4.0,4.0,4.0,4.0,4.0,4.0,4.0,4.0,100.0,,,,,,,,,,,,,,,,,,,,,,,,,,,,,,,,,,,,,,,,,,,,,,,,,,,,,,,,,,,,,,,,,,,,,,,,,,,,,,,,,,,,,,,,,,,,,,,,,,,,,,,,,,,,,,,,,,,,,,,,,,,,,,,,,,,,,,,,,,,,,,,,,,,,,,,,,,,,,,,,,,,,,,,,,,,,,,,,,,,,,,,,,,,,,,,,,,,,,,,,,,,,,,
1763974595.479463,52709.0,0.0,4268.589844,4291.025879,4380.256348,4407.692383,4305.0,4418.846191,4416.794922,4263.589844,4477.436035,4300.0,4359.358887,4401.410156,4448.974121,4290.769043,4276.666504,4403.589844,4430.641113,4431.410156,4407.436035,4277.179688,4277.05127,4450.256348,4402.05127,4383.974121,4320.128418,4471.666504,4272.94873,4443.589844,4401.153809,4284.102539,4419.487305,4404.358887,2498.0,1.0,18.0,256.0,53774.0,,,,0.0,4.0,4.0,4.0,4.0,4.0,4.0,4.0,4.0,4.0,4.0,4.0,4.0,4.0,4.0,4.0,4.0,4.0,4.0,4.0,4.0,4.0,4.0,4.0,4.0,4.0,4.0,4.0,4.0,4.0,4.0,4.0,4.0,100.0,,,,,,,,,,,,,,,,,,,,,,,,,,,,,,,,,,,45945.0,0.0,0.563482,0.318726,0.244934,0.721741,0.967892,-0.252472,-0.007813,33.0,-22.166666,-27.0,,,,,,,,,,,,,,,,,,,,,,,,,,,,,,,,,,,,,,,,,,,,,,,,,,,,,,,,,,,,,,,,,,,,,,,,,,,,,,,,,,,,,,,,,,,,,,,,,,,,,,,,,,,,,,,,,,,,,,,,,,,,,,,,,,,,,,,,,,,,,,,,,,,,,,,,,,,,,,,,
1763974595.483469,52710.0,0.0,4260.641113,4280.641113,4363.205078,4390.0,4295.769043,4409.743652,4411.538574,4245.512695,4469.743652,4292.307617,4353.077148,4392.692383,4438.205078,4271.666504,4264.743652,4381.282227,4415.512695,4410.769043,4388.974121,4271.282227,4260.641113,4429.743652,4388.589844,4367.436035,4289.102539,4458.333496,4261.794922,4427.820313,4384.871582,4272.436035,4405.0,4379.743652,3026.0,1.0,18.0,512.0,53782.0,,,,0.0,4.0,4.0,4.0,4.0,4.0,4.0,4.0,4.0,4.0,4.0,4.0,4.0,4.0,4.0,4.0,4.0,4.0,4.0,4.0,4.0,4.0,4.0,4.0,4.0,4.0,4.0,4.0,4.0,4.0,4.0,4.0,4.0,100.0,,,,,,,,,,,,,,,,,,,,,,,,,,,,,,,,,,,,,,,,,,,,,,,,,,,,,,,,,,,,,,,,,,,,,,,,,,,,,,,,,,,,,,,,,,,,,,,,,,,,,,,,,,,,,,,,,,,,,,,,,,,,,,,,,,,,,,,,,,,,,,,,,,,,,,,,,,,,,,,,,,,,,,,,,,,,,,,,,,,,,,,,,,,,,,,,,,,,,,,,,,,,,,
1763974595.487375,52711.0,0.0,4254.871582,4273.846191,4354.871582,4382.307617,4290.0,4405.256348,4413.077148,4239.615234,4467.563965,4282.05127,4356.794922,4388.333496,4433.077148,4255.897461,4257.179688,4368.333496,4406.282227,4396.410156,4377.05127,4270.256348,4251.794922,4417.179688,4381.025879,4356.025879,4261.538574,4454.871582,4260.897461,4417.94873,4373.589844,4266.025879,4401.025879,4367.94873,3007.0,1.0,18.0,512.0,53782.0,,,,0.0,4.0,4.0,4.0,4.0,4.0,4.0,4.0,4.0,4.0,4.0,4.0,4.0,4.0,4.0,4.0,4.0,4.0,4.0,4.0,4.0,4.0,4.0,4.0,4.0,4.0,4.0,4.0,4.0,4.0,4.0,4.0,4.0,100.0,,,,,,,,,,,,,,,,,,,,,,,,,,,,,,,,,,,,,,,,,,,,,,,,,,,,,,,,,,,,,,,,,,,,,,,,,,,,,,,,,,,,,,,,,,,,,,,,,,,,,,,,,,,,,,,,,,,,,,,,,,,,,,,,,,,,,,,,,,,,,,,,,,,,,,,,,,,,,,,,,,,,,,,,,,,,,,,,,,,,,,,,,,,,,,,,,,,,,,,,,,,,,,
1763974595.491281,52712.0,0.0,4255.512695,4275.897461,4361.410156,4390.769043,4292.563965,4408.589844,4422.179688,4249.743652,4473.589844,4281.153809,4369.358887,4392.692383,4439.487305,4254.487305,4259.358887,4374.358887,4410.0,4400.512695,4381.794922,4277.05127,4258.589844,4422.436035,4386.025879,4358.846191,4256.410156,4463.717773,4270.641113,4421.282227,4374.743652,4270.384766,4410.641113,4376.410156,2708.0,1.0,18.0,768.0,53789.0,,,,0.0,4.0,4.0,4.0,4.0,4.0,4.0,4.0,4.0,4.0,4.0,4.0,4.0,4.0,4.0,4.0,4.0,4.0,4.0,4.0,4.0,4.0,4.0,4.0,4.0,4.0,4.0,4.0,4.0,4.0,4.0,4.0,4.0,100.0,,,,,,,,,,,,,,,,,,,,,,,,,,,,,,,,,,,,,,,,,,,,,,,,,,,,,,,,,,,,,,,,,,,,,,,,,,,,,,,,,,,,,,,,,,,,,,,,,,,,,,,,,,,,,,,,,,,,,,,,,,,,,,,,,,,,,,,,,,,,,,,,,,,,,,,,,,,,,,,,,,,,,,,,,,,,,,,,,,,,,,,,,,,,,,,,,,,,,,,,,,,,,,
1763974595.495187,52713.0,0.0,4263.205078,4286.922852,4380.512695,4411.025879,4303.717773,4418.589844,4434.871582,4268.846191,4485.512695,4292.820313,4385.256348,4405.0,4456.538574,4269.358887,4270.128418,4396.922852,4425.512695,4422.692383,4402.820313,4289.487305,4278.333496,4444.487305,4402.692383,4375.384766,4275.897461,4480.256348,4284.743652,4437.179688,4387.692383,4284.743652,4428.461426,4399.487305,2868.0,1.0,18.0,768.0,53789.0,,,,0.0,4.0,4.0,4.0,4.0,4.0,4.0,4.0,4.0,4.0,4.0,4.0,4.0,4.0,4.0,4.0,4.0,4.0,4.0,4.0,4.0,4.0,4.0,4.0,4.0,4.0,4.0,4.0,4.0,4.0,4.0,4.0,4.0,100.0,,,,,,,,,,,,,,,,,,,,,,,,,,,,,,,,,,,45946.0,0.0,0.563386,0.318848,0.244995,0.721741,0.969845,-0.250519,-0.01465,33.0,-23.5,-25.833334,,,,,,,,,,,,,,,,,,,,,,,,,,,,,,,,,,,,,,,,,,,,,,,,,,,,,,,,,,,,,,,,,,,,,,,,,,,,,,,,,,,,,,,,,,,,,,,,,,,,,,,,,,,,,,,,,,,,,,,,,,,,,,,,,,,,,,,,,,,,,,,,,,,,,,,,,,,,,,,,
1763974595.499093,52714.0,0.0,4273.333496,4300.256348,4401.666504,4431.282227,4317.692383,4429.358887,4444.230957,4284.743652,4496.794922,4309.102539,4396.666504,4418.589844,4475.512695,4292.179688,4283.333496,4421.666504,4443.974121,4449.487305,4427.94873,4301.282227,4298.717773,4470.384766,4421.282227,4395.769043,4306.025879,4495.0,4294.743652,4456.538574,4403.717773,4301.282227,4443.461426,4422.436035,2695.0,1.0,18.0,1024.0,53797.0,,,,0.0,4.0,4.0,4.0,4.0,4.0,4.0,4.0,4.0,4.0,4.0,4.0,4.0,4.0,4.0,4.0,4.0,4.0,4.0,4.0,4.0,4.0,4.0,4.0,4.0,4.0,4.0,4.0,4.0,4.0,4.0,4.0,4.0,100.0,,,,,,,,,,,,,,,,,,,,,,,,,,,,,,,,,,,,,,,,,,,,,,,,,,,,,,,,,,,,,,,,,,,,,,,,,,,,,,,,,,,,,,,,,,,,,,,,,,,,,,,,,,,,,,,,,,,,,,,,,,,,,,,,,,,,,,,,,,,,,,,,,,,,,,,,,,,,,,,,,,,,,,,,,,,,,,,,,,,,,,,,,,,,,,,,,,,,,,,,,,,,,,
1763974595.502999,52715.0,0.0,4279.871582,4307.563965,4412.820313,4440.512695,4326.025879,4434.358887,4444.743652,4288.974121,4501.025879,4318.974121,4398.589844,4426.025879,4485.384766,4310.0,4291.922852,4432.94873,4454.487305,4464.102539,4442.307617,4306.153809,4307.05127,4485.0,4430.512695,4407.94873,4327.692383,4500.641113,4295.769043,4468.077148,4412.05127,4310.384766,4446.025879,4432.05127,3012.0,1.0,18.0,1024.0,53797.0,,,,0.0,4.0,4.0,4.0,4.0,4.0,4.0,4.0,4.0,4.0,4.0,4.0,4.0,4.0,4.0,4.0,4.0,4.0,4.0,4.0,4.0,4.0,4.0,4.0,4.0,4.0,4.0,4.0,4.0,4.0,4.0,4.0,4.0,100.0,,,,,,,,,,,,,,,,,,,,,,,,,,,,,,,,,,,,,,,,,,,,,,,,,,,,,,,,,,,,,,,,,,,,,,,,,,,,,,,,,,,,,,,,,,,,,,,,,,,,,,,,,,,,,,,,,,,,,,,,,,,,,,,,,,,,,,,,,,,,,,,,,,,,,,,,,,,,,,,,,,,,,,,,,,,,,,,,,,,,,,,,,,,,,,,,,,,,,,,,,,,,,,
1763974595.506905,52716.0,0.0,4279.230957,4304.487305,4408.205078,4435.897461,4324.487305,4431.538574,4436.538574,4282.179688,4496.153809,4317.179688,4392.179688,4423.333496,4481.410156,4313.589844,4292.307617,4425.0,4452.05127,4459.230957,4438.974121,4302.436035,4298.589844,4481.282227,4426.153809,4406.666504,4330.128418,4496.153809,4289.358887,4466.410156,4408.333496,4307.820313,4435.769043,4424.487305,2988.0,1.0,18.0,1280.0,53805.0,,,,0.0,4.0,4.0,4.0,4.0,4.0,4.0,4.0,4.0,4.0,4.0,4.0,4.0,4.0,4.0,4.0,4.0,4.0,4.0,4.0,4.0,4.0,4.0,4.0,4.0,4.0,4.0,4.0,4.0,4.0,4.0,4.0,4.0,100.0,,,,,,,,,,,,,,,,,,,,,,,,,,,,,,,,,,,,,,,,,,,,,,,,,,,,,,,,,,,,,,,,,,,,,,,,,,,,,,,,,,,,,,,,,,,,,,,,,,,,,,,,,,,,,,,,,,,,,,,,,,,,,,,,,,,,,,,,,,,,,,,,,,,,,,,,,,,,,,,,,,,,,,,,,,,,,,,,,,,,,,,,,,,,,,,,,,,,,,,,,,,,,,
1763974595.510811,52717.0,0.0,4272.692383,4295.0,4392.692383,4423.333496,4315.128418,4423.461426,4425.641113,4270.769043,4485.641113,4306.794922,4381.922852,4413.333496,4467.436035,4302.307617,4286.025879,4404.871582,4440.769043,4440.769043,4422.563965,4293.846191,4278.846191,4466.025879,4413.589844,4396.666504,4315.256348,4486.025879,4282.179688,4455.256348,4396.922852,4296.794922,4421.282227,4406.666504,2805.0,1.0,18.0,1280.0,53805.0,,,,0.0,4.0,4.0,4.0,4.0,4.0,4.0,4.0,4.0,4.0,4.0,4.0,4.0,4.0,4.0,4.0,4.0,4.0,4.0,4.0,4.0,4.0,4.0,4.0,4.0,4.0,4.0,4.0,4.0,4.0,4.0,4.0,4.0,100.0,,,,,,,,,,,,,,,,,,,,,,,,,,,,,,,,,,,45947.0,0.0,0.563474,0.318787,0.244873,0.721741,0.964962,-0.2471,-0.00293,33.166668,-22.0,-26.833334,,,,,,,,,,,,,,,,,,,,,,,,,,,,,,,,,,,,,,,,,,,,,,,,,,,,,,,,,,,,,,,,,,,,,,,,,,,,,,,,,,,,,,,,,,,,,,,,,,,,,,,,,,,,,,,,,,,,,,,,,,,,,,,,,,,,,,,,,,,,,,,,,,,,,,,,,,,,,,,,
1763974595.514717,52718.0,0.0,4265.512695,4286.922852,4378.333496,4411.410156,4305.512695,4415.897461,4419.102539,4261.410156,4474.871582,4292.692383,4373.077148,4402.563965,4453.846191,4284.487305,4278.589844,4387.05127,4429.358887,4421.922852,4404.743652,4285.769043,4260.128418,4452.692383,4403.077148,4386.666504,4293.846191,4476.153809,4280.641113,4443.846191,4387.179688,4285.512695,4413.077148,4390.512695,2762.0,1.0,18.0,1536.0,53813.0,,,,0.0,4.0,4.0,4.0,4.0,4.0,4.0,4.0,4.0,4.0,4.0,4.0,4.0,4.0,4.0,4.0,4.0,4.0,4.0,4.0,4.0,4.0,4.0,4.0,4.0,4.0,4.0,4.0,4.0,4.0,4.0,4.0,4.0,100.0,,,,,,,,,,,,,,,,,,,,,,,,,,,,,,,,,,,,,,,,,,,,,,,2.603158,2.841155,2.425568,2.424087,1.562249,1.704561,3.506453,2.752368,2.810827,1.497009,1.769333,3.602962,2.123712,2.674531,1.902104,1.247937,1.772793,1.769315,4.403902,1.940618,1.197516,2.572407,1.884384,1.888257,1.47177,0.991762,1.542723,1.318592,1.794237,1.152027,1.171903,2.366208,2.326688,2.994457,2.420988,1.21686,2.026247,2.37575,3.262955,2.387939,0.734179,1.767059,1.629172,2.218703,1.792889,0.665471,2.56442,5.55011,5.722395,4.741754,1.530424,1.744527,2.956104,3.552684,3.829214,1.048458,2.817494,2.297431,2.416964,1.445134,1.467509,2.356696,2.984969,2.491958,1.932219,0.804811,2.230672,2.310928,2.14358,2.969028,0.601684,0.929676,1.236006,1.795135,0.936189,0.745509,2.076715,2.535629,2.220436,1.566352,1.529546,2.32139,2.26338,2.374492,1.278138,1.029565,2.862901,2.70726,2.511354,1.427382,1.326749,4.56503,2.865171,4.127854,3.157158,1.24242,2.865379,3.004845,3.3046,1.531241,1.341166,3.630038,2.602897,5.330279,2.09029,1.737827,2.957448,3.213574,2.855716,1.907251,1.555692,2.66825,2.58679,2.861963,1.643456,1.210735,2.08513,2.428593,2.425668,1.878922,1.525868,2.401002,2.916955,5.40503,4.67932,1.364824,2.143874,1.977115,2.5099,1.681576,1.440014,2.104891,1.868929,5.070354,2.749319,1.436558,1.995743,2.142582,2.612469,2.153157,1.559114,3.169281,2.010277,2.726827,1.76769,1.918224,3.526481,3.2722,3.629523,2.017536,1.427682,2.138255,2.630528,3.499283,1.919966,2.333381,2.08277,2.00636,3.221482,1.905099
1763974595.518623,52719.0,0.0,4262.692383,4285.769043,4373.974121,4406.153809,4300.769043,4412.94873,4420.128418,4256.922852,4467.179688,4277.307617,4367.692383,4396.922852,4448.461426,4270.769043,4275.384766,4382.94873,4425.384766,4413.333496,4394.615234,4281.666504,4252.563965,4450.384766,4401.538574,4382.179688,4276.538574,4469.487305,4285.769043,4439.743652,4385.897461,4280.384766,4415.512695,4384.487305,2893.0,1.0,18.0,1536.0,53813.0,,,,0.0,4.0,4.0,4.0,4.0,4.0,4.0,4.0,4.0,4.0,4.0,4.0,4.0,4.0,4.0,4.0,4.0,4.0,4.0,4.0,4.0,4.0,4.0,4.0,4.0,4.0,4.0,4.0,4.0,4.0,4.0,4.0,4.0,100.0,,,,,,,,,,,,,,,,,,,,,,,,,,,,,,,,,,,,,,,,,,,,,,,,,,,,,,,,,,,,,,,,,,,,,,,,,,,,,,,,,,,,,,,,,,,,,,,,,,,,,,,,,,,,,,,,,,,,,,,,,,,,,,,,,,,,,,,,,,,,,,,,,,,,,,,,,,,,,,,,,,,,,,,,,,,,,,,,,,,,,,,,,,,,,,,,,,,,,,,,,,,,,,
1763974595.522529,52720.0,0.0,4264.615234,4289.487305,4379.743652,4407.820313,4300.641113,4414.102539,4425.512695,4256.922852,4463.077148,4261.153809,4365.256348,4397.179688,4451.794922,4267.179688,4277.820313,4393.974121,4429.230957,4416.282227,4394.102539,4281.410156,4258.077148,4456.538574,4407.05127,4382.179688,4267.94873,4466.025879,4292.94873,4443.333496,4392.05127,4282.05127,4423.974121,4389.487305,2975.0,1.0,18.0,1792.0,53821.0,,,,0.0,4.0,4.0,4.0,4.0,4.0,4.0,4.0,4.0,4.0,4.0,4.0,4.0,4.0,4.0,4.0,4.0,4.0,4.0,4.0,4.0,4.0,4.0,4.0,4.0,4.0,4.0,4.0,4.0,4.0,4.0,4.0,4.0,100.0,,,,,,,,,,,,,,,,,,,,,,,,,,,,,,,,,,,,,,,,,,,,,,,,,,,,,,,,,,,,,,,,,,,,,,,,,,,,,,,,,,,,,,,,,,,,,,,,,,,,,,,,,,,,,,,,,,,,,,,,,,,,,,,,,,,,,,,,,,,,,,,,,,,,,,,,,,,,,,,,,,,,,,,,,,,,,,,,,,,,,,,,,,,,,,,,,,,,,,,,,,,,,,
1763974595.526435,52721.0,0.0,4268.333496,4292.436035,4388.205078,4412.692383,4301.025879,4416.025879,4429.102539,4259.871582,4461.538574,4247.05127,4364.615234,4400.256348,4457.436035,4273.589844,4282.692383,4411.025879,4435.769043,4424.743652,4398.333496,4283.333496,4270.769043,4462.307617,4412.563965,4381.794922,4266.538574,4465.128418,4296.025879,4448.589844,4398.974121,4286.538574,4430.128418,4399.102539,3095.0,1.0,18.0,1792.0,53821.0,,,,0.0,4.0,4.0,4.0,4.0,4.0,4.0,4.0,4.0,4.0,4.0,4.0,4.0,4.0,4.0,4.0,4.0,4.0,4.0,4.0,4.0,4.0,4.0,4.0,4.0,4.0,4.0,4.0,4.0,4.0,4.0,4.0,4.0,100.0,,,,,,,,,,,,,,,,,,,,,,,,,,,,,,,,,,,45948.0,0.0,0.563508,0.318726,0.244873,0.721741,0.964962,-0.2471,-0.00293,32.833332,-22.0,-27.666666,,,,,,,,,,,,,,,,,,,,,,,,,,,,,,,,,,,,,,,,,,,,,,,,,,,,,,,,,,,,,,,,,,,,,,,,,,,,,,,,,,,,,,,,,,,,,,,,,,,,,,,,,,,,,,,,,,,,,,,,,,,,,,,,,,,,,,,,,,,,,,,,,,,,,,,,,,,,,,,,
1763974595.530341,52722.0,0.0,4271.282227,4291.538574,4392.94873,4416.794922,4300.0,4416.153809,4428.461426,4264.743652,4462.563965,4240.384766,4366.922852,4403.589844,4459.743652,4285.256348,4285.897461,4423.974121,4440.641113,4432.563965,4402.820313,4286.153809,4282.563965,4461.922852,4413.974121,4379.743652,4269.230957,4466.666504,4293.461426,4450.897461,4401.922852,4289.871582,4430.128418,4406.666504,2855.0,1.0,18.0,2048.0,53828.0,,,,0.0,4.0,4.0,4.0,4.0,4.0,4.0,4.0,4.0,4.0,4.0,4.0,4.0,4.0,4.0,4.0,4.0,4.0,4.0,4.0,4.0,4.0,4.0,4.0,4.0,4.0,4.0,4.0,4.0,4.0,4.0,4.0,4.0,100.0,,,,,,,,,,,,,,,,,,,,,,,,,,,,,,,,,,,,,,,,,,,,,,,,,,,,,,,,,,,,,,,,,,,,,,,,,,,,,,,,,,,,,,,,,,,,,,,,,,,,,,,,,,,,,,,,,,,,,,,,,,,,,,,,,,,,,,,,,,,,,,,,,,,,,,,,,,,,,,,,,,,,,,,,,,,,,,,,,,,,,,,,,,,,,,,,,,,,,,,,,,,,,,
1763974595.534247,52723.0,0.0,4274.230957,4289.615234,4394.102539,4419.743652,4300.897461,4415.897461,4427.94873,4272.436035,4466.922852,4245.512695,4374.358887,4408.333496,4460.641113,4297.692383,4285.897461,4429.487305,4444.102539,4438.974121,4406.922852,4289.743652,4289.230957,4459.487305,4413.717773,4380.128418,4274.871582,4471.538574,4289.358887,4450.897461,4402.307617,4291.538574,4427.179688,4410.0,3039.0,1.0,18.0,2048.0,53828.0,,,,0.0,4.0,4.0,4.0,4.0,4.0,4.0,4.0,4.0,4.0,4.0,4.0,4.0,4.0,4.0,4.0,4.0,4.0,4.0,4.0,4.0,4.0,4.0,4.0,4.0,4.0,4.0,4.0,4.0,4.0,4.0,4.0,4.0,100.0,,,,,,,,,,,,,,,,,,,,,,,,,,,,,,,,,,,,,,,,,,,,,,,,,,,,,,,,,,,,,,,,,,,,,,,,,,,,,,,,,,,,,,,,,,,,,,,,,,,,,,,,,,,,,,,,,,,,,,,,,,,,,,,,,,,,,,,,,,,,,,,,,,,,,,,,,,,,,,,,,,,,,,,,,,,,,,,,,,,,,,,,,,,,,,,,,,,,,,,,,,,,,,
1763974595.538153,52724.0,0.0,4279.615234,4291.922852,4396.410156,4422.563965,4308.461426,4418.717773,4434.102539,4282.307617,4474.615234,4262.563965,4387.436035,4416.666504,4465.769043,4307.436035,4284.743652,4431.282227,4449.743652,4446.794922,4413.205078,4294.102539,4291.538574,4462.94873,4417.563965,4387.563965,4284.358887,4479.487305,4289.230957,4453.717773,4405.0,4294.358887,4427.436035,4411.410156,3014.0,1.0,18.0,2304.0,53836.0,,,,0.0,4.0,4.0,4.0,4.0,4.0,4.0,4.0,4.0,4.0,4.0,4.0,4.0,4.0,4.0,4.0,4.0,4.0,4.0,4.0,4.0,4.0,4.0,4.0,4.0,4.0,4.0,4.0,4.0,4.0,4.0,4.0,4.0,100.0,,,,,,,,,,,,,,,,,,,,,,,,,,,,,,,,,,,,,,,,,,,,,,,,,,,,,,,,,,,,,,,,,,,,,,,,,,,,,,,,,,,,,,,,,,,,,,,,,,,,,,,,,,,,,,,,,,,,,,,,,,,,,,,,,,,,,,,,,,,,,,,,,,,,,,,,,,,,,,,,,,,,,,,,,,,,,,,,,,,,,,,,,,,,,,,,,,,,,,,,,,,,,,
1763974595.542059,52725.0,0.0,4286.922852,4300.128418,4402.563965,4426.025879,4321.794922,4425.512695,4448.333496,4291.153809,4484.102539,4286.794922,4401.282227,4428.205078,4477.436035,4312.692383,4285.769043,4433.846191,4458.974121,4456.282227,4423.461426,4298.589844,4291.922852,4475.256348,4427.436035,4402.05127,4297.307617,4488.589844,4294.615234,4461.282227,4412.436035,4300.384766,4433.717773,4413.205078,2970.0,1.0,18.0,2304.0,53836.0,,,,0.0,4.0,4.0,4.0,4.0,4.0,4.0,4.0,4.0,4.0,4.0,4.0,4.0,4.0,4.0,4.0,4.0,4.0,4.0,4.0,4.0,4.0,4.0,4.0,4.0,4.0,4.0,4.0,4.0,4.0,4.0,4.0,4.0,100.0,,,,,,,,,,,,,,,,,,,,,,,,,,,,,,,,,,,45949.0,0.0,0.563465,0.318665,0.244873,0.721802,0.971798,-0.244659,0.00293,33.833332,-21.833334,-27.5,,,,,,,,,,,,,,,,,,,,,,,,,,,,,,,,,,,,,,,,,,,,,,,,,,,,,,,,,,,,,,,,,,,,,,,,,,,,,,,,,,,,,,,,,,,,,,,,,,,,,,,,,,,,,,,,,,,,,,,,,,,,,,,,,,,,,,,,,,,,,,,,,,,,,,,,,,,,,,,,
1763974595.545965,52726.0,0.0,4292.307617,4310.384766,4410.256348,4428.461426,4333.846191,4432.692383,4463.717773,4293.846191,4492.692383,4311.025879,4408.333496,4438.077148,4490.897461,4312.692383,4289.871582,4436.922852,4468.205078,4463.589844,4434.743652,4302.179688,4291.153809,4490.512695,4438.846191,4416.282227,4311.538574,4495.897461,4302.307617,4470.512695,4420.641113,4308.077148,4442.436035,4415.897461,3010.0,1.0,18.0,2048.0,53844.0,,,,0.0,4.0,4.0,4.0,4.0,4.0,4.0,4.0,4.0,4.0,4.0,4.0,4.0,4.0,4.0,4.0,4.0,4.0,4.0,4.0,4.0,4.0,4.0,4.0,4.0,4.0,4.0,4.0,4.0,4.0,4.0,4.0,4.0,100.0,,,,,,,,,,,,,,,,,,,,,,,,,,,,,,,,,,,,,,,,,,,,,,,,,,,,,,,,,,,,,,,,,,,,,,,,,,,,,,,,,,,,,,,,,,,,,,,,,,,,,,,,,,,,,,,,,,,,,,,,,,,,,,,,,,,,,,,,,,,,,,,,,,,,,,,,,,,,,,,,,,,,,,,,,,,,,,,,,,,,,,,,,,,,,,,,,,,,,,,,,,,,,,
1763974595.549871,52727.0,0.0,4291.666504,4315.0,4414.487305,4428.717773,4336.666504,4435.512695,4470.512695,4287.692383,4497.307617,4328.077148,4404.102539,4440.384766,4497.692383,4308.333496,4295.0,4437.179688,4471.666504,4462.820313,4441.153809,4303.974121,4288.077148,4498.077148,4444.743652,4422.692383,4322.436035,4498.589844,4308.077148,4474.871582,4423.205078,4312.94873,4447.563965,4419.230957,2957.0,1.0,18.0,2048.0,53844.0,,,,0.0,4.0,4.0,4.0,4.0,4.0,4.0,4.0,4.0,4.0,4.0,4.0,4.0,4.0,4.0,4.0,4.0,4.0,4.0,4.0,4.0,4.0,4.0,4.0,4.0,4.0,4.0,4.0,4.0,4.0,4.0,4.0,4.0,100.0,,,,,,,,,,,,,,,,,,,,,,,,,,,,,,,,,,,,,,,,,,,,,,,,,,,,,,,,,,,,,,,,,,,,,,,,,,,,,,,,,,,,,,,,,,,,,,,,,,,,,,,,,,,,,,,,,,,,,,,,,,,,,,,,,,,,,,,,,,,,,,,,,,,,,,,,,,,,,,,,,,,,,,,,,,,,,,,,,,,,,,,,,,,,,,,,,,,,,,,,,,,,,,
1763974595.553777,52728.0,0.0,4284.871582,4309.615234,4411.922852,4428.077148,4328.333496,4431.794922,4464.871582,4276.922852,4495.769043,4333.333496,4392.436035,4433.717773,4494.615234,4301.282227,4298.333496,4432.563965,4466.153809,4453.589844,4438.205078,4304.102539,4282.307617,4492.820313,4441.410156,4418.974121,4326.666504,4496.282227,4309.487305,4471.538574,4416.922852,4311.666504,4446.282227,4422.436035,2918.0,1.0,18.0,1024.0,53852.0,,,,0.0,4.0,4.0,4.0,4.0,4.0,4.0,4.0,4.0,4.0,4.0,4.0,4.0,4.0,4.0,4.0,4.0,4.0,4.0,4.0,4.0,4.0,4.0,4.0,4.0,4.0,4.0,4.0,4.0,4.0,4.0,4.0,4.0,100.0,,,,,,,,,,,,,,,,,,,,,,,,,,,,,,,,,,,,,,,,,,,,,,,,,,,,,,,,,,,,,,,,,,,,,,,,,,,,,,,,,,,,,,,,,,,,,,,,,,,,,,,,,,,,,,,,,,,,,,,,,,,,,,,,,,,,,,,,,,,,,,,,,,,,,,,,,,,,,,,,,,,,,,,,,,,,,,,,,,,,,,,,,,,,,,,,,,,,,,,,,,,,,,
1763974595.557683,52729.0,0.0,4276.153809,4297.436035,4405.128418,4429.102539,4314.743652,4424.871582,4452.05127,4269.358887,4488.974121,4326.538574,4383.077148,4422.820313,4485.769043,4294.871582,4298.333496,4425.897461,4455.256348,4442.05127,4428.333496,4303.846191,4276.922852,4478.589844,4431.666504,4409.358887,4323.205078,4491.538574,4306.922852,4462.94873,4405.512695,4305.512695,4441.666504,4425.384766,2877.0,1.0,18.0,1024.0,53852.0,,,,0.0,4.0,4.0,4.0,4.0,4.0,4.0,4.0,4.0,4.0,4.0,4.0,4.0,4.0,4.0,4.0,4.0,4.0,4.0,4.0,4.0,4.0,4.0,4.0,4.0,4.0,4.0,4.0,4.0,4.0,4.0,4.0,4.0,100.0,,,,,,,,,,,,,,,,,,,,,,,,,,,,,,,,,,,45950.0,0.0,0.56356,0.318542,0.244812,0.721802,0.978147,-0.23831,-0.006837,31.833334,-21.0,-27.833334,,,,,,,,,,,,,,,,,,,,,,,,,,,,,,,,,,,,,,,,,,,,,,,,,,,,,,,,,,,,,,,,,,,,,,,,,,,,,,,,,,,,,,,,,,,,,,,,,,,,,,,,,,,,,,,,,,,,,,,,,,,,,,,,,,,,,,,,,,,,,,,,,,,,,,,,,,,,,,,,
1763974595.561589,52730.0,0.0,4271.538574,4286.922852,4399.871582,4433.846191,4305.128418,4420.384766,4441.794922,4271.025879,4481.666504,4314.615234,4383.589844,4415.0,4478.974121,4292.692383,4296.025879,4421.666504,4446.666504,4436.666504,4419.487305,4305.0,4277.692383,4466.153809,4423.205078,4401.025879,4315.384766,4488.846191,4303.333496,4455.512695,4397.05127,4299.871582,4439.230957,4427.563965,2830.0,1.0,18.0,256.0,53860.0,,,,0.0,4.0,4.0,4.0,4.0,4.0,4.0,4.0,4.0,4.0,4.0,4.0,4.0,4.0,4.0,4.0,4.0,4.0,4.0,4.0,4.0,4.0,4.0,4.0,4.0,4.0,4.0,4.0,4.0,4.0,4.0,4.0,4.0,100.0,,,,,,,,,,,,,,,,,,,,,,,,,,,,,,,,,,,,,,,,,,,,,,,,,,,,,,,,,,,,,,,,,,,,,,,,,,,,,,,,,,,,,,,,,,,,,,,,,,,,,,,,,,,,,,,,,,,,,,,,,,,,,,,,,,,,,,,,,,,,,,,,,,,,,,,,,,,,,,,,,,,,,,,,,,,,,,,,,,,,,,,,,,,,,,,,,,,,,,,,,,,,,,
1763974595.565495,52731.0,0.0,4274.230957,4286.282227,4401.282227,4440.384766,4305.897461,4422.436035,4440.897461,4280.641113,4480.0,4308.589844,4393.717773,4415.256348,4479.743652,4296.025879,4293.846191,4422.436035,4446.410156,4440.641113,4419.358887,4308.205078,4287.307617,4465.0,4422.692383,4399.871582,4309.487305,4491.282227,4302.179688,4454.743652,4398.205078,4301.282227,4441.794922,4429.102539,3023.0,1.0,18.0,256.0,53860.0,,,,0.0,4.0,4.0,4.0,4.0,4.0,4.0,4.0,4.0,4.0,4.0,4.0,4.0,4.0,4.0,4.0,4.0,4.0,4.0,4.0,4.0,4.0,4.0,4.0,4.0,4.0,4.0,4.0,4.0,4.0,4.0,4.0,4.0,100.0,,,,,,,,,,,,,,,,,,,,,,,,,,,,,,,,,,,,,,,,,,,,,,,,,,,,,,,,,,,,,,,,,,,,,,,,,,,,,,,,,,,,,,,,,,,,,,,,,,,,,,,,,,,,,,,,,,,,,,,,,,,,,,,,,,,,,,,,,,,,,,,,,,,,,,,,,,,,,,,,,,,,,,,,,,,,,,,,,,,,,,,,,,,,,,,,,,,,,,,,,,,,,,
1763974595.569401,52732.0,0.0,4283.717773,4297.179688,4409.358887,4445.384766,4316.282227,4430.641113,4449.487305,4292.307617,4486.794922,4314.487305,4406.666504,4423.461426,4487.563965,4303.205078,4293.461426,4425.641113,4455.256348,4450.256348,4430.0,4312.94873,4301.922852,4477.820313,4431.922852,4408.333496,4312.05127,4498.974121,4306.282227,4462.436035,4409.230957,4312.436035,4448.077148,4431.025879,2954.0,1.0,18.0,256.0,53867.0,,,,0.0,4.0,4.0,4.0,4.0,4.0,4.0,4.0,4.0,4.0,4.0,4.0,4.0,4.0,4.0,4.0,4.0,4.0,4.0,4.0,4.0,4.0,4.0,4.0,4.0,4.0,4.0,4.0,4.0,4.0,4.0,4.0,4.0,100.0,,,,,,,,,,,,,,,,,,,,,,,,,,,,,,,,,,,,,,,,,,,,,,,,,,,,,,,,,,,,,,,,,,,,,,,,,,,,,,,,,,,,,,,,,,,,,,,,,,,,,,,,,,,,,,,,,,,,,,,,,,,,,,,,,,,,,,,,,,,,,,,,,,,,,,,,,,,,,,,,,,,,,,,,,,,,,,,,,,,,,,,,,,,,,,,,,,,,,,,,,,,,,,
1763974595.573307,52733.0,0.0,4296.025879,4313.974121,4420.384766,4447.179688,4330.0,4441.025879,4461.666504,4301.153809,4499.230957,4328.077148,4415.641113,4435.128418,4496.922852,4309.743652,4296.282227,4427.05127,4468.717773,4458.717773,4445.641113,4317.94873,4313.717773,4498.461426,4446.538574,4424.487305,4325.512695,4509.230957,4316.025879,4476.025879,4424.615234,4330.0,4455.256348,4435.0,2856.0,1.0,18.0,256.0,53867.0,,,,0.0,4.0,4.0,4.0,4.0,4.0,4.0,4.0,4.0,4.0,4.0,4.0,4.0,4.0,4.0,4.0,4.0,4.0,4.0,4.0,4.0,4.0,4.0,4.0,4.0,4.0,4.0,4.0,4.0,4.0,4.0,4.0,4.0,100.0,,,,,,,,,,,,,,,,,,,,,,,,,,,,,,,,,,,45951.0,0.0,0.563577,0.31842,0.244751,0.721863,0.968868,-0.248077,0.004395,31.666666,-24.0,-27.666666,,,,,,,,,,,,,,,,,,,,,,,,,,,,,,,,,,,,,,,,,,,,,,,,,,,,,,,,,,,,,,,,,,,,,,,,,,,,,,,,,,,,,,,,,,,,,,,,,,,,,,,,,,,,,,,,,,,,,,,,,,,,,,,,,,,,,,,,,,,,,,,,,,,,,,,,,,,,,,,,
1763974595.577113,52734.0,0.0,4306.153809,4328.077148,4429.487305,4447.307617,4339.615234,4448.974121,4470.256348,4305.897461,4510.641113,4337.94873,4417.05127,4444.230957,4501.922852,4312.692383,4302.692383,4425.769043,4480.0,4462.179688,4456.666504,4322.692383,4316.282227,4516.410156,4460.256348,4441.666504,4345.769043,4519.358887,4328.333496,4489.615234,4436.794922,4346.538574,4461.538574,4440.641113,3022.0,1.0,18.0,256.0,53875.0,,,,0.0,4.0,4.0,4.0,4.0,4.0,4.0,4.0,4.0,4.0,4.0,4.0,4.0,4.0,4.0,4.0,4.0,4.0,4.0,4.0,4.0,4.0,4.0,4.0,4.0,4.0,4.0,4.0,4.0,4.0,4.0,4.0,4.0,100.0,,,,,,,,,,,,,,,,,,,,,,,,,,,,,,,,,,,,,,,,,,,,,,,,,,,,,,,,,,,,,,,,,,,,,,,,,,,,,,,,,,,,,,,,,,,,,,,,,,,,,,,,,,,,,,,,,,,,,,,,,,,,,,,,,,,,,,,,,,,,,,,,,,,,,,,,,,,,,,,,,,,,,,,,,,,,,,,,,,,,,,,,,,,,,,,,,,,,,,,,,,,,,,
1763974595.581019,52735.0,0.0,4310.641113,4332.820313,4433.461426,4447.820313,4341.922852,4451.282227,4471.025879,4307.94873,4514.743652,4334.615234,4411.922852,4446.538574,4499.743652,4312.179688,4311.153809,4424.871582,4484.358887,4461.666504,4456.922852,4327.05127,4310.0,4522.05127,4467.05127,4451.922852,4362.692383,4526.794922,4338.717773,4497.820313,4440.641113,4354.102539,4466.153809,4445.256348,2938.0,1.0,18.0,256.0,53875.0,,,,0.0,4.0,4.0,4.0,4.0,4.0,4.0,4.0,4.0,4.0,4.0,4.0,4.0,4.0,4.0,4.0,4.0,4.0,4.0,4.0,4.0,4.0,4.0,4.0,4.0,4.0,4.0,4.0,4.0,4.0,4.0,4.0,4.0,100.0,,,,,,,,,,,,,,,,,,,,,,,,,,,,,,,,,,,,,,,,,,,,,,,,,,,,,,,,,,,,,,,,,,,,,,,,,,,,,,,,,,,,,,,,,,,,,,,,,,,,,,,,,,,,,,,,,,,,,,,,,,,,,,,,,,,,,,,,,,,,,,,,,,,,,,,,,,,,,,,,,,,,,,,,,,,,,,,,,,,,,,,,,,,,,,,,,,,,,,,,,,,,,,
1763974595.584825,52736.0,0.0,4308.589844,4327.94873,4431.666504,4448.461426,4338.461426,4448.205078,4465.384766,4307.436035,4509.615234,4317.820313,4403.974121,4442.05127,4492.94873,4310.0,4317.94873,4427.692383,4480.897461,4460.384766,4448.846191,4329.487305,4301.538574,4513.974121,4464.871582,4449.487305,4364.871582,4529.102539,4342.94873,4498.589844,4436.410156,4350.0,4468.333496,4445.0,2877.0,1.0,18.0,256.0,53883.0,,,,0.0,4.0,4.0,4.0,4.0,4.0,4.0,4.0,4.0,4.0,4.0,4.0,4.0,4.0,4.0,4.0,4.0,4.0,4.0,4.0,4.0,4.0,4.0,4.0,4.0,4.0,4.0,4.0,4.0,4.0,4.0,4.0,4.0,100.0,,,,,,,,,,,,,,,,,,,,,,,,,,,,,,,,,,,,,,,,,,,,,,,,,,,,,,,,,,,,,,,,,,,,,,,,,,,,,,,,,,,,,,,,,,,,,,,,,,,,,,,,,,,,,,,,,,,,,,,,,,,,,,,,,,,,,,,,,,,,,,,,,,,,,,,,,,,,,,,,,,,,,,,,,,,,,,,,,,,,,,,,,,,,,,,,,,,,,,,,,,,,,,
1763974595.58873,52737.0,0.0,4302.820313,4317.94873,4426.153809,4447.436035,4333.333496,4442.436035,4458.205078,4303.846191,4498.717773,4296.025879,4397.307617,4434.743652,4486.794922,4308.077148,4318.205078,4433.461426,4473.846191,4460.512695,4440.897461,4328.846191,4298.717773,4499.230957,4456.410156,4435.769043,4348.333496,4525.512695,4339.743652,4494.358887,4428.589844,4337.820313,4466.282227,4438.461426,2895.0,1.0,18.0,256.0,53883.0,,,,0.0,4.0,4.0,4.0,4.0,4.0,4.0,4.0,4.0,4.0,4.0,4.0,4.0,4.0,4.0,4.0,4.0,4.0,4.0,4.0,4.0,4.0,4.0,4.0,4.0,4.0,4.0,4.0,4.0,4.0,4.0,4.0,4.0,100.0,,,,,,,,,,,,,,,,,,,,,,,,,,,,,,,,,,,45952.0,0.0,0.563577,0.31842,0.244751,0.721863,0.971798,-0.243682,-0.00293,33.166668,-22.0,-27.166666,,,,,,,,,,,,,,,,,,,,,,,,,,,,,,,,,,,,,,,,,,,,,,,,,,,,,,,,,,,,,,,,,,,,,,,,,,,,,,,,,,,,,,,,,,,,,,,,,,,,,,,,,,,,,,,,,,,,,,,,,,,,,,,,,,,,,,,,,,,,,,,,,,,,,,,,,,,,,,,,
1763974595.592736,52738.0,0.0,4297.94873,4308.589844,4420.0,4443.205078,4329.102539,4437.436035,4454.230957,4297.563965,4488.589844,4280.641113,4394.102539,4429.871582,4485.512695,4307.05127,4311.282227,4438.589844,4468.589844,4461.666504,4440.641113,4325.128418,4304.743652,4488.333496,4447.307617,4418.589844,4320.641113,4518.205078,4331.282227,4489.615234,4423.205078,4324.871582,4459.358887,4429.230957,2296.0,1.0,18.0,512.0,53891.0,,,,0.0,4.0,4.0,4.0,4.0,4.0,4.0,4.0,4.0,4.0,4.0,4.0,4.0,4.0,4.0,4.0,4.0,4.0,4.0,4.0,4.0,4.0,4.0,4.0,4.0,4.0,4.0,4.0,4.0,4.0,4.0,4.0,4.0,100.0,,,,,,,,,,,,,,,,,,,,,,,,,,,,,,,,,,,,,,,,,,,,,,,,,,,,,,,,,,,,,,,,,,,,,,,,,,,,,,,,,,,,,,,,,,,,,,,,,,,,,,,,,,,,,,,,,,,,,,,,,,,,,,,,,,,,,,,,,,,,,,,,,,,,,,,,,,,,,,,,,,,,,,,,,,,,,,,,,,,,,,,,,,,,,,,,,,,,,,,,,,,,,,
1763974595.596642,52739.0,0.0,4297.820313,4303.974121,4415.769043,4437.436035,4326.794922,4435.512695,4455.512695,4291.794922,4485.0,4279.102539,4394.871582,4430.769043,4489.230957,4307.820313,4301.794922,4440.256348,4468.461426,4462.820313,4447.692383,4320.897461,4315.897461,4487.563965,4442.820313,4407.307617,4296.794922,4511.666504,4321.025879,4488.077148,4424.230957,4317.563965,4450.384766,4423.974121,2996.0,1.0,18.0,512.0,53891.0,,,,0.0,4.0,4.0,4.0,4.0,4.0,4.0,4.0,4.0,4.0,4.0,4.0,4.0,4.0,4.0,4.0,4.0,4.0,4.0,4.0,4.0,4.0,4.0,4.0,4.0,4.0,4.0,4.0,4.0,4.0,4.0,4.0,4.0,100.0,,,,,,,,,,,,,,,,,,,,,,,,,,,,,,,,,,,,,,,,,,,,,,,,,,,,,,,,,,,,,,,,,,,,,,,,,,,,,,,,,,,,,,,,,,,,,,,,,,,,,,,,,,,,,,,,,,,,,,,,,,,,,,,,,,,,,,,,,,,,,,,,,,,,,,,,,,,,,,,,,,,,,,,,,,,,,,,,,,,,,,,,,,,,,,,,,,,,,,,,,,,,,,
1763974595.600548,52740.0,0.0,4302.94873,4304.615234,4414.487305,4433.589844,4326.538574,4437.05127,4460.256348,4289.487305,4490.128418,4290.641113,4398.461426,4436.410156,4495.0,4310.769043,4296.922852,4439.358887,4472.563965,4463.333496,4454.615234,4318.846191,4324.230957,4495.128418,4444.743652,4406.794922,4289.487305,4509.871582,4313.205078,4490.384766,4431.025879,4318.717773,4444.871582,4426.153809,2875.0,1.0,18.0,768.0,53899.0,,,,0.0,4.0,4.0,4.0,4.0,4.0,4.0,4.0,4.0,4.0,4.0,4.0,4.0,4.0,4.0,4.0,4.0,4.0,4.0,4.0,4.0,4.0,4.0,4.0,4.0,4.0,4.0,4.0,4.0,4.0,4.0,4.0,4.0,100.0,,,,,,,,,,,,,,,,,,,,,,,,,,,,,,,,,,,,,,,,,,,,,,,,,,,,,,,,,,,,,,,,,,,,,,,,,,,,,,,,,,,,,,,,,,,,,,,,,,,,,,,,,,,,,,,,,,,,,,,,,,,,,,,,,,,,,,,,,,,,,,,,,,,,,,,,,,,,,,,,,,,,,,,,,,,,,,,,,,,,,,,,,,,,,,,,,,,,,,,,,,,,,,
1763974595.604454,52741.0,0.0,4309.358887,4307.436035,4415.128418,4432.94873,4327.820313,4439.615234,4464.230957,4289.487305,4499.615234,4306.794922,4402.307617,4442.307617,4497.820313,4314.871582,4300.128418,4438.077148,4477.05127,4463.333496,4453.717773,4318.461426,4323.461426,4503.205078,4449.487305,4413.589844,4299.358887,4511.666504,4308.461426,4492.94873,4438.077148,4325.128418,4445.512695,4431.666504,2490.0,1.0,18.0,768.0,53899.0,,,,0.0,4.0,4.0,4.0,4.0,4.0,4.0,4.0,4.0,4.0,4.0,4.0,4.0,4.0,4.0,4.0,4.0,4.0,4.0,4.0,4.0,4.0,4.0,4.0,4.0,4.0,4.0,4.0,4.0,4.0,4.0,4.0,4.0,100.0,,,,,,,,,,,,,,,,,,,,,,,,,,,,,,,,,,,45953.0,0.0,0.563499,0.318604,0.244873,0.721802,0.979123,-0.239775,-0.009767,32.5,-22.5,-26.833334,,,,,,,,,,,,,,,,,,,,,,,,,,,,,,,,,,,,,,,,,,,,,,,,,,,,,,,,,,,,,,,,,,,,,,,,,,,,,,,,,,,,,,,,,,,,,,,,,,,,,,,,,,,,,,,,,,,,,,,,,,,,,,,,,,,,,,,,,,,,,,,,,,,,,,,,,,,,,,,,
1763974595.60836,52742.0,0.0,4310.384766,4307.179688,4413.846191,4431.794922,4327.94873,4438.717773,4462.692383,4286.794922,4505.128418,4317.307617,4401.794922,4442.692383,4494.358887,4318.205078,4307.307617,4437.94873,4476.794922,4462.94873,4443.717773,4315.897461,4312.820313,4503.077148,4450.897461,4417.94873,4316.666504,4511.538574,4304.230957,4490.897461,4437.94873,4328.205078,4448.974121,4431.282227,3005.0,1.0,18.0,1024.0,53907.0,,,,0.0,4.0,4.0,4.0,4.0,4.0,4.0,4.0,4.0,4.0,4.0,4.0,4.0,4.0,4.0,4.0,4.0,4.0,4.0,4.0,4.0,4.0,4.0,4.0,4.0,4.0,4.0,4.0,4.0,4.0,4.0,4.0,4.0,100.0,,,,,,,,,,,,,,,,,,,,,,,,,,,,,,,,,,,,,,,,,,,,,,,,,,,,,,,,,,,,,,,,,,,,,,,,,,,,,,,,,,,,,,,,,,,,,,,,,,,,,,,,,,,,,,,,,,,,,,,,,,,,,,,,,,,,,,,,,,,,,,,,,,,,,,,,,,,,,,,,,,,,,,,,,,,,,,,,,,,,,,,,,,,,,,,,,,,,,,,,,,,,,,
1763974595.612266,52743.0,0.0,4302.307617,4300.384766,4406.666504,4424.743652,4324.102539,4432.05127,4453.461426,4277.307617,4500.0,4317.05127,4394.230957,4434.230957,4483.846191,4319.487305,4310.512695,4438.846191,4469.743652,4461.538574,4431.666504,4308.461426,4297.05127,4492.05127,4444.615234,4412.94873,4329.230957,4504.743652,4296.410156,4481.794922,4426.922852,4320.769043,4447.94873,4418.974121,2991.0,1.0,18.0,1024.0,53907.0,,,,0.0,4.0,4.0,4.0,4.0,4.0,4.0,4.0,4.0,4.0,4.0,4.0,4.0,4.0,4.0,4.0,4.0,4.0,4.0,4.0,4.0,4.0,4.0,4.0,4.0,4.0,4.0,4.0,4.0,4.0,4.0,4.0,4.0,100.0,,,,,,,,,,,,,,,,,,,,,,,,,,,,,,,,,,,,,,,,,,,,,,,,,,,,,,,,,,,,,,,,,,,,,,,,,,,,,,,,,,,,,,,,,,,,,,,,,,,,,,,,,,,,,,,,,,,,,,,,,,,,,,,,,,,,,,,,,,,,,,,,,,,,,,,,,,,,,,,,,,,,,,,,,,,,,,,,,,,,,,,,,,,,,,,,,,,,,,,,,,,,,,
1763974595.616172,52744.0,0.0,4288.333496,4289.230957,4395.0,4412.563965,4315.769043,4421.794922,4440.128418,4264.358887,4486.794922,4311.153809,4382.436035,4420.641113,4471.538574,4320.256348,4306.410156,4439.615234,4459.230957,4460.256348,4427.05127,4299.743652,4284.615234,4476.922852,4433.077148,4400.641113,4332.307617,4493.333496,4286.794922,4468.717773,4409.871582,4304.743652,4439.487305,4399.230957,2701.0,1.0,18.0,1280.0,53914.0,,,,0.0,4.0,4.0,4.0,4.0,4.0,4.0,4.0,4.0,4.0,4.0,4.0,4.0,4.0,4.0,4.0,4.0,4.0,4.0,4.0,4.0,4.0,4.0,4.0,4.0,4.0,4.0,4.0,4.0,4.0,4.0,4.0,4.0,100.0,,,,,,,,,,,,,,,,,,,,,,,,,,,,,,,,,,,,,,,,,,,,,,,,,,,,,,,,,,,,,,,,,,,,,,,,,,,,,,,,,,,,,,,,,,,,,,,,,,,,,,,,,,,,,,,,,,,,,,,,,,,,,,,,,,,,,,,,,,,,,,,,,,,,,,,,,,,,,,,,,,,,,,,,,,,,,,,,,,,,,,,,,,,,,,,,,,,,,,,,,,,,,,
1763974595.620078,52745.0,0.0,4279.102539,4282.436035,4386.922852,4404.358887,4307.94873,4415.769043,4432.563965,4258.717773,4476.922852,4310.0,4376.794922,4412.436035,4466.922852,4324.487305,4300.897461,4440.897461,4453.846191,4462.563965,4435.769043,4299.743652,4284.102539,4470.512695,4426.025879,4392.563965,4330.512695,4486.666504,4283.461426,4460.641113,4399.102539,4292.307617,4430.512695,4386.153809,2862.0,1.0,18.0,1280.0,53914.0,,,,0.0,4.0,4.0,4.0,4.0,4.0,4.0,4.0,4.0,4.0,4.0,4.0,4.0,4.0,4.0,4.0,4.0,4.0,4.0,4.0,4.0,4.0,4.0,4.0,4.0,4.0,4.0,4.0,4.0,4.0,4.0,4.0,4.0,100.0,,,,,,,,,,,,,,,,,,,,,,,,,,,,,,,,,,,45954.0,0.0,0.563473,0.318604,0.244934,0.721802,0.96545,-0.251007,0.003907,33.166668,-22.0,-24.666666,,,,,,,,,,,,,,,,,,,,,,,,,,,,,,,,,,,,,,,,,,,,,,,,,,,,,,,,,,,,,,,,,,,,,,,,,,,,,,,,,,,,,,,,,,,,,,,,,,,,,,,,,,,,,,,,,,,,,,,,,,,,,,,,,,,,,,,,,,,,,,,,,,,,,,,,,,,,,,,,
1763974595.623984,52746.0,0.0,4285.512695,4289.358887,4393.333496,4411.538574,4309.102539,4420.897461,4441.025879,4271.025879,4482.307617,4320.0,4389.102539,4420.128418,4478.589844,4334.487305,4303.717773,4445.512695,4461.538574,4471.538574,4454.615234,4316.153809,4298.717773,4481.922852,4433.589844,4399.487305,4332.692383,4493.974121,4295.641113,4466.282227,4405.512695,4297.307617,4432.563965,4392.820313,2707.0,1.0,18.0,1536.0,53922.0,,,,0.0,4.0,4.0,4.0,4.0,4.0,4.0,4.0,4.0,4.0,4.0,4.0,4.0,4.0,4.0,4.0,4.0,4.0,4.0,4.0,4.0,4.0,4.0,4.0,4.0,4.0,4.0,4.0,4.0,4.0,4.0,4.0,4.0,100.0,,,,,,,,,,,,,,,,,,,,,,,,,,,,,,,,,,,,,,,,,,,,,,,,,,,,,,,,,,,,,,,,,,,,,,,,,,,,,,,,,,,,,,,,,,,,,,,,,,,,,,,,,,,,,,,,,,,,,,,,,,,,,,,,,,,,,,,,,,,,,,,,,,,,,,,,,,,,,,,,,,,,,,,,,,,,,,,,,,,,,,,,,,,,,,,,,,,,,,,,,,,,,,
1763974595.62789,52747.0,0.0,4308.333496,4310.769043,4416.922852,4436.282227,4323.717773,4437.436035,4467.05127,4300.641113,4504.102539,4337.94873,4420.256348,4444.615234,4506.025879,4347.307617,4319.358887,4455.128418,4482.05127,4486.153809,4472.820313,4345.0,4322.179688,4506.922852,4455.641113,4421.666504,4342.307617,4515.897461,4323.846191,4485.897461,4428.974121,4322.820313,4451.153809,4419.871582,3003.0,1.0,18.0,1536.0,53922.0,,,,0.0,4.0,4.0,4.0,4.0,4.0,4.0,4.0,4.0,4.0,4.0,4.0,4.0,4.0,4.0,4.0,4.0,4.0,4.0,4.0,4.0,4.0,4.0,4.0,4.0,4.0,4.0,4.0,4.0,4.0,4.0,4.0,4.0,100.0,,,,,,,,,,,,,,,,,,,,,,,,,,,,,,,,,,,,,,,,,,,,,,,,,,,,,,,,,,,,,,,,,,,,,,,,,,,,,,,,,,,,,,,,,,,,,,,,,,,,,,,,,,,,,,,,,,,,,,,,,,,,,,,,,,,,,,,,,,,,,,,,,,,,,,,,,,,,,,,,,,,,,,,,,,,,,,,,,,,,,,,,,,,,,,,,,,,,,,,,,,,,,,
1763974595.631796,52748.0,0.0,4335.897461,4335.897461,4447.436035,4466.282227,4346.025879,4456.666504,4498.846191,4332.563965,4530.897461,4353.461426,4455.641113,4473.205078,4536.282227,4355.0,4340.512695,4466.282227,4504.358887,4498.974121,4478.717773,4371.410156,4341.282227,4529.487305,4479.871582,4445.897461,4354.102539,4541.282227,4355.384766,4509.102539,4456.538574,4355.769043,4478.589844,4453.205078,2980.0,1.0,18.0,1792.0,53930.0,,,,0.0,4.0,4.0,4.0,4.0,4.0,4.0,4.0,4.0,4.0,4.0,4.0,4.0,4.0,4.0,4.0,4.0,4.0,4.0,4.0,4.0,4.0,4.0,4.0,4.0,4.0,4.0,4.0,4.0,4.0,4.0,4.0,4.0,100.0,,,,,,,,,,,,,,,,,,,,,,,,,,,,,,,,,,,,,,,,,,,,,,,,,,,,,,,,,,,,,,,,,,,,,,,,,,,,,,,,,,,,,,,,,,,,,,,,,,,,,,,,,,,,,,,,,,,,,,,,,,,,,,,,,,,,,,,,,,,,,,,,,,,,,,,,,,,,,,,,,,,,,,,,,,,,,,,,,,,,,,,,,,,,,,,,,,,,,,,,,,,,,,
1763974595.635702,52749.0,0.0,4350.641113,4348.461426,4465.384766,4482.05127,4361.922852,4465.769043,4517.05127,4346.282227,4545.384766,4356.794922,4472.820313,4487.307617,4550.512695,4350.128418,4353.205078,4471.410156,4513.077148,4500.641113,4468.205078,4377.692383,4344.230957,4533.461426,4489.743652,4454.871582,4357.307617,4554.102539,4371.282227,4520.256348,4470.0,4374.358887,4497.179688,4471.794922,2796.0,1.0,18.0,1792.0,53930.0,,,,0.0,4.0,4.0,4.0,4.0,4.0,4.0,4.0,4.0,4.0,4.0,4.0,4.0,4.0,4.0,4.0,4.0,4.0,4.0,4.0,4.0,4.0,4.0,4.0,4.0,4.0,4.0,4.0,4.0,4.0,4.0,4.0,4.0,100.0,,,,,,,,,,,,,,,,,,,,,,,,,,,,,,,,,,,45955.0,0.0,0.563333,0.318848,0.245117,0.721741,0.96545,-0.251007,0.003907,32.833332,-22.833334,-25.5,,,,,,,,,,,,,,,,,,,,,,,,,,,,,,,,,,,,,,,,,,,,,,,,,,,,,,,,,,,,,,,,,,,,,,,,,,,,,,,,,,,,,,,,,,,,,,,,,,,,,,,,,,,,,,,,,,,,,,,,,,,,,,,,,,,,,,,,,,,,,,,,,,,,,,,,,,,,,,,,
1763974595.639608,52750.0,0.0,4341.666504,4337.820313,4457.179688,4471.410156,4358.077148,4457.179688,4508.333496,4330.897461,4536.922852,4344.743652,4458.205078,4475.512695,4537.05127,4332.94873,4348.205078,4464.743652,4500.128418,4486.666504,4446.282227,4357.692383,4329.230957,4514.102539,4476.153809,4439.615234,4345.641113,4544.230957,4359.743652,4510.256348,4459.102539,4363.717773,4491.794922,4463.461426,2755.0,1.0,18.0,2048.0,53938.0,,,,0.0,4.0,4.0,4.0,4.0,4.0,4.0,4.0,4.0,4.0,4.0,4.0,4.0,4.0,4.0,4.0,4.0,4.0,4.0,4.0,4.0,4.0,4.0,4.0,4.0,4.0,4.0,4.0,4.0,4.0,4.0,4.0,4.0,100.0,1.0,25.0,3.0,3.0,1.0,1.0,3.0,4.0,1.0,1.0,1.0,1.0,1.0,3.0,1.0,1.0,3.0,1.0,3.0,1.0,1.0,1.0,1.0,1.0,1.0,1.0,1.0,1.0,1.0,1.0,1.0,1.0,1.0,1.0,,,,,,,,,,,,,2.520691,3.235655,2.711047,2.365785,1.420522,1.769307,4.279579,3.052198,2.716962,1.332946,1.602163,3.895262,1.979159,2.693117,1.60759,1.4839,1.882674,1.594963,4.339757,1.783528,1.244936,2.951968,2.091651,1.85075,1.297569,1.059055,1.747,1.487057,1.755182,1.0389,1.36762,2.526545,2.354142,3.073688,2.189808,1.349952,2.140842,2.213844,3.445183,2.429775,0.936577,1.772921,1.407545,2.036176,1.687544,0.641351,2.5464,6.258907,5.391541,4.522849,1.38243,1.777627,3.431283,3.758631,3.850937,1.006562,2.886591,2.367468,2.492357,1.339847,1.380834,2.293406,2.997295,2.677837,1.789686,0.85177,2.351525,2.100953,1.872121,3.161768,0.688674,1.03372,1.237857,1.612898,0.865723,0.735808,2.237251,2.605086,2.129428,1.549997,1.334866,2.466439,2.252395,2.464751,1.12845,0.890761,2.872053,2.740355,2.500257,1.31146,1.258864,4.438501,3.528541,4.51223,3.184661,1.285503,3.166871,3.005702,3.024719,1.295948,1.045709,3.789694,2.979303,5.26842,1.926171,1.599721,2.822642,2.882913,3.008865,1.720176,1.478521,2.731351,2.561086,2.817671,1.49664,1.193882,1.643475,2.255205,2.651295,1.803701,1.483861,2.392065,3.245217,5.792047,4.603348,1.232456,2.203392,2.149691,2.424891,1.510567,1.391581,2.145201,2.122765,4.511892,2.526247,1.252891,1.938296,1.93253,2.323307,1.987369,1.736746,3.531088,2.075612,2.520839,1.61858,2.099437,3.682768,3.261478,3.300635,1.859876,1.390954,2.329829,2.79838,3.342935,1.905201,2.119724,2.243557,2.027856,2.919164,1.707397
1763974595.643514,52751.0,0.0,4313.589844,4307.563965,4425.641113,4439.230957,4334.230957,4434.743652,4475.897461,4294.871582,4508.333496,4321.025879,4418.846191,4443.333496,4501.666504,4312.05127,4328.333496,4448.461426,4470.769043,4463.205078,4424.230957,4321.666504,4306.025879,4482.307617,4445.512695,4407.692383,4323.461426,4516.153809,4325.641113,4483.205078,4429.230957,4327.692383,4462.563965,4433.333496,2879.0,1.0,18.0,2048.0,53938.0,,,,0.0,4.0,4.0,4.0,4.0,4.0,4.0,4.0,4.0,4.0,4.0,4.0,4.0,4.0,4.0,4.0,4.0,4.0,4.0,4.0,4.0,4.0,4.0,4.0,4.0,4.0,4.0,4.0,4.0,4.0,4.0,4.0,4.0,100.0,,,,,,,,,,,,,,,,,,,,,,,,,,,,,,,,,,,,,,,,,,,,,,,,,,,,,,,,,,,,,,,,,,,,,,,,,,,,,,,,,,,,,,,,,,,,,,,,,,,,,,,,,,,,,,,,,,,,,,,,,,,,,,,,,,,,,,,,,,,,,,,,,,,,,,,,,,,,,,,,,,,,,,,,,,,,,,,,,,,,,,,,,,,,,,,,,,,,,,,,,,,,,,
1763974595.64742,52752.0,0.0,4283.717773,4275.0,4389.871582,4404.871582,4303.846191,4411.282227,4438.589844,4261.282227,4475.0,4294.743652,4378.333496,4410.0,4464.615234,4299.358887,4306.153809,4431.794922,4441.794922,4443.333496,4412.820313,4289.615234,4288.333496,4457.563965,4415.256348,4378.717773,4303.333496,4486.282227,4289.615234,4454.615234,4397.820313,4287.692383,4426.666504,4400.0,2967.0,1.0,18.0,2304.0,53946.0,,,,0.0,4.0,4.0,4.0,4.0,4.0,4.0,4.0,4.0,4.0,4.0,4.0,4.0,4.0,4.0,4.0,4.0,4.0,4.0,4.0,4.0,4.0,4.0,4.0,4.0,4.0,4.0,4.0,4.0,4.0,4.0,4.0,4.0,100.0,,,,,,,,,,,,,,,,,,,,,,,,,,,,,,,,,,,,,,,,,,,,,,,,,,,,,,,,,,,,,,,,,,,,,,,,,,,,,,,,,,,,,,,,,,,,,,,,,,,,,,,,,,,,,,,,,,,,,,,,,,,,,,,,,,,,,,,,,,,,,,,,,,,,,,,,,,,,,,,,,,,,,,,,,,,,,,,,,,,,,,,,,,,,,,,,,,,,,,,,,,,,,,
1763974595.651326,52753.0,0.0,4270.384766,4258.974121,4371.282227,4388.461426,4285.512695,4400.384766,4418.205078,4250.769043,4455.256348,4277.436035,4360.897461,4394.615234,4447.179688,4301.025879,4294.615234,4424.487305,4429.743652,4438.589844,4416.666504,4278.589844,4284.871582,4454.615234,4403.461426,4370.897461,4297.179688,4472.307617,4273.333496,4441.153809,4383.717773,4267.307617,4406.025879,4382.94873,3078.0,1.0,18.0,2304.0,53946.0,,,,0.0,4.0,4.0,4.0,4.0,4.0,4.0,4.0,4.0,4.0,4.0,4.0,4.0,4.0,4.0,4.0,4.0,4.0,4.0,4.0,4.0,4.0,4.0,4.0,4.0,4.0,4.0,4.0,4.0,4.0,4.0,4.0,4.0,100.0,,,,,,,,,,,,,,,,,,,,,,,,,,,,,,,,,,,45956.0,0.0,0.563306,0.319031,0.2453,0.721619,0.97131,-0.247589,0.006837,32.5,-22.0,-25.5,,,,,,,,,,,,,,,,,,,,,,,,,,,,,,,,,,,,,,,,,,,,,,,,,,,,,,,,,,,,,,,,,,,,,,,,,,,,,,,,,,,,,,,,,,,,,,,,,,,,,,,,,,,,,,,,,,,,,,,,,,,,,,,,,,,,,,,,,,,,,,,,,,,,,,,,,,,,,,,,
1763974595.655232,52754.0,0.0,4280.512695,4267.436035,4377.563965,4397.563965,4289.230957,4407.05127,4423.461426,4268.077148,4459.102539,4277.820313,4373.974121,4403.205078,4456.282227,4312.692383,4297.563965,4429.615234,4439.358887,4450.0,4431.410156,4290.769043,4293.717773,4473.461426,4415.256348,4388.077148,4306.410156,4479.743652,4284.487305,4449.230957,4393.589844,4276.666504,4411.025879,4389.615234,2849.0,1.0,18.0,2304.0,53953.0,,,,0.0,4.0,4.0,4.0,4.0,4.0,4.0,4.0,4.0,4.0,4.0,4.0,4.0,4.0,4.0,4.0,4.0,4.0,4.0,4.0,4.0,4.0,4.0,4.0,4.0,4.0,4.0,4.0,4.0,4.0,4.0,4.0,4.0,100.0,,,,,,,,,,,,,,,,,,,,,,,,,,,,,,,,,,,,,,,,,,,,,,,,,,,,,,,,,,,,,,,,,,,,,,,,,,,,,,,,,,,,,,,,,,,,,,,,,,,,,,,,,,,,,,,,,,,,,,,,,,,,,,,,,,,,,,,,,,,,,,,,,,,,,,,,,,,,,,,,,,,,,,,,,,,,,,,,,,,,,,,,,,,,,,,,,,,,,,,,,,,,,,
1763974595.659139,52755.0,0.0,4304.487305,4291.666504,4398.846191,4421.794922,4310.0,4424.743652,4445.512695,4298.461426,4481.025879,4294.230957,4403.717773,4425.384766,4481.153809,4324.487305,4308.589844,4441.922852,4460.897461,4468.077148,4446.794922,4313.717773,4304.358887,4499.743652,4440.769043,4417.563965,4321.666504,4499.102539,4311.410156,4472.179688,4419.358887,4305.512695,4433.205078,4411.538574,3023.0,1.0,18.0,2304.0,53953.0,,,,0.0,4.0,4.0,4.0,4.0,4.0,4.0,4.0,4.0,4.0,4.0,4.0,4.0,4.0,4.0,4.0,4.0,4.0,4.0,4.0,4.0,4.0,4.0,4.0,4.0,4.0,4.0,4.0,4.0,4.0,4.0,4.0,4.0,100.0,,,,,,,,,,,,,,,,,,,,,,,,,,,,,,,,,,,,,,,,,,,,,,,,,,,,,,,,,,,,,,,,,,,,,,,,,,,,,,,,,,,,,,,,,,,,,,,,,,,,,,,,,,,,,,,,,,,,,,,,,,,,,,,,,,,,,,,,,,,,,,,,,,,,,,,,,,,,,,,,,,,,,,,,,,,,,,,,,,,,,,,,,,,,,,,,,,,,,,,,,,,,,,
1763974595.663045,52756.0,0.0,4325.384766,4314.487305,4416.922852,4442.94873,4332.436035,4441.410156,4466.282227,4320.256348,4504.871582,4314.102539,4427.94873,4444.358887,4503.205078,4329.487305,4317.307617,4451.794922,4478.333496,4480.897461,4454.102539,4330.128418,4307.436035,4516.025879,4462.05127,4439.871582,4331.025879,4514.102539,4332.820313,4494.743652,4444.102539,4332.563965,4453.333496,4431.794922,3009.0,1.0,18.0,2048.0,53961.0,,,,0.0,4.0,4.0,4.0,4.0,4.0,4.0,4.0,4.0,4.0,4.0,4.0,4.0,4.0,4.0,4.0,4.0,4.0,4.0,4.0,4.0,4.0,4.0,4.0,4.0,4.0,4.0,4.0,4.0,4.0,4.0,4.0,4.0,100.0,,,,,,,,,,,,,,,,,,,,,,,,,,,,,,,,,,,,,,,,,,,,,,,,,,,,,,,,,,,,,,,,,,,,,,,,,,,,,,,,,,,,,,,,,,,,,,,,,,,,,,,,,,,,,,,,,,,,,,,,,,,,,,,,,,,,,,,,,,,,,,,,,,,,,,,,,,,,,,,,,,,,,,,,,,,,,,,,,,,,,,,,,,,,,,,,,,,,,,,,,,,,,,
1763974595.666951,52757.0,0.0,4331.538574,4323.077148,4421.282227,4449.487305,4343.205078,4448.846191,4473.589844,4321.666504,4516.153809,4321.922852,4432.563965,4449.615234,4510.256348,4329.871582,4318.461426,4453.717773,4481.922852,4483.333496,4452.692383,4331.410156,4302.692383,4514.615234,4467.94873,4443.077148,4328.974121,4515.512695,4335.0,4505.0,4454.743652,4341.922852,4458.077148,4438.205078,2960.0,1.0,18.0,2048.0,53961.0,,,,0.0,4.0,4.0,4.0,4.0,4.0,4.0,4.0,4.0,4.0,4.0,4.0,4.0,4.0,4.0,4.0,4.0,4.0,4.0,4.0,4.0,4.0,4.0,4.0,4.0,4.0,4.0,4.0,4.0,4.0,4.0,4.0,4.0,100.0,,,,,,,,,,,,,,,,,,,,,,,,,,,,,,,,,,,45957.0,0.0,0.563183,0.319336,0.245544,0.721497,0.964962,-0.242217,-0.006348,32.5,-22.0,-25.5,,,,,,,,,,,,,,,,,,,,,,,,,,,,,,,,,,,,,,,,,,,,,,,,,,,,,,,,,,,,,,,,,,,,,,,,,,,,,,,,,,,,,,,,,,,,,,,,,,,,,,,,,,,,,,,,,,,,,,,,,,,,,,,,,,,,,,,,,,,,,,,,,,,,,,,,,,,,,,,,
1763974595.670857,52758.0,0.0,4324.743652,4318.077148,4415.512695,4443.461426,4340.769043,4447.94873,4468.717773,4307.563965,4512.692383,4313.461426,4421.025879,4443.717773,4504.358887,4331.538574,4315.256348,4449.743652,4475.0,4479.230957,4449.230957,4322.820313,4298.846191,4502.05127,4460.641113,4430.0,4319.230957,4507.179688,4321.153809,4500.512695,4449.743652,4333.077148,4448.846191,4431.410156,2989.0,1.0,18.0,512.0,53969.0,,,,0.0,4.0,4.0,4.0,4.0,4.0,4.0,4.0,4.0,4.0,4.0,4.0,4.0,4.0,4.0,4.0,4.0,4.0,4.0,4.0,4.0,4.0,4.0,4.0,4.0,4.0,4.0,4.0,4.0,4.0,4.0,4.0,4.0,100.0,,,,,,,,,,,,,,,,,,,,,,,,,,,,,,,,,,,,,,,,,,,,,,,,,,,,,,,,,,,,,,,,,,,,,,,,,,,,,,,,,,,,,,,,,,,,,,,,,,,,,,,,,,,,,,,,,,,,,,,,,,,,,,,,,,,,,,,,,,,,,,,,,,,,,,,,,,,,,,,,,,,,,,,,,,,,,,,,,,,,,,,,,,,,,,,,,,,,,,,,,,,,,,
1763974595.674763,52759.0,0.0,4315.897461,4310.0,4412.05127,4436.538574,4333.717773,4445.512695,4462.820313,4293.974121,4504.102539,4298.846191,4409.358887,4437.692383,4497.307617,4337.307617,4315.128418,4446.538574,4468.974121,4476.922852,4451.922852,4317.436035,4305.128418,4491.922852,4451.922852,4414.230957,4310.0,4500.128418,4308.461426,4489.615234,4438.205078,4319.102539,4438.974121,4422.436035,2957.0,1.0,18.0,512.0,53969.0,,,,0.0,4.0,4.0,4.0,4.0,4.0,4.0,4.0,4.0,4.0,4.0,4.0,4.0,4.0,4.0,4.0,4.0,4.0,4.0,4.0,4.0,4.0,4.0,4.0,4.0,4.0,4.0,4.0,4.0,4.0,4.0,4.0,4.0,100.0,,,,,,,,,,,,,,,,,,,,,,,,,,,,,,,,,,,,,,,,,,,,,,,,,,,,,,,,,,,,,,,,,,,,,,,,,,,,,,,,,,,,,,,,,,,,,,,,,,,,,,,,,,,,,,,,,,,,,,,,,,,,,,,,,,,,,,,,,,,,,,,,,,,,,,,,,,,,,,,,,,,,,,,,,,,,,,,,,,,,,,,,,,,,,,,,,,,,,,,,,,,,,,
1763974595.678669,52760.0,0.0,4315.256348,4309.743652,4419.615234,4438.974121,4332.94873,4448.205078,4466.282227,4293.974121,4501.666504,4294.358887,4411.410156,4440.769043,4499.615234,4342.307617,4322.436035,4449.230957,4472.692383,4481.282227,4462.179688,4323.974121,4322.05127,4493.846191,4452.05127,4408.333496,4308.205078,4502.436035,4312.307617,4483.461426,4431.794922,4315.0,4440.641113,4422.820313,2914.0,1.0,18.0,256.0,53977.0,,,,0.0,4.0,4.0,4.0,4.0,4.0,4.0,4.0,4.0,4.0,4.0,4.0,4.0,4.0,4.0,4.0,4.0,4.0,4.0,4.0,4.0,4.0,4.0,4.0,4.0,4.0,4.0,4.0,4.0,4.0,4.0,4.0,4.0,100.0,,,,,,,,,,,,,,,,,,,,,,,,,,,,,,,,,,,,,,,,,,,,,,,,,,,,,,,,,,,,,,,,,,,,,,,,,,,,,,,,,,,,,,,,,,,,,,,,,,,,,,,,,,,,,,,,,,,,,,,,,,,,,,,,,,,,,,,,,,,,,,,,,,,,,,,,,,,,,,,,,,,,,,,,,,,,,,,,,,,,,,,,,,,,,,,,,,,,,,,,,,,,,,
1763974595.682575,52761.0,0.0,4323.717773,4318.846191,4436.410156,4452.179688,4341.025879,4456.410156,4479.743652,4308.589844,4509.487305,4308.461426,4429.358887,4453.205078,4512.179688,4340.384766,4335.256348,4456.794922,4485.512695,4490.128418,4473.717773,4340.256348,4340.512695,4506.282227,4462.436035,4415.128418,4315.384766,4512.94873,4332.563965,4487.307617,4436.282227,4325.384766,4455.384766,4435.256348,2869.0,1.0,18.0,256.0,53977.0,,,,0.0,4.0,4.0,4.0,4.0,4.0,4.0,4.0,4.0,4.0,4.0,4.0,4.0,4.0,4.0,4.0,4.0,4.0,4.0,4.0,4.0,4.0,4.0,4.0,4.0,4.0,4.0,4.0,4.0,4.0,4.0,4.0,4.0,100.0,,,,,,,,,,,,,,,,,,,,,,,,,,,,,,,,,,,45958.0,0.0,0.563078,0.319519,0.245728,0.721436,0.981077,-0.251984,0.004395,33.833332,-23.0,-26.666666,,,,,,,,,,,,,,,,,,,,,,,,,,,,,,,,,,,,,,,,,,,,,,,,,,,,,,,,,,,,,,,,,,,,,,,,,,,,,,,,,,,,,,,,,,,,,,,,,,,,,,,,,,,,,,,,,,,,,,,,,,,,,,,,,,,,,,,,,,,,,,,,,,,,,,,,,,,,,,,,
1763974595.686481,52762.0,0.0,4334.487305,4330.384766,4452.179688,4468.333496,4352.307617,4464.615234,4495.256348,4327.94873,4522.179688,4334.871582,4452.436035,4467.307617,4526.922852,4330.769043,4347.563965,4464.487305,4499.102539,4497.436035,4478.589844,4355.641113,4348.846191,4519.230957,4475.512695,4427.692383,4327.94873,4524.871582,4354.487305,4497.692383,4448.077148,4342.563965,4474.358887,4451.922852,2818.0,1.0,18.0,256.0,53985.0,,,,0.0,4.0,4.0,4.0,4.0,4.0,4.0,4.0,4.0,4.0,4.0,4.0,4.0,4.0,4.0,4.0,4.0,4.0,4.0,4.0,4.0,4.0,4.0,4.0,4.0,4.0,4.0,4.0,4.0,4.0,4.0,4.0,4.0,100.0,,,,,,,,,,,,,,,,,,,,,,,,,,,,,,,,,,,,,,,,,,,,,,,,,,,,,,,,,,,,,,,,,,,,,,,,,,,,,,,,,,,,,,,,,,,,,,,,,,,,,,,,,,,,,,,,,,,,,,,,,,,,,,,,,,,,,,,,,,,,,,,,,,,,,,,,,,,,,,,,,,,,,,,,,,,,,,,,,,,,,,,,,,,,,,,,,,,,,,,,,,,,,,
1763974595.690387,52763.0,0.0,4340.0,4336.153809,4457.05127,4477.179688,4358.461426,4467.179688,4503.589844,4340.0,4531.025879,4358.077148,4466.153809,4474.102539,4534.615234,4321.538574,4355.0,4467.94873,4505.384766,4498.846191,4474.230957,4360.128418,4342.307617,4524.230957,4482.94873,4437.05127,4340.897461,4531.153809,4361.153809,4507.307617,4459.230957,4353.974121,4486.153809,4462.307617,3030.0,1.0,18.0,256.0,53985.0,,,,0.0,4.0,4.0,4.0,4.0,4.0,4.0,4.0,4.0,4.0,4.0,4.0,4.0,4.0,4.0,4.0,4.0,4.0,4.0,4.0,4.0,4.0,4.0,4.0,4.0,4.0,4.0,4.0,4.0,4.0,4.0,4.0,4.0,100.0,,,,,,,,,,,,,,,,,,,,,,,,,,,,,,,,,,,,,,,,,,,,,,,,,,,,,,,,,,,,,,,,,,,,,,,,,,,,,,,,,,,,,,,,,,,,,,,,,,,,,,,,,,,,,,,,,,,,,,,,,,,,,,,,,,,,,,,,,,,,,,,,,,,,,,,,,,,,,,,,,,,,,,,,,,,,,,,,,,,,,,,,,,,,,,,,,,,,,,,,,,,,,,
1763974595.694192,52764.0,0.0,4338.077148,4333.589844,4448.974121,4474.102539,4356.282227,4462.94873,4501.282227,4338.461426,4530.128418,4365.0,4463.205078,4470.897461,4532.436035,4321.794922,4356.410156,4466.794922,4503.205078,4495.0,4466.025879,4352.05127,4326.794922,4521.538574,4481.666504,4439.743652,4349.871582,4530.256348,4348.461426,4511.538574,4463.461426,4352.820313,4485.769043,4460.256348,2948.0,1.0,18.0,256.0,53992.0,,,,0.0,4.0,4.0,4.0,4.0,4.0,4.0,4.0,4.0,4.0,4.0,4.0,4.0,4.0,4.0,4.0,4.0,4.0,4.0,4.0,4.0,4.0,4.0,4.0,4.0,4.0,4.0,4.0,4.0,4.0,4.0,4.0,4.0,100.0,,,,,,,,,,,,,,,,,,,,,,,,,,,,,,,,,,,,,,,,,,,,,,,,,,,,,,,,,,,,,,,,,,,,,,,,,,,,,,,,,,,,,,,,,,,,,,,,,,,,,,,,,,,,,,,,,,,,,,,,,,,,,,,,,,,,,,,,,,,,,,,,,,,,,,,,,,,,,,,,,,,,,,,,,,,,,,,,,,,,,,,,,,,,,,,,,,,,,,,,,,,,,,
1763974595.698098,52765.0,0.0,4332.563965,4327.179688,4434.871582,4462.563965,4348.717773,4456.153809,4492.820313,4325.769043,4521.025879,4354.615234,4447.05127,4462.563965,4524.615234,4333.333496,4353.205078,4463.717773,4497.94873,4489.743652,4462.05127,4337.94873,4312.94873,4517.820313,4475.897461,4438.846191,4353.589844,4524.743652,4327.692383,4510.641113,4460.897461,4342.436035,4476.282227,4448.461426,2860.0,1.0,18.0,256.0,53992.0,,,,0.0,4.0,4.0,4.0,4.0,4.0,4.0,4.0,4.0,4.0,4.0,4.0,4.0,4.0,4.0,4.0,4.0,4.0,4.0,4.0,4.0,4.0,4.0,4.0,4.0,4.0,4.0,4.0,4.0,4.0,4.0,4.0,4.0,100.0,,,,,,,,,,,,,,,,,,,,,,,,,,,,,,,,,,,45959.0,0.0,0.563016,0.31958,0.245789,0.721436,0.981565,-0.256867,0.009767,31.666666,-22.833334,-25.166666,,,,,,,,,,,,,,,,,,,,,,,,,,,,,,,,,,,,,,,,,,,,,,,,,,,,,,,,,,,,,,,,,,,,,,,,,,,,,,,,,,,,,,,,,,,,,,,,,,,,,,,,,,,,,,,,,,,,,,,,,,,,,,,,,,,,,,,,,,,,,,,,,,,,,,,,,,,,,,,,
1763974595.702104,52766.0,0.0,4328.974121,4322.436035,4424.743652,4450.512695,4341.922852,4451.666504,4485.641113,4309.358887,4509.871582,4337.563965,4428.077148,4456.025879,4517.692383,4347.94873,4347.563965,4461.794922,4495.512695,4486.922852,4465.897461,4327.692383,4308.846191,4518.205078,4471.794922,4438.461426,4353.077148,4519.871582,4315.256348,4507.692383,4455.641113,4331.153809,4465.256348,4434.743652,3013.0,1.0,18.0,512.0,54000.0,,,,0.0,4.0,4.0,4.0,4.0,4.0,4.0,4.0,4.0,4.0,4.0,4.0,4.0,4.0,4.0,4.0,4.0,4.0,4.0,4.0,4.0,4.0,4.0,4.0,4.0,4.0,4.0,4.0,4.0,4.0,4.0,4.0,4.0,100.0,,,,,,,,,,,,,,,,,,,,,,,,,,,,,,,,,,,,,,,,,,,,,,,,,,,,,,,,,,,,,,,,,,,,,,,,,,,,,,,,,,,,,,,,,,,,,,,,,,,,,,,,,,,,,,,,,,,,,,,,,,,,,,,,,,,,,,,,,,,,,,,,,,,,,,,,,,,,,,,,,,,,,,,,,,,,,,,,,,,,,,,,,,,,,,,,,,,,,,,,,,,,,,
1763974595.70601,52767.0,0.0,4329.615234,4322.05127,4424.743652,4444.230957,4339.358887,4451.794922,4483.974121,4297.05127,4502.94873,4327.179688,4415.769043,4455.0,4515.512695,4355.128418,4342.05127,4462.307617,4497.307617,4487.692383,4473.846191,4327.563965,4315.128418,4522.05127,4472.179688,4440.0,4350.384766,4518.846191,4319.230957,4505.128418,4451.794922,4325.897461,4458.589844,4427.563965,2931.0,1.0,18.0,512.0,54000.0,,,,0.0,4.0,4.0,4.0,4.0,4.0,4.0,4.0,4.0,4.0,4.0,4.0,4.0,4.0,4.0,4.0,4.0,4.0,4.0,4.0,4.0,4.0,4.0,4.0,4.0,4.0,4.0,4.0,4.0,4.0,4.0,4.0,4.0,100.0,,,,,,,,,,,,,,,,,,,,,,,,,,,,,,,,,,,,,,,,,,,,,,,,,,,,,,,,,,,,,,,,,,,,,,,,,,,,,,,,,,,,,,,,,,,,,,,,,,,,,,,,,,,,,,,,,,,,,,,,,,,,,,,,,,,,,,,,,,,,,,,,,,,,,,,,,,,,,,,,,,,,,,,,,,,,,,,,,,,,,,,,,,,,,,,,,,,,,,,,,,,,,,
1763974595.709916,52768.0,0.0,4332.563965,4324.615234,4433.077148,4445.641113,4341.025879,4454.615234,4486.153809,4293.205078,4503.461426,4329.871582,4413.589844,4458.205078,4517.436035,4351.410156,4339.230957,4464.871582,4500.256348,4490.897461,4478.846191,4337.05127,4325.512695,4524.487305,4474.871582,4440.897461,4347.820313,4521.794922,4333.461426,4503.589844,4450.897461,4327.94873,4457.436035,4430.128418,2867.0,1.0,18.0,768.0,54008.0,,,,0.0,4.0,4.0,4.0,4.0,4.0,4.0,4.0,4.0,4.0,4.0,4.0,4.0,4.0,4.0,4.0,4.0,4.0,4.0,4.0,4.0,4.0,4.0,4.0,4.0,4.0,4.0,4.0,4.0,4.0,4.0,4.0,4.0,100.0,,,,,,,,,,,,,,,,,,,,,,,,,,,,,,,,,,,,,,,,,,,,,,,,,,,,,,,,,,,,,,,,,,,,,,,,,,,,,,,,,,,,,,,,,,,,,,,,,,,,,,,,,,,,,,,,,,,,,,,,,,,,,,,,,,,,,,,,,,,,,,,,,,,,,,,,,,,,,,,,,,,,,,,,,,,,,,,,,,,,,,,,,,,,,,,,,,,,,,,,,,,,,,
1763974595.713822,52769.0,0.0,4333.846191,4326.794922,4441.794922,4452.05127,4343.846191,4456.922852,4487.436035,4298.077148,4509.102539,4341.282227,4419.230957,4461.794922,4520.641113,4342.05127,4340.384766,4468.205078,4500.128418,4495.0,4476.538574,4348.974121,4332.436035,4522.179688,4475.897461,4438.461426,4346.922852,4525.641113,4344.743652,4501.922852,4452.307617,4334.230957,4459.487305,4439.615234,2917.0,1.0,18.0,768.0,54008.0,,,,0.0,4.0,4.0,4.0,4.0,4.0,4.0,4.0,4.0,4.0,4.0,4.0,4.0,4.0,4.0,4.0,4.0,4.0,4.0,4.0,4.0,4.0,4.0,4.0,4.0,4.0,4.0,4.0,4.0,4.0,4.0,4.0,4.0,100.0,,,,,,,,,,,,,,,,,,,,,,,,,,,,,,,,,,,45960.0,0.0,0.56307,0.31958,0.245667,0.721436,0.982053,-0.234404,-0.024417,33.666668,-21.166666,-27.166666,,,,,,,,,,,,,,,,,,,,,,,,,,,,,,,,,,,,,,,,,,,,,,,,,,,,,,,,,,,,,,,,,,,,,,,,,,,,,,,,,,,,,,,,,,,,,,,,,,,,,,,,,,,,,,,,,,,,,,,,,,,,,,,,,,,,,,,,,,,,,,,,,,,,,,,,,,,,,,,,
1763974595.717728,52770.0,0.0,4330.769043,4326.794922,4444.102539,4458.846191,4345.769043,4457.05127,4485.769043,4308.077148,4515.0,4350.897461,4426.922852,4463.077148,4522.820313,4335.384766,4343.974121,4471.153809,4495.769043,4497.692383,4468.205078,4355.384766,4332.179688,4516.025879,4473.589844,4432.820313,4347.05127,4527.05127,4343.717773,4499.102539,4453.846191,4339.743652,4461.922852,4448.974121,2288.0,1.0,18.0,1024.0,54016.0,,,,0.0,4.0,4.0,4.0,4.0,4.0,4.0,4.0,4.0,4.0,4.0,4.0,4.0,4.0,4.0,4.0,4.0,4.0,4.0,4.0,4.0,4.0,4.0,4.0,4.0,4.0,4.0,4.0,4.0,4.0,4.0,4.0,4.0,100.0,,,,,,,,,,,,,,,,,,,,,,,,,,,,,,,,,,,,,,,,,,,,,,,,,,,,,,,,,,,,,,,,,,,,,,,,,,,,,,,,,,,,,,,,,,,,,,,,,,,,,,,,,,,,,,,,,,,,,,,,,,,,,,,,,,,,,,,,,,,,,,,,,,,,,,,,,,,,,,,,,,,,,,,,,,,,,,,,,,,,,,,,,,,,,,,,,,,,,,,,,,,,,,
1763974595.721634,52771.0,0.0,4324.871582,4325.0,4439.487305,4462.563965,4347.179688,4455.384766,4483.077148,4318.077148,4516.410156,4351.282227,4431.794922,4461.666504,4523.461426,4335.897461,4346.666504,4472.436035,4490.128418,4496.922852,4457.94873,4353.589844,4326.153809,4509.871582,4469.487305,4427.563965,4344.615234,4525.384766,4332.436035,4495.769043,4454.487305,4341.922852,4463.077148,4451.922852,2986.0,1.0,18.0,1024.0,54016.0,,,,0.0,4.0,4.0,4.0,4.0,4.0,4.0,4.0,4.0,4.0,4.0,4.0,4.0,4.0,4.0,4.0,4.0,4.0,4.0,4.0,4.0,4.0,4.0,4.0,4.0,4.0,4.0,4.0,4.0,4.0,4.0,4.0,4.0,100.0,,,,,,,,,,,,,,,,,,,,,,,,,,,,,,,,,,,,,,,,,,,,,,,,,,,,,,,,,,,,,,,,,,,,,,,,,,,,,,,,,,,,,,,,,,,,,,,,,,,,,,,,,,,,,,,,,,,,,,,,,,,,,,,,,,,,,,,,,,,,,,,,,,,,,,,,,,,,,,,,,,,,,,,,,,,,,,,,,,,,,,,,,,,,,,,,,,,,,,,,,,,,,,
1763974595.72554,52772.0,0.0,4320.512695,4323.846191,4432.692383,4463.846191,4349.230957,4454.358887,4482.820313,4325.384766,4513.333496,4343.461426,4432.94873,4459.615234,4524.102539,4341.153809,4346.922852,4470.769043,4487.05127,4491.666504,4449.102539,4346.666504,4318.589844,4506.922852,4467.05127,4425.769043,4336.153809,4522.307617,4321.410156,4493.461426,4453.846191,4341.153809,4463.333496,4447.307617,2897.0,1.0,18.0,1280.0,54024.0,,,,0.0,4.0,4.0,4.0,4.0,4.0,4.0,4.0,4.0,4.0,4.0,4.0,4.0,4.0,4.0,4.0,4.0,4.0,4.0,4.0,4.0,4.0,4.0,4.0,4.0,4.0,4.0,4.0,4.0,4.0,4.0,4.0,4.0,100.0,,,,,,,,,,,,,,,,,,,,,,,,,,,,,,,,,,,,,,,,,,,,,,,,,,,,,,,,,,,,,,,,,,,,,,,,,,,,,,,,,,,,,,,,,,,,,,,,,,,,,,,,,,,,,,,,,,,,,,,,,,,,,,,,,,,,,,,,,,,,,,,,,,,,,,,,,,,,,,,,,,,,,,,,,,,,,,,,,,,,,,,,,,,,,,,,,,,,,,,,,,,,,,
1763974595.729446,52773.0,0.0,4321.282227,4324.615234,4429.230957,4466.153809,4352.179688,4455.641113,4486.538574,4330.256348,4509.615234,4334.230957,4433.333496,4458.974121,4525.641113,4345.0,4346.538574,4466.282227,4488.077148,4483.461426,4442.563965,4341.153809,4314.358887,4506.794922,4467.820313,4426.666504,4321.666504,4519.743652,4320.384766,4493.717773,4453.333496,4339.871582,4463.461426,4439.743652,2479.0,1.0,18.0,1280.0,54024.0,,,,0.0,4.0,4.0,4.0,4.0,4.0,4.0,4.0,4.0,4.0,4.0,4.0,4.0,4.0,4.0,4.0,4.0,4.0,4.0,4.0,4.0,4.0,4.0,4.0,4.0,4.0,4.0,4.0,4.0,4.0,4.0,4.0,4.0,100.0,,,,,,,,,,,,,,,,,,,,,,,,,,,,,,,,,,,45961.0,0.0,0.563192,0.319458,0.245544,0.721436,0.964473,-0.252472,-0.010255,32.833332,-21.666666,-27.666666,,,,,,,,,,,,,,,,,,,,,,,,,,,,,,,,,,,,,,,,,,,,,,,,,,,,,,,,,,,,,,,,,,,,,,,,,,,,,,,,,,,,,,,,,,,,,,,,,,,,,,,,,,,,,,,,,,,,,,,,,,,,,,,,,,,,,,,,,,,,,,,,,,,,,,,,,,,,,,,,
1763974595.733352,52774.0,0.0,4327.05127,4327.436035,4431.153809,4471.666504,4355.128418,4458.974121,4492.692383,4334.871582,4508.974121,4329.615234,4435.512695,4460.641113,4527.307617,4344.487305,4348.205078,4461.410156,4491.666504,4476.794922,4439.871582,4341.282227,4316.922852,4506.410156,4470.384766,4426.410156,4306.153809,4518.333496,4330.897461,4495.897461,4453.461426,4339.615234,4464.358887,4435.641113,2999.0,1.0,18.0,1536.0,54032.0,,,,0.0,4.0,4.0,4.0,4.0,4.0,4.0,4.0,4.0,4.0,4.0,4.0,4.0,4.0,4.0,4.0,4.0,4.0,4.0,4.0,4.0,4.0,4.0,4.0,4.0,4.0,4.0,4.0,4.0,4.0,4.0,4.0,4.0,100.0,,,,,,,,,,,,,,,,,,,,,,,,,,,,,,,,,,,,,,,,,,,,,,,,,,,,,,,,,,,,,,,,,,,,,,,,,,,,,,,,,,,,,,,,,,,,,,,,,,,,,,,,,,,,,,,,,,,,,,,,,,,,,,,,,,,,,,,,,,,,,,,,,,,,,,,,,,,,,,,,,,,,,,,,,,,,,,,,,,,,,,,,,,,,,,,,,,,,,,,,,,,,,,
1763974595.737258,52775.0,0.0,4333.846191,4331.538574,4436.794922,4479.230957,4357.563965,4463.461426,4497.563965,4339.230957,4512.307617,4329.743652,4439.230957,4464.230957,4528.461426,4342.05127,4352.05127,4460.256348,4495.512695,4477.307617,4445.256348,4346.282227,4326.666504,4504.358887,4471.922852,4422.820313,4298.717773,4517.820313,4345.769043,4498.717773,4455.0,4341.025879,4465.128418,4438.974121,2986.0,1.0,18.0,1536.0,54032.0,,,,0.0,4.0,4.0,4.0,4.0,4.0,4.0,4.0,4.0,4.0,4.0,4.0,4.0,4.0,4.0,4.0,4.0,4.0,4.0,4.0,4.0,4.0,4.0,4.0,4.0,4.0,4.0,4.0,4.0,4.0,4.0,4.0,4.0,100.0,,,,,,,,,,,,,,,,,,,,,,,,,,,,,,,,,,,,,,,,,,,,,,,,,,,,,,,,,,,,,,,,,,,,,,,,,,,,,,,,,,,,,,,,,,,,,,,,,,,,,,,,,,,,,,,,,,,,,,,,,,,,,,,,,,,,,,,,,,,,,,,,,,,,,,,,,,,,,,,,,,,,,,,,,,,,,,,,,,,,,,,,,,,,,,,,,,,,,,,,,,,,,,
1763974595.741164,52776.0,0.0,4338.333496,4337.307617,4443.589844,4485.384766,4360.384766,4468.205078,4499.358887,4341.794922,4517.436035,4331.922852,4442.563965,4468.974121,4529.358887,4343.846191,4355.641113,4465.641113,4498.717773,4487.05127,4462.05127,4351.538574,4340.769043,4504.230957,4472.94873,4418.717773,4307.692383,4518.846191,4356.025879,4501.794922,4458.205078,4343.717773,4465.384766,4449.230957,2700.0,1.0,18.0,1792.0,54039.0,,,,0.0,4.0,4.0,4.0,4.0,4.0,4.0,4.0,4.0,4.0,4.0,4.0,4.0,4.0,4.0,4.0,4.0,4.0,4.0,4.0,4.0,4.0,4.0,4.0,4.0,4.0,4.0,4.0,4.0,4.0,4.0,4.0,4.0,100.0,,,,,,,,,,,,,,,,,,,,,,,,,,,,,,,,,,,,,,,,,,,,,,,,,,,,,,,,,,,,,,,,,,,,,,,,,,,,,,,,,,,,,,,,,,,,,,,,,,,,,,,,,,,,,,,,,,,,,,,,,,,,,,,,,,,,,,,,,,,,,,,,,,,,,,,,,,,,,,,,,,,,,,,,,,,,,,,,,,,,,,,,,,,,,,,,,,,,,,,,,,,,,,
1763974595.74507,52777.0,0.0,4340.897461,4345.0,4450.0,4487.563965,4365.384766,4473.333496,4499.871582,4341.282227,4522.436035,4334.743652,4446.153809,4474.871582,4532.05127,4352.436035,4356.666504,4476.410156,4502.94873,4502.563965,4486.794922,4353.205078,4353.717773,4511.922852,4476.922852,4420.897461,4333.461426,4522.692383,4357.563965,4506.282227,4463.974121,4348.077148,4466.282227,4462.94873,2862.0,1.0,18.0,1792.0,54039.0,,,,0.0,4.0,4.0,4.0,4.0,4.0,4.0,4.0,4.0,4.0,4.0,4.0,4.0,4.0,4.0,4.0,4.0,4.0,4.0,4.0,4.0,4.0,4.0,4.0,4.0,4.0,4.0,4.0,4.0,4.0,4.0,4.0,4.0,100.0,,,,,,,,,,,,,,,,,,,,,,,,,,,,,,,,,,,45962.0,0.0,0.56314,0.319458,0.245483,0.721497,0.964473,-0.252472,-0.010255,31.833334,-23.833334,-26.666666,,,,,,,,,,,,,,,,,,,,,,,,,,,,,,,,,,,,,,,,,,,,,,,,,,,,,,,,,,,,,,,,,,,,,,,,,,,,,,,,,,,,,,,,,,,,,,,,,,,,,,,,,,,,,,,,,,,,,,,,,,,,,,,,,,,,,,,,,,,,,,,,,,,,,,,,,,,,,,,,
1763974595.748976,52778.0,0.0,4342.94873,4353.717773,4455.0,4485.384766,4372.05127,4478.205078,4502.307617,4339.615234,4526.410156,4339.487305,4452.820313,4481.025879,4537.05127,4363.077148,4355.128418,4488.077148,4509.230957,4516.025879,4507.94873,4351.410156,4359.871582,4527.94873,4485.641113,4433.205078,4365.256348,4529.871582,4353.589844,4513.461426,4472.05127,4353.717773,4469.871582,4474.615234,2706.0,1.0,18.0,2048.0,54047.0,,,,0.0,4.0,4.0,4.0,4.0,4.0,4.0,4.0,4.0,4.0,4.0,4.0,4.0,4.0,4.0,4.0,4.0,4.0,4.0,4.0,4.0,4.0,4.0,4.0,4.0,4.0,4.0,4.0,4.0,4.0,4.0,4.0,4.0,100.0,,,,,,,,,,,,,,,,,,,,,,,,,,,,,,,,,,,,,,,,,,,,,,,,,,,,,,,,,,,,,,,,,,,,,,,,,,,,,,,,,,,,,,,,,,,,,,,,,,,,,,,,,,,,,,,,,,,,,,,,,,,,,,,,,,,,,,,,,,,,,,,,,,,,,,,,,,,,,,,,,,,,,,,,,,,,,,,,,,,,,,,,,,,,,,,,,,,,,,,,,,,,,,
1763974595.752882,52779.0,0.0,4343.974121,4358.974121,4457.563965,4480.0,4376.538574,4480.641113,4506.538574,4339.230957,4529.358887,4346.794922,4463.077148,4484.871582,4542.05127,4366.922852,4352.820313,4493.974121,4515.384766,4519.743652,4511.153809,4348.974121,4355.512695,4544.102539,4495.128418,4451.153809,4387.307617,4538.077148,4350.384766,4521.025879,4479.230957,4358.205078,4476.153809,4478.205078,3006.0,1.0,18.0,2048.0,54047.0,,,,0.0,4.0,4.0,4.0,4.0,4.0,4.0,4.0,4.0,4.0,4.0,4.0,4.0,4.0,4.0,4.0,4.0,4.0,4.0,4.0,4.0,4.0,4.0,4.0,4.0,4.0,4.0,4.0,4.0,4.0,4.0,4.0,4.0,100.0,,,,,,,,,,,,,,,,,,,,,,,,,,,,,,,,,,,,,,,,,,,,,,,,,,,,,,,,,,,,,,,,,,,,,,,,,,,,,,,,,,,,,,,,,,,,,,,,,,,,,,,,,,,,,,,,,,,,,,,,,,,,,,,,,,,,,,,,,,,,,,,,,,,,,,,,,,,,,,,,,,,,,,,,,,,,,,,,,,,,,,,,,,,,,,,,,,,,,,,,,,,,,,
1763974595.756788,52780.0,0.0,4341.153809,4356.666504,4456.282227,4472.94873,4374.358887,4478.589844,4508.974121,4340.897461,4530.897461,4354.615234,4473.077148,4483.717773,4543.077148,4358.846191,4350.897461,4489.871582,4516.922852,4510.512695,4491.922852,4347.563965,4342.307617,4548.717773,4497.820313,4464.358887,4389.615234,4542.563965,4350.128418,4523.717773,4480.897461,4357.563965,4482.05127,4470.641113,2970.0,1.0,18.0,2304.0,54055.0,,,,0.0,4.0,4.0,4.0,4.0,4.0,4.0,4.0,4.0,4.0,4.0,4.0,4.0,4.0,4.0,4.0,4.0,4.0,4.0,4.0,4.0,4.0,4.0,4.0,4.0,4.0,4.0,4.0,4.0,4.0,4.0,4.0,4.0,100.0,,,,,,,,,,,,,,,,,,,,,,,,,,,,,,,,,,,,,,,,,,,,,,,,,,,,,,,,,,,,,,,,,,,,,,,,,,,,,,,,,,,,,,,,,,,,,,,,,,,,,,,,,,,,,,,,,,,,,,,,,,,,,,,,,,,,,,,,,,,,,,,,,,,,,,,,,,,,,,,,,,,,,,,,,,,,,,,,,,,,,,,,,,,,,,,,,,,,,,,,,,,,,,
1763974595.760694,52781.0,0.0,4333.205078,4346.153809,4450.897461,4466.025879,4365.256348,4472.436035,4505.769043,4342.307617,4530.897461,4359.230957,4476.794922,4477.05127,4538.461426,4343.333496,4349.358887,4477.436035,4511.282227,4493.846191,4460.128418,4346.538574,4326.538574,4537.179688,4489.743652,4463.846191,4375.256348,4540.384766,4349.615234,4517.94873,4474.871582,4350.0,4482.436035,4455.0,2799.0,1.0,18.0,2304.0,54055.0,,,,0.0,4.0,4.0,4.0,4.0,4.0,4.0,4.0,4.0,4.0,4.0,4.0,4.0,4.0,4.0,4.0,4.0,4.0,4.0,4.0,4.0,4.0,4.0,4.0,4.0,4.0,4.0,4.0,4.0,4.0,4.0,4.0,4.0,100.0,,,,,,,,,,,,,,,,,,,,,,,,,,,,,,,,,,,45963.0,0.0,0.562885,0.319946,0.245972,0.721313,0.975217,-0.249054,-0.002442,32.833332,-24.0,-25.5,,,,,,,,,,,,,,,,,,,,,,,,,,,,,,,,,,,,,,,,,,,,,,,,,,,,,,,,,,,,,,,,,,,,,,,,,,,,,,,,,,,,,,,,,,,,,,,,,,,,,,,,,,,,,,,,,,,,,,,,,,,,,,,,,,,,,,,,,,,,,,,,,,,,,,,,,,,,,,,,
1763974595.7646,52782.0,0.0,4323.077148,4333.077148,4443.205078,4461.153809,4353.717773,4465.641113,4497.692383,4339.871582,4529.102539,4358.333496,4471.410156,4467.307617,4530.512695,4331.282227,4347.692383,4464.743652,4501.410156,4480.641113,4434.615234,4343.077148,4316.282227,4516.153809,4475.256348,4449.871582,4355.0,4531.922852,4344.358887,4505.641113,4463.974121,4338.589844,4475.512695,4440.384766,2747.0,1.0,18.0,2560.0,54063.0,,,,0.0,4.0,4.0,4.0,4.0,4.0,4.0,4.0,4.0,4.0,4.0,4.0,4.0,4.0,4.0,4.0,4.0,4.0,4.0,4.0,4.0,4.0,4.0,4.0,4.0,4.0,4.0,4.0,4.0,4.0,4.0,4.0,4.0,100.0,,,,,,,,,,,,,,,,,,,,,,,,,,,,,,,,,,,,,,,,,,,,,,,2.272611,3.340699,2.846483,2.309009,1.316451,1.823393,4.841374,3.267247,2.559939,1.228048,1.50988,3.978449,1.939736,2.79535,1.394601,1.642562,1.926392,1.505575,4.067055,1.729099,1.241592,3.22699,2.31703,1.790914,1.198451,1.083411,1.872374,1.604115,1.678296,0.954956,1.506168,2.493693,2.451834,3.166626,2.03897,1.465598,2.160335,2.021067,3.501974,2.524688,1.106595,1.671413,1.354368,1.903051,1.628349,0.654461,2.451355,7.635062,5.475419,4.27002,1.422245,1.796601,3.960857,3.902637,3.831287,0.928531,2.721332,2.418369,2.569323,1.317499,1.21112,2.076177,3.034872,2.876824,1.751525,0.866828,2.314556,1.875466,1.612449,3.31189,0.797365,1.132063,1.348453,1.461945,0.88124,0.695874,2.3541,2.816525,2.231639,1.63998,1.064276,2.427734,2.233187,2.543575,1.049854,0.682441,2.813294,2.85722,2.620268,1.341072,1.18233,4.202247,4.170438,4.768154,3.338912,1.287113,3.350277,3.012325,2.78431,1.176888,0.728873,3.574805,3.17149,5.041863,1.876648,1.391559,2.678964,2.606835,3.176265,1.629544,1.402263,2.68856,2.511017,2.765211,1.431368,1.23408,1.427669,2.228485,2.901978,1.794288,1.372349,2.553022,3.777271,6.17586,4.339066,1.121293,2.295402,2.328628,2.368607,1.405413,1.362598,2.134559,2.435798,4.016781,2.328561,1.13318,1.874161,1.713345,2.102644,1.880085,1.86708,3.617218,2.048597,2.320659,1.518841,2.09154,3.700184,3.22547,2.984748,1.723452,1.369735,2.491791,2.995005,3.273662,1.900801,1.952292,2.400923,2.084662,2.713715,1.630177
1763974595.768506,52783.0,0.0,4316.794922,4325.384766,4436.153809,4460.0,4346.282227,4462.307617,4489.487305,4332.820313,4526.282227,4352.820313,4459.615234,4459.743652,4523.589844,4331.922852,4347.179688,4461.153809,4493.717773,4479.615234,4430.0,4336.922852,4316.538574,4499.487305,4463.461426,4431.410156,4338.333496,4521.794922,4335.384766,4494.230957,4454.871582,4330.128418,4465.256348,4435.128418,2866.0,1.0,18.0,2560.0,54063.0,,,,0.0,4.0,4.0,4.0,4.0,4.0,4.0,4.0,4.0,4.0,4.0,4.0,4.0,4.0,4.0,4.0,4.0,4.0,4.0,4.0,4.0,4.0,4.0,4.0,4.0,4.0,4.0,4.0,4.0,4.0,4.0,4.0,4.0,100.0,,,,,,,,,,,,,,,,,,,,,,,,,,,,,,,,,,,,,,,,,,,,,,,,,,,,,,,,,,,,,,,,,,,,,,,,,,,,,,,,,,,,,,,,,,,,,,,,,,,,,,,,,,,,,,,,,,,,,,,,,,,,,,,,,,,,,,,,,,,,,,,,,,,,,,,,,,,,,,,,,,,,,,,,,,,,,,,,,,,,,,,,,,,,,,,,,,,,,,,,,,,,,,
1763974595.772412,52784.0,0.0,4318.717773,4327.563965,4433.461426,4462.94873,4347.179688,4464.487305,4486.794922,4325.0,4523.717773,4346.153809,4448.333496,4458.589844,4522.563965,4346.153809,4349.743652,4471.025879,4493.333496,4491.666504,4447.179688,4332.307617,4327.563965,4498.333496,4462.307617,4420.512695,4329.743652,4516.282227,4329.102539,4491.794922,4453.974121,4330.769043,4459.230957,4441.282227,2965.0,1.0,18.0,2560.0,54071.0,,,,0.0,4.0,4.0,4.0,4.0,4.0,4.0,4.0,4.0,4.0,4.0,4.0,4.0,4.0,4.0,4.0,4.0,4.0,4.0,4.0,4.0,4.0,4.0,4.0,4.0,4.0,4.0,4.0,4.0,4.0,4.0,4.0,4.0,100.0,,,,,,,,,,,,,,,,,,,,,,,,,,,,,,,,,,,,,,,,,,,,,,,,,,,,,,,,,,,,,,,,,,,,,,,,,,,,,,,,,,,,,,,,,,,,,,,,,,,,,,,,,,,,,,,,,,,,,,,,,,,,,,,,,,,,,,,,,,,,,,,,,,,,,,,,,,,,,,,,,,,,,,,,,,,,,,,,,,,,,,,,,,,,,,,,,,,,,,,,,,,,,,
1763974595.776318,52785.0,0.0,4328.589844,4337.692383,4436.538574,4469.102539,4355.256348,4470.897461,4491.538574,4323.077148,4522.563965,4341.025879,4444.102539,4464.743652,4528.846191,4365.0,4356.025879,4489.230957,4500.384766,4509.743652,4473.974121,4334.358887,4344.743652,4513.205078,4472.692383,4423.077148,4328.589844,4518.974121,4332.563965,4500.897461,4462.563965,4340.641113,4462.94873,4453.077148,3072.0,1.0,18.0,2560.0,54071.0,,,,0.0,4.0,4.0,4.0,4.0,4.0,4.0,4.0,4.0,4.0,4.0,4.0,4.0,4.0,4.0,4.0,4.0,4.0,4.0,4.0,4.0,4.0,4.0,4.0,4.0,4.0,4.0,4.0,4.0,4.0,4.0,4.0,4.0,100.0,,,,,,,,,,,,,,,,,,,,,,,,,,,,,,,,,,,45964.0,0.0,0.56263,0.320068,0.246216,0.721375,0.975705,-0.265169,0.002442,32.833332,-22.5,-27.666666,,,,,,,,,,,,,,,,,,,,,,,,,,,,,,,,,,,,,,,,,,,,,,,,,,,,,,,,,,,,,,,,,,,,,,,,,,,,,,,,,,,,,,,,,,,,,,,,,,,,,,,,,,,,,,,,,,,,,,,,,,,,,,,,,,,,,,,,,,,,,,,,,,,,,,,,,,,,,,,,
1763974595.780224,52786.0,0.0,4340.0,4348.461426,4442.692383,4475.128418,4365.128418,4476.794922,4500.128418,4329.743652,4522.94873,4338.077148,4448.333496,4473.717773,4538.589844,4376.666504,4363.589844,4504.615234,4509.871582,4522.94873,4494.871582,4342.94873,4359.615234,4533.717773,4487.307617,4434.871582,4332.05127,4528.077148,4345.128418,4515.769043,4475.0,4352.692383,4474.615234,4460.769043,2844.0,1.0,18.0,2048.0,54078.0,,,,0.0,4.0,4.0,4.0,4.0,4.0,4.0,4.0,4.0,4.0,4.0,4.0,4.0,4.0,4.0,4.0,4.0,4.0,4.0,4.0,4.0,4.0,4.0,4.0,4.0,4.0,4.0,4.0,4.0,4.0,4.0,4.0,4.0,100.0,,,,,,,,,,,,,,,,,,,,,,,,,,,,,,,,,,,,,,,,,,,,,,,,,,,,,,,,,,,,,,,,,,,,,,,,,,,,,,,,,,,,,,,,,,,,,,,,,,,,,,,,,,,,,,,,,,,,,,,,,,,,,,,,,,,,,,,,,,,,,,,,,,,,,,,,,,,,,,,,,,,,,,,,,,,,,,,,,,,,,,,,,,,,,,,,,,,,,,,,,,,,,,
1763974595.78413,52787.0,0.0,4345.128418,4352.179688,4447.05127,4477.436035,4370.641113,4477.820313,4504.871582,4341.153809,4523.589844,4338.205078,4456.025879,4478.333496,4544.615234,4373.846191,4367.563965,4506.922852,4515.0,4524.487305,4500.897461,4352.05127,4364.487305,4546.922852,4496.666504,4446.025879,4336.666504,4537.436035,4359.487305,4527.436035,4482.563965,4357.94873,4486.410156,4459.102539,3029.0,1.0,18.0,2048.0,54078.0,,,,0.0,4.0,4.0,4.0,4.0,4.0,4.0,4.0,4.0,4.0,4.0,4.0,4.0,4.0,4.0,4.0,4.0,4.0,4.0,4.0,4.0,4.0,4.0,4.0,4.0,4.0,4.0,4.0,4.0,4.0,4.0,4.0,4.0,100.0,,,,,,,,,,,,,,,,,,,,,,,,,,,,,,,,,,,,,,,,,,,,,,,,,,,,,,,,,,,,,,,,,,,,,,,,,,,,,,,,,,,,,,,,,,,,,,,,,,,,,,,,,,,,,,,,,,,,,,,,,,,,,,,,,,,,,,,,,,,,,,,,,,,,,,,,,,,,,,,,,,,,,,,,,,,,,,,,,,,,,,,,,,,,,,,,,,,,,,,,,,,,,,
1763974595.788036,52788.0,0.0,4340.641113,4346.410156,4446.538574,4475.0,4369.358887,4473.333496,4501.538574,4348.974121,4522.820313,4343.333496,4460.384766,4475.0,4542.820313,4359.743652,4365.384766,4494.487305,4512.94873,4515.384766,4495.128418,4354.358887,4357.307617,4546.922852,4496.153809,4450.256348,4341.922852,4541.282227,4367.307617,4529.743652,4480.897461,4352.820313,4490.769043,4450.0,3008.0,1.0,18.0,1280.0,54086.0,,,,0.0,4.0,4.0,4.0,4.0,4.0,4.0,4.0,4.0,4.0,4.0,4.0,4.0,4.0,4.0,4.0,4.0,4.0,4.0,4.0,4.0,4.0,4.0,4.0,4.0,4.0,4.0,4.0,4.0,4.0,4.0,4.0,4.0,100.0,,,,,,,,,,,,,,,,,,,,,,,,,,,,,,,,,,,,,,,,,,,,,,,,,,,,,,,,,,,,,,,,,,,,,,,,,,,,,,,,,,,,,,,,,,,,,,,,,,,,,,,,,,,,,,,,,,,,,,,,,,,,,,,,,,,,,,,,,,,,,,,,,,,,,,,,,,,,,,,,,,,,,,,,,,,,,,,,,,,,,,,,,,,,,,,,,,,,,,,,,,,,,,
1763974595.791942,52789.0,0.0,4331.153809,4336.025879,4442.820313,4470.897461,4364.487305,4467.307617,4493.846191,4347.436035,4521.410156,4354.871582,4458.717773,4467.436035,4536.282227,4345.512695,4358.974121,4475.128418,4507.05127,4503.717773,4487.692383,4348.974121,4344.102539,4538.589844,4489.871582,4449.102539,4349.230957,4539.102539,4366.794922,4524.230957,4473.205078,4342.05127,4486.410156,4441.025879,2950.0,1.0,18.0,1280.0,54086.0,,,,0.0,4.0,4.0,4.0,4.0,4.0,4.0,4.0,4.0,4.0,4.0,4.0,4.0,4.0,4.0,4.0,4.0,4.0,4.0,4.0,4.0,4.0,4.0,4.0,4.0,4.0,4.0,4.0,4.0,4.0,4.0,4.0,4.0,100.0,,,,,,,,,,,,,,,,,,,,,,,,,,,,,,,,,,,45965.0,0.0,0.562605,0.319885,0.246155,0.721497,0.975705,-0.265169,0.002442,32.5,-22.0,-27.166666,,,,,,,,,,,,,,,,,,,,,,,,,,,,,,,,,,,,,,,,,,,,,,,,,,,,,,,,,,,,,,,,,,,,,,,,,,,,,,,,,,,,,,,,,,,,,,,,,,,,,,,,,,,,,,,,,,,,,,,,,,,,,,,,,,,,,,,,,,,,,,,,,,,,,,,,,,,,,,,,
1763974595.795848,52790.0,0.0,4325.769043,4328.974121,4440.0,4469.230957,4361.410156,4465.128418,4490.128418,4338.589844,4520.769043,4367.692383,4454.871582,4463.077148,4532.563965,4342.307617,4354.615234,4461.794922,4503.333496,4498.205078,4486.282227,4342.307617,4335.0,4531.410156,4485.769043,4448.205078,4358.717773,4535.0,4362.820313,4516.922852,4466.282227,4335.384766,4478.974121,4438.205078,2993.0,1.0,18.0,256.0,54094.0,,,,0.0,4.0,4.0,4.0,4.0,4.0,4.0,4.0,4.0,4.0,4.0,4.0,4.0,4.0,4.0,4.0,4.0,4.0,4.0,4.0,4.0,4.0,4.0,4.0,4.0,4.0,4.0,4.0,4.0,4.0,4.0,4.0,4.0,100.0,,,,,,,,,,,,,,,,,,,,,,,,,,,,,,,,,,,,,,,,,,,,,,,,,,,,,,,,,,,,,,,,,,,,,,,,,,,,,,,,,,,,,,,,,,,,,,,,,,,,,,,,,,,,,,,,,,,,,,,,,,,,,,,,,,,,,,,,,,,,,,,,,,,,,,,,,,,,,,,,,,,,,,,,,,,,,,,,,,,,,,,,,,,,,,,,,,,,,,,,,,,,,,
1763974595.799754,52791.0,0.0,4329.743652,4329.871582,4440.128418,4471.922852,4363.205078,4468.333496,4495.769043,4330.256348,4521.282227,4372.436035,4454.102539,4466.410156,4536.538574,4353.974121,4356.922852,4461.794922,4505.0,4501.282227,4489.743652,4341.282227,4337.05127,4531.538574,4487.820313,4450.384766,4367.436035,4533.077148,4360.512695,4512.94873,4464.230957,4337.820313,4474.230957,4441.666504,2966.0,1.0,18.0,256.0,54094.0,,,,0.0,4.0,4.0,4.0,4.0,4.0,4.0,4.0,4.0,4.0,4.0,4.0,4.0,4.0,4.0,4.0,4.0,4.0,4.0,4.0,4.0,4.0,4.0,4.0,4.0,4.0,4.0,4.0,4.0,4.0,4.0,4.0,4.0,100.0,,,,,,,,,,,,,,,,,,,,,,,,,,,,,,,,,,,,,,,,,,,,,,,,,,,,,,,,,,,,,,,,,,,,,,,,,,,,,,,,,,,,,,,,,,,,,,,,,,,,,,,,,,,,,,,,,,,,,,,,,,,,,,,,,,,,,,,,,,,,,,,,,,,,,,,,,,,,,,,,,,,,,,,,,,,,,,,,,,,,,,,,,,,,,,,,,,,,,,,,,,,,,,
1763974595.80366,52792.0,0.0,4339.871582,4337.05127,4441.922852,4476.282227,4368.205078,4474.230957,4507.179688,4329.487305,4522.436035,4363.205078,4458.461426,4475.512695,4545.897461,4373.717773,4364.230957,4472.307617,4509.615234,4508.461426,4491.410156,4346.794922,4348.461426,4537.307617,4493.077148,4453.205078,4372.05127,4534.358887,4359.871582,4512.05127,4465.384766,4346.282227,4474.358887,4446.410156,2911.0,1.0,18.0,512.0,54102.0,,,,0.0,4.0,4.0,4.0,4.0,4.0,4.0,4.0,4.0,4.0,4.0,4.0,4.0,4.0,4.0,4.0,4.0,4.0,4.0,4.0,4.0,4.0,4.0,4.0,4.0,4.0,4.0,4.0,4.0,4.0,4.0,4.0,4.0,100.0,,,,,,,,,,,,,,,,,,,,,,,,,,,,,,,,,,,,,,,,,,,,,,,,,,,,,,,,,,,,,,,,,,,,,,,,,,,,,,,,,,,,,,,,,,,,,,,,,,,,,,,,,,,,,,,,,,,,,,,,,,,,,,,,,,,,,,,,,,,,,,,,,,,,,,,,,,,,,,,,,,,,,,,,,,,,,,,,,,,,,,,,,,,,,,,,,,,,,,,,,,,,,,
1763974595.807566,52793.0,0.0,4347.94873,4344.358887,4442.307617,4478.205078,4372.179688,4477.94873,4516.153809,4337.692383,4522.94873,4344.358887,4464.615234,4483.717773,4553.589844,4388.205078,4370.256348,4482.563965,4512.05127,4512.563965,4487.179688,4353.333496,4360.384766,4541.922852,4495.769043,4452.820313,4371.666504,4536.794922,4357.436035,4510.897461,4465.641113,4352.820313,4476.922852,4447.436035,2869.0,1.0,18.0,512.0,54102.0,,,,0.0,4.0,4.0,4.0,4.0,4.0,4.0,4.0,4.0,4.0,4.0,4.0,4.0,4.0,4.0,4.0,4.0,4.0,4.0,4.0,4.0,4.0,4.0,4.0,4.0,4.0,4.0,4.0,4.0,4.0,4.0,4.0,4.0,100.0,,,,,,,,,,,,,,,,,,,,,,,,,,,,,,,,,,,45966.0,0.0,0.562622,0.319763,0.246094,0.721558,0.973263,-0.244659,-0.006837,32.666668,-22.166666,-27.5,,,,,,,,,,,,,,,,,,,,,,,,,,,,,,,,,,,,,,,,,,,,,,,,,,,,,,,,,,,,,,,,,,,,,,,,,,,,,,,,,,,,,,,,,,,,,,,,,,,,,,,,,,,,,,,,,,,,,,,,,,,,,,,,,,,,,,,,,,,,,,,,,,,,,,,,,,,,,,,,
1763974595.811472,52794.0,0.0,4348.333496,4347.563965,4440.897461,4476.666504,4373.077148,4476.794922,4517.05127,4350.128418,4522.563965,4327.94873,4467.563965,4485.897461,4554.102539,4387.307617,4368.589844,4484.230957,4509.615234,4509.871582,4480.256348,4354.615234,4364.230957,4540.256348,4493.717773,4449.230957,4367.436035,4538.333496,4352.436035,4508.077148,4463.461426,4352.563965,4478.461426,4443.974121,2805.0,1.0,18.0,768.0,54110.0,,,,0.0,4.0,4.0,4.0,4.0,4.0,4.0,4.0,4.0,4.0,4.0,4.0,4.0,4.0,4.0,4.0,4.0,4.0,4.0,4.0,4.0,4.0,4.0,4.0,4.0,4.0,4.0,4.0,4.0,4.0,4.0,4.0,4.0,100.0,,,,,,,,,,,,,,,,,,,,,,,,,,,,,,,,,,,,,,,,,,,,,,,,,,,,,,,,,,,,,,,,,,,,,,,,,,,,,,,,,,,,,,,,,,,,,,,,,,,,,,,,,,,,,,,,,,,,,,,,,,,,,,,,,,,,,,,,,,,,,,,,,,,,,,,,,,,,,,,,,,,,,,,,,,,,,,,,,,,,,,,,,,,,,,,,,,,,,,,,,,,,,,
1763974595.815378,52795.0,0.0,4342.692383,4347.05127,4441.025879,4475.128418,4372.563965,4472.436035,4511.410156,4360.641113,4522.179688,4325.0,4465.769043,4482.820313,4548.333496,4372.436035,4359.871582,4477.179688,4504.871582,4503.846191,4477.94873,4350.128418,4358.974121,4533.717773,4490.512695,4446.922852,4361.153809,4538.846191,4348.974121,4506.153809,4461.922852,4348.333496,4478.974121,4441.025879,3025.0,1.0,18.0,768.0,54110.0,,,,0.0,4.0,4.0,4.0,4.0,4.0,4.0,4.0,4.0,4.0,4.0,4.0,4.0,4.0,4.0,4.0,4.0,4.0,4.0,4.0,4.0,4.0,4.0,4.0,4.0,4.0,4.0,4.0,4.0,4.0,4.0,4.0,4.0,100.0,,,,,,,,,,,,,,,,,,,,,,,,,,,,,,,,,,,,,,,,,,,,,,,,,,,,,,,,,,,,,,,,,,,,,,,,,,,,,,,,,,,,,,,,,,,,,,,,,,,,,,,,,,,,,,,,,,,,,,,,,,,,,,,,,,,,,,,,,,,,,,,,,,,,,,,,,,,,,,,,,,,,,,,,,,,,,,,,,,,,,,,,,,,,,,,,,,,,,,,,,,,,,,
1763974595.819285,52796.0,0.0,4338.333496,4347.692383,4446.282227,4477.692383,4373.717773,4469.615234,4506.153809,4366.666504,4523.717773,4337.94873,4462.436035,4479.871582,4542.179688,4354.871582,4351.666504,4469.871582,4503.589844,4501.666504,4485.0,4345.641113,4351.282227,4529.615234,4491.538574,4451.282227,4355.897461,4540.256348,4353.077148,4509.743652,4465.256348,4348.077148,4481.794922,4445.128418,2940.0,1.0,18.0,1024.0,54117.0,,,,0.0,4.0,4.0,4.0,4.0,4.0,4.0,4.0,4.0,4.0,4.0,4.0,4.0,4.0,4.0,4.0,4.0,4.0,4.0,4.0,4.0,4.0,4.0,4.0,4.0,4.0,4.0,4.0,4.0,4.0,4.0,4.0,4.0,100.0,,,,,,,,,,,,,,,,,,,,,,,,,,,,,,,,,,,,,,,,,,,,,,,,,,,,,,,,,,,,,,,,,,,,,,,,,,,,,,,,,,,,,,,,,,,,,,,,,,,,,,,,,,,,,,,,,,,,,,,,,,,,,,,,,,,,,,,,,,,,,,,,,,,,,,,,,,,,,,,,,,,,,,,,,,,,,,,,,,,,,,,,,,,,,,,,,,,,,,,,,,,,,,
1763974595.823191,52797.0,0.0,4341.410156,4353.077148,4457.05127,4485.256348,4377.820313,4471.922852,4507.436035,4369.230957,4528.846191,4361.282227,4461.922852,4482.05127,4541.666504,4347.436035,4352.05127,4470.641113,4509.358887,4507.436035,4498.846191,4348.589844,4349.871582,4533.846191,4498.461426,4462.563965,4356.282227,4544.230957,4366.538574,4520.384766,4475.128418,4357.307617,4489.487305,4458.077148,2853.0,1.0,18.0,1024.0,54117.0,,,,0.0,4.0,4.0,4.0,4.0,4.0,4.0,4.0,4.0,4.0,4.0,4.0,4.0,4.0,4.0,4.0,4.0,4.0,4.0,4.0,4.0,4.0,4.0,4.0,4.0,4.0,4.0,4.0,4.0,4.0,4.0,4.0,4.0,100.0,,,,,,,,,,,,,,,,,,,,,,,,,,,,,,,,,,,45967.0,0.0,0.562667,0.319641,0.245972,0.721619,0.98303,-0.251007,-0.001953,31.166666,-21.166666,-27.666666,,,,,,,,,,,,,,,,,,,,,,,,,,,,,,,,,,,,,,,,,,,,,,,,,,,,,,,,,,,,,,,,,,,,,,,,,,,,,,,,,,,,,,,,,,,,,,,,,,,,,,,,,,,,,,,,,,,,,,,,,,,,,,,,,,,,,,,,,,,,,,,,,,,,,,,,,,,,,,,,
1763974595.827097,52798.0,0.0,4350.897461,4362.820313,4469.358887,4493.846191,4383.589844,4479.358887,4515.641113,4370.0,4537.436035,4384.743652,4465.128418,4488.974121,4547.307617,4355.0,4362.179688,4481.025879,4520.512695,4519.102539,4511.025879,4361.794922,4358.077148,4545.897461,4507.94873,4475.512695,4365.256348,4550.769043,4384.358887,4533.974121,4488.077148,4373.846191,4501.153809,4474.871582,3008.0,1.0,18.0,1280.0,54125.0,,,,0.0,4.0,4.0,4.0,4.0,4.0,4.0,4.0,4.0,4.0,4.0,4.0,4.0,4.0,4.0,4.0,4.0,4.0,4.0,4.0,4.0,4.0,4.0,4.0,4.0,4.0,4.0,4.0,4.0,4.0,4.0,4.0,4.0,100.0,,,,,,,,,,,,,,,,,,,,,,,,,,,,,,,,,,,,,,,,,,,,,,,,,,,,,,,,,,,,,,,,,,,,,,,,,,,,,,,,,,,,,,,,,,,,,,,,,,,,,,,,,,,,,,,,,,,,,,,,,,,,,,,,,,,,,,,,,,,,,,,,,,,,,,,,,,,,,,,,,,,,,,,,,,,,,,,,,,,,,,,,,,,,,,,,,,,,,,,,,,,,,,
1763974595.831003,52799.0,0.0,4360.256348,4372.307617,4477.692383,4498.333496,4388.461426,4487.94873,4525.641113,4369.743652,4546.666504,4399.102539,4469.358887,4496.538574,4555.384766,4371.153809,4376.153809,4494.102539,4530.512695,4529.358887,4512.94873,4379.871582,4370.897461,4558.461426,4514.230957,4482.692383,4380.897461,4558.333496,4397.692383,4543.846191,4497.563965,4389.230957,4511.666504,4486.922852,2928.0,1.0,18.0,1280.0,54125.0,,,,0.0,4.0,4.0,4.0,4.0,4.0,4.0,4.0,4.0,4.0,4.0,4.0,4.0,4.0,4.0,4.0,4.0,4.0,4.0,4.0,4.0,4.0,4.0,4.0,4.0,4.0,4.0,4.0,4.0,4.0,4.0,4.0,4.0,100.0,,,,,,,,,,,,,,,,,,,,,,,,,,,,,,,,,,,,,,,,,,,,,,,,,,,,,,,,,,,,,,,,,,,,,,,,,,,,,,,,,,,,,,,,,,,,,,,,,,,,,,,,,,,,,,,,,,,,,,,,,,,,,,,,,,,,,,,,,,,,,,,,,,,,,,,,,,,,,,,,,,,,,,,,,,,,,,,,,,,,,,,,,,,,,,,,,,,,,,,,,,,,,,
1763974595.834909,52800.0,0.0,4362.563965,4376.282227,4478.974121,4496.025879,4390.256348,4492.179688,4530.641113,4367.05127,4552.307617,4399.102539,4471.025879,4499.743652,4559.871582,4384.230957,4385.769043,4500.128418,4533.333496,4531.153809,4502.05127,4392.692383,4379.102539,4562.692383,4513.333496,4479.615234,4395.512695,4563.974121,4398.461426,4545.384766,4498.846191,4394.487305,4516.153809,4488.461426,2867.0,1.0,18.0,1536.0,54133.0,,,,0.0,4.0,4.0,4.0,4.0,4.0,4.0,4.0,4.0,4.0,4.0,4.0,4.0,4.0,4.0,4.0,4.0,4.0,4.0,4.0,4.0,4.0,4.0,4.0,4.0,4.0,4.0,4.0,4.0,4.0,4.0,4.0,4.0,100.0,,,,,,,,,,,,,,,,,,,,,,,,,,,,,,,,,,,,,,,,,,,,,,,,,,,,,,,,,,,,,,,,,,,,,,,,,,,,,,,,,,,,,,,,,,,,,,,,,,,,,,,,,,,,,,,,,,,,,,,,,,,,,,,,,,,,,,,,,,,,,,,,,,,,,,,,,,,,,,,,,,,,,,,,,,,,,,,,,,,,,,,,,,,,,,,,,,,,,,,,,,,,,,
1763974595.838815,52801.0,0.0,4355.897461,4372.436035,4473.333496,4488.461426,4387.94873,4489.230957,4527.692383,4360.256348,4549.743652,4385.128418,4469.102539,4496.410156,4557.307617,4385.256348,4385.641113,4494.615234,4526.794922,4522.436035,4483.717773,4391.922852,4376.153809,4553.846191,4505.0,4467.307617,4399.358887,4564.230957,4385.512695,4538.077148,4491.153809,4386.666504,4512.692383,4479.871582,2934.0,1.0,18.0,1536.0,54133.0,,,,0.0,4.0,4.0,4.0,4.0,4.0,4.0,4.0,4.0,4.0,4.0,4.0,4.0,4.0,4.0,4.0,4.0,4.0,4.0,4.0,4.0,4.0,4.0,4.0,4.0,4.0,4.0,4.0,4.0,4.0,4.0,4.0,4.0,100.0,,,,,,,,,,,,,,,,,,,,,,,,,,,,,,,,,,,45968.0,0.0,0.562799,0.319458,0.245728,0.72168,0.974728,-0.234404,-0.017092,32.0,-22.5,-27.166666,,,,,,,,,,,,,,,,,,,,,,,,,,,,,,,,,,,,,,,,,,,,,,,,,,,,,,,,,,,,,,,,,,,,,,,,,,,,,,,,,,,,,,,,,,,,,,,,,,,,,,,,,,,,,,,,,,,,,,,,,,,,,,,,,,,,,,,,,,,,,,,,,,,,,,,,,,,,,,,,
1763974595.842721,52802.0,0.0,4342.563965,4361.538574,4462.307617,4478.974121,4380.769043,4479.487305,4517.563965,4349.743652,4537.820313,4362.307617,4463.077148,4486.794922,4547.05127,4373.717773,4376.025879,4481.153809,4514.102539,4506.922852,4467.05127,4376.410156,4362.436035,4534.102539,4491.794922,4450.769043,4387.692383,4557.05127,4364.487305,4524.871582,4477.307617,4368.974121,4503.205078,4466.666504,2294.0,1.0,18.0,1792.0,54141.0,,,,0.0,4.0,4.0,4.0,4.0,4.0,4.0,4.0,4.0,4.0,4.0,4.0,4.0,4.0,4.0,4.0,4.0,4.0,4.0,4.0,4.0,4.0,4.0,4.0,4.0,4.0,4.0,4.0,4.0,4.0,4.0,4.0,4.0,100.0,,,,,,,,,,,,,,,,,,,,,,,,,,,,,,,,,,,,,,,,,,,,,,,,,,,,,,,,,,,,,,,,,,,,,,,,,,,,,,,,,,,,,,,,,,,,,,,,,,,,,,,,,,,,,,,,,,,,,,,,,,,,,,,,,,,,,,,,,,,,,,,,,,,,,,,,,,,,,,,,,,,,,,,,,,,,,,,,,,,,,,,,,,,,,,,,,,,,,,,,,,,,,,
1763974595.846627,52803.0,0.0,4327.179688,4347.563965,4448.717773,4471.153809,4368.717773,4466.410156,4503.461426,4338.974121,4520.641113,4337.820313,4452.820313,4473.461426,4532.307617,4356.410156,4360.641113,4467.179688,4500.512695,4491.025879,4458.717773,4353.333496,4344.743652,4512.05127,4477.692383,4435.512695,4366.153809,4544.102539,4345.128418,4510.128418,4462.307617,4349.487305,4491.025879,4454.743652,2992.0,1.0,18.0,1792.0,54141.0,,,,0.0,4.0,4.0,4.0,4.0,4.0,4.0,4.0,4.0,4.0,4.0,4.0,4.0,4.0,4.0,4.0,4.0,4.0,4.0,4.0,4.0,4.0,4.0,4.0,4.0,4.0,4.0,4.0,4.0,4.0,4.0,4.0,4.0,100.0,,,,,,,,,,,,,,,,,,,,,,,,,,,,,,,,,,,,,,,,,,,,,,,,,,,,,,,,,,,,,,,,,,,,,,,,,,,,,,,,,,,,,,,,,,,,,,,,,,,,,,,,,,,,,,,,,,,,,,,,,,,,,,,,,,,,,,,,,,,,,,,,,,,,,,,,,,,,,,,,,,,,,,,,,,,,,,,,,,,,,,,,,,,,,,,,,,,,,,,,,,,,,,
1763974595.850533,52804.0,0.0,4315.641113,4336.153809,4437.307617,4468.077148,4355.641113,4455.512695,4490.128418,4332.820313,4506.282227,4320.512695,4440.256348,4460.897461,4518.333496,4343.589844,4346.282227,4459.230957,4491.410156,4480.769043,4459.358887,4334.487305,4332.436035,4497.94873,4467.307617,4426.153809,4348.717773,4531.282227,4335.641113,4499.230957,4451.922852,4337.436035,4480.256348,4448.846191,2895.0,1.0,18.0,2048.0,54149.0,,,,0.0,4.0,4.0,4.0,4.0,4.0,4.0,4.0,4.0,4.0,4.0,4.0,4.0,4.0,4.0,4.0,4.0,4.0,4.0,4.0,4.0,4.0,4.0,4.0,4.0,4.0,4.0,4.0,4.0,4.0,4.0,4.0,4.0,100.0,,,,,,,,,,,,,,,,,,,,,,,,,,,,,,,,,,,,,,,,,,,,,,,,,,,,,,,,,,,,,,,,,,,,,,,,,,,,,,,,,,,,,,,,,,,,,,,,,,,,,,,,,,,,,,,,,,,,,,,,,,,,,,,,,,,,,,,,,,,,,,,,,,,,,,,,,,,,,,,,,,,,,,,,,,,,,,,,,,,,,,,,,,,,,,,,,,,,,,,,,,,,,,
1763974595.854439,52805.0,0.0,4313.077148,4333.974121,4434.102539,4471.153809,4348.846191,4452.692383,4483.333496,4334.871582,4502.820313,4320.256348,4431.666504,4455.0,4512.05127,4342.307617,4339.230957,4460.769043,4490.769043,4480.256348,4465.256348,4329.102539,4330.897461,4497.94873,4465.769043,4426.282227,4348.333496,4526.282227,4339.615234,4497.436035,4451.410156,4338.974121,4475.641113,4451.538574,2483.0,1.0,18.0,2048.0,54149.0,,,,0.0,4.0,4.0,4.0,4.0,4.0,4.0,4.0,4.0,4.0,4.0,4.0,4.0,4.0,4.0,4.0,4.0,4.0,4.0,4.0,4.0,4.0,4.0,4.0,4.0,4.0,4.0,4.0,4.0,4.0,4.0,4.0,4.0,100.0,,,,,,,,,,,,,,,,,,,,,,,,,,,,,,,,,,,45969.0,0.0,0.562799,0.319458,0.245728,0.72168,0.969357,-0.245147,-0.002442,32.5,-20.0,-26.833334,,,,,,,,,,,,,,,,,,,,,,,,,,,,,,,,,,,,,,,,,,,,,,,,,,,,,,,,,,,,,,,,,,,,,,,,,,,,,,,,,,,,,,,,,,,,,,,,,,,,,,,,,,,,,,,,,,,,,,,,,,,,,,,,,,,,,,,,,,,,,,,,,,,,,,,,,,,,,,,,
1763974595.858345,52806.0,0.0,4321.794922,4343.461426,4442.692383,4480.128418,4354.487305,4460.512695,4487.563965,4343.974121,4513.589844,4342.05127,4434.102539,4459.871582,4517.94873,4353.205078,4343.333496,4471.153809,4499.358887,4490.512695,4473.077148,4338.846191,4338.846191,4511.538574,4474.615234,4436.666504,4365.384766,4533.717773,4354.871582,4506.922852,4461.538574,4353.974121,4481.025879,4461.922852,3012.0,1.0,18.0,2304.0,54157.0,,,,0.0,4.0,4.0,4.0,4.0,4.0,4.0,4.0,4.0,4.0,4.0,4.0,4.0,4.0,4.0,4.0,4.0,4.0,4.0,4.0,4.0,4.0,4.0,4.0,4.0,4.0,4.0,4.0,4.0,4.0,4.0,4.0,4.0,100.0,,,,,,,,,,,,,,,,,,,,,,,,,,,,,,,,,,,,,,,,,,,,,,,,,,,,,,,,,,,,,,,,,,,,,,,,,,,,,,,,,,,,,,,,,,,,,,,,,,,,,,,,,,,,,,,,,,,,,,,,,,,,,,,,,,,,,,,,,,,,,,,,,,,,,,,,,,,,,,,,,,,,,,,,,,,,,,,,,,,,,,,,,,,,,,,,,,,,,,,,,,,,,,
1763974595.862251,52807.0,0.0,4338.589844,4360.641113,4460.641113,4491.153809,4371.282227,4475.512695,4502.563965,4354.743652,4533.333496,4380.0,4449.102539,4474.230957,4534.358887,4369.487305,4355.384766,4486.282227,4513.717773,4507.563965,4481.410156,4356.538574,4349.743652,4531.025879,4490.256348,4453.333496,4386.025879,4550.512695,4375.128418,4523.589844,4477.563965,4374.102539,4496.153809,4475.641113,2993.0,1.0,18.0,2304.0,54157.0,,,,0.0,4.0,4.0,4.0,4.0,4.0,4.0,4.0,4.0,4.0,4.0,4.0,4.0,4.0,4.0,4.0,4.0,4.0,4.0,4.0,4.0,4.0,4.0,4.0,4.0,4.0,4.0,4.0,4.0,4.0,4.0,4.0,4.0,100.0,,,,,,,,,,,,,,,,,,,,,,,,,,,,,,,,,,,,,,,,,,,,,,,,,,,,,,,,,,,,,,,,,,,,,,,,,,,,,,,,,,,,,,,,,,,,,,,,,,,,,,,,,,,,,,,,,,,,,,,,,,,,,,,,,,,,,,,,,,,,,,,,,,,,,,,,,,,,,,,,,,,,,,,,,,,,,,,,,,,,,,,,,,,,,,,,,,,,,,,,,,,,,,
1763974595.866157,52808.0,0.0,4355.897461,4375.769043,4480.0,4498.461426,4390.769043,4490.384766,4521.666504,4361.025879,4551.794922,4415.641113,4470.384766,4491.666504,4553.846191,4380.897461,4367.563965,4499.230957,4526.794922,4524.358887,4490.384766,4371.025879,4357.307617,4545.769043,4505.0,4468.333496,4393.974121,4566.794922,4392.436035,4539.615234,4491.410156,4388.333496,4514.743652,4487.563965,2697.0,1.0,18.0,2560.0,54164.0,,,,0.0,4.0,4.0,4.0,4.0,4.0,4.0,4.0,4.0,4.0,4.0,4.0,4.0,4.0,4.0,4.0,4.0,4.0,4.0,4.0,4.0,4.0,4.0,4.0,4.0,4.0,4.0,4.0,4.0,4.0,4.0,4.0,4.0,100.0,,,,,,,,,,,,,,,,,,,,,,,,,,,,,,,,,,,,,,,,,,,,,,,,,,,,,,,,,,,,,,,,,,,,,,,,,,,,,,,,,,,,,,,,,,,,,,,,,,,,,,,,,,,,,,,,,,,,,,,,,,,,,,,,,,,,,,,,,,,,,,,,,,,,,,,,,,,,,,,,,,,,,,,,,,,,,,,,,,,,,,,,,,,,,,,,,,,,,,,,,,,,,,
1763974595.870063,52809.0,0.0,4365.897461,4381.025879,4492.307617,4498.846191,4402.436035,4497.94873,4535.897461,4360.769043,4560.128418,4427.179688,4487.563965,4504.230957,4566.282227,4380.641113,4372.179688,4503.333496,4532.307617,4533.461426,4499.615234,4375.0,4359.871582,4549.615234,4512.179688,4474.230957,4383.589844,4572.436035,4400.897461,4547.563965,4497.563965,4390.512695,4527.436035,4494.230957,2863.0,1.0,18.0,2560.0,54164.0,,,,0.0,4.0,4.0,4.0,4.0,4.0,4.0,4.0,4.0,4.0,4.0,4.0,4.0,4.0,4.0,4.0,4.0,4.0,4.0,4.0,4.0,4.0,4.0,4.0,4.0,4.0,4.0,4.0,4.0,4.0,4.0,4.0,4.0,100.0,,,,,,,,,,,,,,,,,,,,,,,,,,,,,,,,,,,45970.0,0.0,0.562774,0.319458,0.245605,0.721741,0.961055,-0.253937,-0.000488,32.666668,-22.666666,-25.833334,,,,,,,,,,,,,,,,,,,,,,,,,,,,,,,,,,,,,,,,,,,,,,,,,,,,,,,,,,,,,,,,,,,,,,,,,,,,,,,,,,,,,,,,,,,,,,,,,,,,,,,,,,,,,,,,,,,,,,,,,,,,,,,,,,,,,,,,,,,,,,,,,,,,,,,,,,,,,,,,
1763974595.873969,52810.0,0.0,4366.153809,4375.769043,4493.589844,4494.230957,4401.153809,4496.538574,4539.615234,4357.307617,4556.282227,4405.897461,4492.563965,4507.692383,4566.153809,4370.384766,4368.077148,4496.666504,4530.0,4532.05127,4507.692383,4369.615234,4361.153809,4543.846191,4511.153809,4469.230957,4364.487305,4565.256348,4400.0,4546.538574,4496.025879,4384.230957,4528.846191,4495.641113,2703.0,1.0,18.0,2560.0,54172.0,,,,0.0,4.0,4.0,4.0,4.0,4.0,4.0,4.0,4.0,4.0,4.0,4.0,4.0,4.0,4.0,4.0,4.0,4.0,4.0,4.0,4.0,4.0,4.0,4.0,4.0,4.0,4.0,4.0,4.0,4.0,4.0,4.0,4.0,100.0,,,,,,,,,,,,,,,,,,,,,,,,,,,,,,,,,,,,,,,,,,,,,,,,,,,,,,,,,,,,,,,,,,,,,,,,,,,,,,,,,,,,,,,,,,,,,,,,,,,,,,,,,,,,,,,,,,,,,,,,,,,,,,,,,,,,,,,,,,,,,,,,,,,,,,,,,,,,,,,,,,,,,,,,,,,,,,,,,,,,,,,,,,,,,,,,,,,,,,,,,,,,,,
1763974595.877875,52811.0,0.0,4360.0,4366.922852,4486.794922,4490.256348,4391.025879,4489.871582,4534.487305,4356.025879,4546.410156,4364.487305,4484.743652,4503.846191,4556.153809,4358.589844,4361.025879,4484.358887,4525.0,4523.461426,4512.563965,4362.307617,4365.512695,4536.282227,4506.410156,4460.0,4353.846191,4552.94873,4393.974121,4541.410156,4491.794922,4378.589844,4520.512695,4494.102539,3001.0,1.0,18.0,2560.0,54172.0,,,,0.0,4.0,4.0,4.0,4.0,4.0,4.0,4.0,4.0,4.0,4.0,4.0,4.0,4.0,4.0,4.0,4.0,4.0,4.0,4.0,4.0,4.0,4.0,4.0,4.0,4.0,4.0,4.0,4.0,4.0,4.0,4.0,4.0,100.0,,,,,,,,,,,,,,,,,,,,,,,,,,,,,,,,,,,,,,,,,,,,,,,,,,,,,,,,,,,,,,,,,,,,,,,,,,,,,,,,,,,,,,,,,,,,,,,,,,,,,,,,,,,,,,,,,,,,,,,,,,,,,,,,,,,,,,,,,,,,,,,,,,,,,,,,,,,,,,,,,,,,,,,,,,,,,,,,,,,,,,,,,,,,,,,,,,,,,,,,,,,,,,
1763974595.881781,52812.0,0.0,4353.846191,4362.05127,4478.077148,4491.538574,4380.128418,4483.077148,4526.922852,4358.589844,4539.743652,4329.487305,4470.769043,4498.846191,4544.871582,4354.230957,4359.358887,4475.384766,4523.333496,4515.0,4512.692383,4360.128418,4372.563965,4534.358887,4503.974121,4456.153809,4362.307617,4546.153809,4388.077148,4538.077148,4489.743652,4380.128418,4509.743652,4491.025879,2967.0,1.0,18.0,2561.0,54180.0,,,,0.0,4.0,4.0,4.0,4.0,4.0,4.0,4.0,4.0,4.0,4.0,4.0,4.0,4.0,4.0,4.0,4.0,4.0,4.0,4.0,4.0,4.0,4.0,4.0,4.0,4.0,4.0,4.0,4.0,4.0,4.0,4.0,4.0,100.0,,,,,,,,,,,,,,,,,,,,,,,,,,,,,,,,,,,,,,,,,,,,,,,,,,,,,,,,,,,,,,,,,,,,,,,,,,,,,,,,,,,,,,,,,,,,,,,,,,,,,,,,,,,,,,,,,,,,,,,,,,,,,,,,,,,,,,,,,,,,,,,,,,,,,,,,,,,,,,,,,,,,,,,,,,,,,,,,,,,,,,,,,,,,,,,,,,,,,,,,,,,,,,
1763974595.885687,52813.0,0.0,4351.282227,4363.205078,4471.538574,4497.05127,4374.487305,4479.102539,4523.461426,4361.410156,4540.256348,4321.153809,4459.230957,4496.410156,4539.615234,4359.615234,4366.025879,4475.897461,4526.153809,4511.153809,4506.025879,4363.205078,4376.282227,4538.846191,4506.025879,4462.05127,4385.256348,4549.358887,4383.717773,4538.333496,4490.384766,4387.179688,4503.205078,4486.153809,2788.0,1.0,18.0,2561.0,54180.0,,,,0.0,4.0,4.0,4.0,4.0,4.0,4.0,4.0,4.0,4.0,4.0,4.0,4.0,4.0,4.0,4.0,4.0,4.0,4.0,4.0,4.0,4.0,4.0,4.0,4.0,4.0,4.0,4.0,4.0,4.0,4.0,4.0,4.0,100.0,,,,,,,,,,,,,,,,,,,,,,,,,,,,,,,,,,,45971.0,0.0,0.562757,0.31958,0.245667,0.72168,0.965938,-0.250519,-0.018069,32.833332,-21.166666,-25.5,,,,,,,,,,,,,,,,,,,,,,,,,,,,,,,,,,,,,,,,,,,,,,,,,,,,,,,,,,,,,,,,,,,,,,,,,,,,,,,,,,,,,,,,,,,,,,,,,,,,,,,,,,,,,,,,,,,,,,,,,,,,,,,,,,,,,,,,,,,,,,,,,,,,,,,,,,,,,,,,
1763974595.889593,52814.0,0.0,4350.256348,4365.384766,4467.05127,4500.512695,4372.820313,4476.153809,4524.102539,4358.205078,4543.846191,4338.333496,4454.487305,4495.256348,4540.256348,4369.871582,4376.538574,4483.589844,4528.589844,4510.128418,4491.666504,4365.384766,4370.128418,4543.589844,4508.461426,4471.538574,4404.487305,4557.179688,4377.94873,4538.461426,4489.743652,4391.410156,4502.179688,4478.589844,2745.0,1.0,18.0,2561.0,54188.0,,,,0.0,4.0,4.0,4.0,4.0,4.0,4.0,4.0,4.0,4.0,4.0,4.0,4.0,4.0,4.0,4.0,4.0,4.0,4.0,4.0,4.0,4.0,4.0,4.0,4.0,4.0,4.0,4.0,4.0,4.0,4.0,4.0,4.0,100.0,,,,,,,,,,,,,,,,,,,,,,,,,,,,,,,,,,,,,,,,,,,,,,,2.072131,3.082779,2.758316,2.213511,1.210684,1.895898,4.967089,3.282299,2.345898,1.164276,1.557296,3.786996,1.903018,2.893085,1.261101,1.710388,1.830505,1.453188,3.645298,1.680649,1.200015,3.303524,2.451705,1.703733,1.151508,1.097722,1.868686,1.596974,1.553481,0.881484,1.691467,2.239561,2.581725,3.217227,1.93566,1.549533,2.017587,1.749548,3.40363,2.57873,1.263915,1.434603,1.383732,1.78718,1.544681,0.74373,2.24271,9.460688,5.802977,4.011345,1.549584,1.781455,4.345004,3.91722,3.693856,0.887994,2.317579,2.372427,2.593302,1.317624,1.09017,1.73247,2.97912,3.029657,1.7365,0.827059,2.138126,1.663505,1.422609,3.287051,0.885076,1.157843,1.466272,1.341754,0.909043,0.648916,2.395696,2.962571,2.453913,1.736457,0.899361,2.14539,2.11204,2.558744,1.017379,0.51469,2.628959,2.86948,2.808923,1.456782,1.144063,3.768847,4.516891,4.820227,3.590432,1.291036,3.280288,2.946816,2.593098,1.128898,0.558211,2.995131,3.096803,4.723403,1.921507,1.257993,2.43153,2.305283,3.292778,1.615687,1.445814,2.457267,2.346128,2.668289,1.400211,1.406488,1.353593,2.238294,3.053379,1.823697,1.363959,2.713212,4.329681,6.37125,3.995486,1.156595,2.309374,2.398244,2.320355,1.315975,1.424638,2.007447,2.711247,3.566337,2.102601,1.183094,1.741959,1.465835,1.942973,1.781621,2.00973,3.350463,1.8686,2.100857,1.449265,2.05327,3.461003,3.108546,2.663509,1.594776,1.488651,2.501373,3.095068,3.186635,1.846509,1.937739,2.444954,2.098756,2.566484,1.679435
1763974595.893499,52815.0,0.0,4347.05127,4362.05127,4462.563965,4495.641113,4369.487305,4471.410156,4524.358887,4347.179688,4543.205078,4362.820313,4455.897461,4491.282227,4541.666504,4377.05127,4381.922852,4489.871582,4525.384766,4507.692383,4474.230957,4361.025879,4355.0,4541.410156,4505.512695,4474.102539,4403.589844,4560.128418,4367.94873,4534.230957,4483.589844,4385.512695,4502.563965,4468.974121,2869.0,1.0,18.0,2561.0,54188.0,,,,0.0,4.0,4.0,4.0,4.0,4.0,4.0,4.0,4.0,4.0,4.0,4.0,4.0,4.0,4.0,4.0,4.0,4.0,4.0,4.0,4.0,4.0,4.0,4.0,4.0,4.0,4.0,4.0,4.0,4.0,4.0,4.0,4.0,100.0,,,,,,,,,,,,,,,,,,,,,,,,,,,,,,,,,,,,,,,,,,,,,,,,,,,,,,,,,,,,,,,,,,,,,,,,,,,,,,,,,,,,,,,,,,,,,,,,,,,,,,,,,,,,,,,,,,,,,,,,,,,,,,,,,,,,,,,,,,,,,,,,,,,,,,,,,,,,,,,,,,,,,,,,,,,,,,,,,,,,,,,,,,,,,,,,,,,,,,,,,,,,,,
1763974595.897405,52816.0,0.0,4340.641113,4352.436035,4458.461426,4483.205078,4361.666504,4464.871582,4519.871582,4333.717773,4535.769043,4375.641113,4459.871582,4483.717773,4540.384766,4376.666504,4376.538574,4488.846191,4516.410156,4503.717773,4464.743652,4351.282227,4340.769043,4532.307617,4496.410156,4465.769043,4382.307617,4553.333496,4355.641113,4525.897461,4473.333496,4370.128418,4499.871582,4461.025879,2965.0,1.0,18.0,2562.0,54196.0,,,,0.0,4.0,4.0,4.0,4.0,4.0,4.0,4.0,4.0,4.0,4.0,4.0,4.0,4.0,4.0,4.0,4.0,4.0,4.0,4.0,4.0,4.0,4.0,4.0,4.0,4.0,4.0,4.0,4.0,4.0,4.0,4.0,4.0,100.0,,,,,,,,,,,,,,,,,,,,,,,,,,,,,,,,,,,,,,,,,,,,,,,,,,,,,,,,,,,,,,,,,,,,,,,,,,,,,,,,,,,,,,,,,,,,,,,,,,,,,,,,,,,,,,,,,,,,,,,,,,,,,,,,,,,,,,,,,,,,,,,,,,,,,,,,,,,,,,,,,,,,,,,,,,,,,,,,,,,,,,,,,,,,,,,,,,,,,,,,,,,,,,
1763974595.901311,52817.0,0.0,4335.0,4342.563965,4457.307617,4471.794922,4353.205078,4460.0,4511.794922,4327.563965,4526.538574,4373.205078,4464.615234,4476.922852,4538.461426,4370.641113,4362.820313,4482.307617,4507.563965,4502.436035,4471.794922,4343.461426,4338.717773,4523.333496,4486.666504,4452.307617,4356.666504,4541.410156,4348.077148,4518.974121,4465.128418,4354.615234,4493.974121,4458.589844,3079.0,1.0,18.0,2562.0,54196.0,,,,0.0,4.0,4.0,4.0,4.0,4.0,4.0,4.0,4.0,4.0,4.0,4.0,4.0,4.0,4.0,4.0,4.0,4.0,4.0,4.0,4.0,4.0,4.0,4.0,4.0,4.0,4.0,4.0,4.0,4.0,4.0,4.0,4.0,100.0,,,,,,,,,,,,,,,,,,,,,,,,,,,,,,,,,,,45972.0,0.0,0.562695,0.319641,0.245728,0.72168,0.965938,-0.250519,-0.018069,32.833332,-20.833334,-26.333334,,,,,,,,,,,,,,,,,,,,,,,,,,,,,,,,,,,,,,,,,,,,,,,,,,,,,,,,,,,,,,,,,,,,,,,,,,,,,,,,,,,,,,,,,,,,,,,,,,,,,,,,,,,,,,,,,,,,,,,,,,,,,,,,,,,,,,,,,,,,,,,,,,,,,,,,,,,,,,,,
1763974595.905217,52818.0,0.0,4335.128418,4341.153809,4461.666504,4471.153809,4351.410156,4460.641113,4506.025879,4335.384766,4523.717773,4366.153809,4470.384766,4476.410156,4540.641113,4365.128418,4349.871582,4478.717773,4505.128418,4508.077148,4492.307617,4345.512695,4351.153809,4522.307617,4484.102539,4445.0,4345.128418,4533.846191,4351.025879,4519.230957,4465.128418,4349.743652,4490.0,4462.692383,2840.0,1.0,18.0,2562.0,54203.0,,,,0.0,4.0,4.0,4.0,4.0,4.0,4.0,4.0,4.0,4.0,4.0,4.0,4.0,4.0,4.0,4.0,4.0,4.0,4.0,4.0,4.0,4.0,4.0,4.0,4.0,4.0,4.0,4.0,4.0,4.0,4.0,4.0,4.0,100.0,,,,,,,,,,,,,,,,,,,,,,,,,,,,,,,,,,,,,,,,,,,,,,,,,,,,,,,,,,,,,,,,,,,,,,,,,,,,,,,,,,,,,,,,,,,,,,,,,,,,,,,,,,,,,,,,,,,,,,,,,,,,,,,,,,,,,,,,,,,,,,,,,,,,,,,,,,,,,,,,,,,,,,,,,,,,,,,,,,,,,,,,,,,,,,,,,,,,,,,,,,,,,,
1763974595.909123,52819.0,0.0,4342.05127,4351.794922,4470.128418,4483.846191,4360.256348,4467.436035,4507.05127,4354.487305,4531.153809,4367.05127,4478.333496,4483.974121,4548.461426,4366.282227,4346.922852,4484.102539,4510.128418,4519.102539,4511.922852,4358.077148,4368.974121,4530.512695,4491.153809,4450.256348,4353.205078,4537.307617,4363.589844,4527.563965,4474.230957,4359.230957,4493.461426,4471.282227,3036.0,1.0,18.0,2562.0,54203.0,,,,0.0,4.0,4.0,4.0,4.0,4.0,4.0,4.0,4.0,4.0,4.0,4.0,4.0,4.0,4.0,4.0,4.0,4.0,4.0,4.0,4.0,4.0,4.0,4.0,4.0,4.0,4.0,4.0,4.0,4.0,4.0,4.0,4.0,100.0,,,,,,,,,,,,,,,,,,,,,,,,,,,,,,,,,,,,,,,,,,,,,,,,,,,,,,,,,,,,,,,,,,,,,,,,,,,,,,,,,,,,,,,,,,,,,,,,,,,,,,,,,,,,,,,,,,,,,,,,,,,,,,,,,,,,,,,,,,,,,,,,,,,,,,,,,,,,,,,,,,,,,,,,,,,,,,,,,,,,,,,,,,,,,,,,,,,,,,,,,,,,,,
1763974595.913029,52820.0,0.0,4350.769043,4368.589844,4477.307617,4502.820313,4375.641113,4476.538574,4513.461426,4373.589844,4545.0,4378.333496,4486.025879,4494.230957,4557.307617,4374.487305,4355.641113,4495.0,4517.692383,4527.307617,4515.256348,4373.461426,4378.077148,4541.025879,4502.05127,4464.358887,4370.256348,4550.0,4377.307617,4538.333496,4486.666504,4376.666504,4504.230957,4478.846191,3011.0,1.0,18.0,2561.0,54211.0,,,,0.0,4.0,4.0,4.0,4.0,4.0,4.0,4.0,4.0,4.0,4.0,4.0,4.0,4.0,4.0,4.0,4.0,4.0,4.0,4.0,4.0,4.0,4.0,4.0,4.0,4.0,4.0,4.0,4.0,4.0,4.0,4.0,4.0,100.0,,,,,,,,,,,,,,,,,,,,,,,,,,,,,,,,,,,,,,,,,,,,,,,,,,,,,,,,,,,,,,,,,,,,,,,,,,,,,,,,,,,,,,,,,,,,,,,,,,,,,,,,,,,,,,,,,,,,,,,,,,,,,,,,,,,,,,,,,,,,,,,,,,,,,,,,,,,,,,,,,,,,,,,,,,,,,,,,,,,,,,,,,,,,,,,,,,,,,,,,,,,,,,
1763974595.916935,52821.0,0.0,4353.717773,4379.487305,4476.794922,4515.256348,4387.692383,4481.282227,4518.333496,4380.128418,4555.256348,4391.153809,4487.94873,4498.589844,4558.717773,4382.563965,4368.205078,4500.384766,4519.615234,4524.358887,4498.333496,4380.897461,4370.256348,4543.205078,4506.538574,4475.128418,4379.487305,4562.436035,4383.077148,4543.077148,4493.589844,4389.230957,4515.128418,4480.512695,2948.0,1.0,18.0,2561.0,54211.0,,,,0.0,4.0,4.0,4.0,4.0,4.0,4.0,4.0,4.0,4.0,4.0,4.0,4.0,4.0,4.0,4.0,4.0,4.0,4.0,4.0,4.0,4.0,4.0,4.0,4.0,4.0,4.0,4.0,4.0,4.0,4.0,4.0,4.0,100.0,,,,,,,,,,,,,,,,,,,,,,,,,,,,,,,,,,,45973.0,0.0,0.562624,0.319763,0.245911,0.721619,0.964962,-0.252961,0.000977,31.666666,-22.0,-24.666666,,,,,,,,,,,,,,,,,,,,,,,,,,,,,,,,,,,,,,,,,,,,,,,,,,,,,,,,,,,,,,,,,,,,,,,,,,,,,,,,,,,,,,,,,,,,,,,,,,,,,,,,,,,,,,,,,,,,,,,,,,,,,,,,,,,,,,,,,,,,,,,,,,,,,,,,,,,,,,,,
1763974595.920841,52822.0,0.0,4347.05127,4376.153809,4467.307617,4512.436035,4388.846191,4477.436035,4514.615234,4369.615234,4553.077148,4393.205078,4479.871582,4491.410156,4548.077148,4382.436035,4373.974121,4492.436035,4511.794922,4508.846191,4471.153809,4374.743652,4349.358887,4532.436035,4498.974121,4472.307617,4371.282227,4564.871582,4377.820313,4537.05127,4489.615234,4388.205078,4516.794922,4474.615234,3015.0,1.0,18.0,2562.0,54219.0,,,,0.0,4.0,4.0,4.0,4.0,4.0,4.0,4.0,4.0,4.0,4.0,4.0,4.0,4.0,4.0,4.0,4.0,4.0,4.0,4.0,4.0,4.0,4.0,4.0,4.0,4.0,4.0,4.0,4.0,4.0,4.0,4.0,4.0,100.0,,,,,,,,,,,,,,,,,,,,,,,,,,,,,,,,,,,,,,,,,,,,,,,,,,,,,,,,,,,,,,,,,,,,,,,,,,,,,,,,,,,,,,,,,,,,,,,,,,,,,,,,,,,,,,,,,,,,,,,,,,,,,,,,,,,,,,,,,,,,,,,,,,,,,,,,,,,,,,,,,,,,,,,,,,,,,,,,,,,,,,,,,,,,,,,,,,,,,,,,,,,,,,
1763974595.924747,52823.0,0.0,4333.974121,4361.153809,4454.615234,4496.410156,4379.615234,4467.179688,4502.692383,4350.384766,4538.589844,4379.615234,4464.743652,4475.897461,4529.615234,4372.94873,4368.846191,4474.615234,4497.820313,4488.974121,4449.358887,4358.846191,4328.333496,4513.846191,4483.717773,4456.153809,4351.538574,4554.743652,4367.179688,4524.358887,4478.077148,4375.897461,4507.307617,4465.0,2973.0,1.0,18.0,2562.0,54219.0,,,,0.0,4.0,4.0,4.0,4.0,4.0,4.0,4.0,4.0,4.0,4.0,4.0,4.0,4.0,4.0,4.0,4.0,4.0,4.0,4.0,4.0,4.0,4.0,4.0,4.0,4.0,4.0,4.0,4.0,4.0,4.0,4.0,4.0,100.0,,,,,,,,,,,,,,,,,,,,,,,,,,,,,,,,,,,,,,,,,,,,,,,,,,,,,,,,,,,,,,,,,,,,,,,,,,,,,,,,,,,,,,,,,,,,,,,,,,,,,,,,,,,,,,,,,,,,,,,,,,,,,,,,,,,,,,,,,,,,,,,,,,,,,,,,,,,,,,,,,,,,,,,,,,,,,,,,,,,,,,,,,,,,,,,,,,,,,,,,,,,,,,
1763974595.928653,52824.0,0.0,4323.717773,4346.025879,4448.461426,4478.333496,4368.717773,4457.94873,4490.512695,4336.282227,4520.641113,4356.794922,4452.05127,4462.563965,4514.615234,4360.641113,4357.820313,4459.743652,4486.794922,4476.538574,4442.05127,4343.846191,4319.487305,4499.230957,4471.153809,4437.692383,4336.794922,4538.974121,4359.487305,4514.230957,4467.692383,4363.333496,4493.077148,4458.205078,2916.0,1.0,18.0,2563.0,54227.0,,,,0.0,4.0,4.0,4.0,4.0,4.0,4.0,4.0,4.0,4.0,4.0,4.0,4.0,4.0,4.0,4.0,4.0,4.0,4.0,4.0,4.0,4.0,4.0,4.0,4.0,4.0,4.0,4.0,4.0,4.0,4.0,4.0,4.0,100.0,,,,,,,,,,,,,,,,,,,,,,,,,,,,,,,,,,,,,,,,,,,,,,,,,,,,,,,,,,,,,,,,,,,,,,,,,,,,,,,,,,,,,,,,,,,,,,,,,,,,,,,,,,,,,,,,,,,,,,,,,,,,,,,,,,,,,,,,,,,,,,,,,,,,,,,,,,,,,,,,,,,,,,,,,,,,,,,,,,,,,,,,,,,,,,,,,,,,,,,,,,,,,,
1763974595.932559,52825.0,0.0,4323.461426,4341.794922,4454.487305,4470.256348,4364.743652,4456.794922,4486.922852,4335.897461,4511.025879,4338.846191,4450.641113,4460.641113,4512.436035,4353.846191,4350.256348,4458.589844,4485.769043,4477.692383,4447.94873,4337.692383,4326.025879,4497.692383,4468.974121,4429.102539,4340.0,4528.077148,4358.846191,4513.333496,4465.769043,4359.487305,4483.717773,4457.692383,2875.0,1.0,18.0,2563.0,54227.0,,,,0.0,4.0,4.0,4.0,4.0,4.0,4.0,4.0,4.0,4.0,4.0,4.0,4.0,4.0,4.0,4.0,4.0,4.0,4.0,4.0,4.0,4.0,4.0,4.0,4.0,4.0,4.0,4.0,4.0,4.0,4.0,4.0,4.0,100.0,,,,,,,,,,,,,,,,,,,,,,,,,,,,,,,,,,,45974.0,0.0,0.562526,0.319885,0.246155,0.721558,0.982542,-0.251984,0.003418,32.833332,-20.833334,-25.5,,,,,,,,,,,,,,,,,,,,,,,,,,,,,,,,,,,,,,,,,,,,,,,,,,,,,,,,,,,,,,,,,,,,,,,,,,,,,,,,,,,,,,,,,,,,,,,,,,,,,,,,,,,,,,,,,,,,,,,,,,,,,,,,,,,,,,,,,,,,,,,,,,,,,,,,,,,,,,,,
1763974595.936465,52826.0,0.0,4332.94873,4349.871582,4468.205078,4475.897461,4368.589844,4464.487305,4493.589844,4345.641113,4515.641113,4337.05127,4460.512695,4470.384766,4522.179688,4355.384766,4351.282227,4470.641113,4494.102539,4489.102539,4458.717773,4340.769043,4340.641113,4508.846191,4476.538574,4433.205078,4359.615234,4527.563965,4362.563965,4521.282227,4472.307617,4364.487305,4484.230957,4461.666504,2796.0,1.0,18.0,2564.0,54235.0,,,,0.0,4.0,4.0,4.0,4.0,4.0,4.0,4.0,4.0,4.0,4.0,4.0,4.0,4.0,4.0,4.0,4.0,4.0,4.0,4.0,4.0,4.0,4.0,4.0,4.0,4.0,4.0,4.0,4.0,4.0,4.0,4.0,4.0,100.0,,,,,,,,,,,,,,,,,,,,,,,,,,,,,,,,,,,,,,,,,,,,,,,,,,,,,,,,,,,,,,,,,,,,,,,,,,,,,,,,,,,,,,,,,,,,,,,,,,,,,,,,,,,,,,,,,,,,,,,,,,,,,,,,,,,,,,,,,,,,,,,,,,,,,,,,,,,,,,,,,,,,,,,,,,,,,,,,,,,,,,,,,,,,,,,,,,,,,,,,,,,,,,
1763974595.940371,52827.0,0.0,4344.871582,4362.307617,4479.871582,4490.0,4374.871582,4475.256348,4504.230957,4355.384766,4531.410156,4352.563965,4473.461426,4483.846191,4535.0,4361.282227,4358.846191,4485.256348,4504.615234,4502.436035,4467.307617,4347.307617,4353.205078,4524.615234,4486.666504,4443.846191,4382.179688,4535.641113,4365.256348,4531.153809,4482.05127,4371.922852,4491.922852,4466.666504,3032.0,1.0,18.0,2564.0,54235.0,,,,0.0,4.0,4.0,4.0,4.0,4.0,4.0,4.0,4.0,4.0,4.0,4.0,4.0,4.0,4.0,4.0,4.0,4.0,4.0,4.0,4.0,4.0,4.0,4.0,4.0,4.0,4.0,4.0,4.0,4.0,4.0,4.0,4.0,100.0,,,,,,,,,,,,,,,,,,,,,,,,,,,,,,,,,,,,,,,,,,,,,,,,,,,,,,,,,,,,,,,,,,,,,,,,,,,,,,,,,,,,,,,,,,,,,,,,,,,,,,,,,,,,,,,,,,,,,,,,,,,,,,,,,,,,,,,,,,,,,,,,,,,,,,,,,,,,,,,,,,,,,,,,,,,,,,,,,,,,,,,,,,,,,,,,,,,,,,,,,,,,,,
1763974595.944277,52828.0,0.0,4352.563965,4370.512695,4482.94873,4503.205078,4379.615234,4482.692383,4511.666504,4357.820313,4548.974121,4376.922852,4481.153809,4493.333496,4542.436035,4365.384766,4367.179688,4491.410156,4511.282227,4510.384766,4472.563965,4352.692383,4359.230957,4536.282227,4493.205078,4452.820313,4395.128418,4546.922852,4365.769043,4537.436035,4489.230957,4376.282227,4500.769043,4471.410156,2950.0,1.0,18.0,2565.0,54242.0,,,,0.0,4.0,4.0,4.0,4.0,4.0,4.0,4.0,4.0,4.0,4.0,4.0,4.0,4.0,4.0,4.0,4.0,4.0,4.0,4.0,4.0,4.0,4.0,4.0,4.0,4.0,4.0,4.0,4.0,4.0,4.0,4.0,4.0,100.0,,,,,,,,,,,,,,,,,,,,,,,,,,,,,,,,,,,,,,,,,,,,,,,,,,,,,,,,,,,,,,,,,,,,,,,,,,,,,,,,,,,,,,,,,,,,,,,,,,,,,,,,,,,,,,,,,,,,,,,,,,,,,,,,,,,,,,,,,,,,,,,,,,,,,,,,,,,,,,,,,,,,,,,,,,,,,,,,,,,,,,,,,,,,,,,,,,,,,,,,,,,,,,
1763974595.948183,52829.0,0.0,4355.256348,4372.820313,4479.358887,4509.358887,4383.846191,4485.512695,4514.358887,4354.615234,4559.871582,4397.436035,4481.794922,4497.05127,4544.230957,4365.897461,4372.05127,4487.436035,4514.102539,4512.307617,4477.94873,4357.179688,4361.922852,4541.025879,4496.410156,4457.820313,4396.666504,4557.307617,4367.307617,4540.0,4493.589844,4378.461426,4507.692383,4477.436035,2852.0,1.0,18.0,2565.0,54242.0,,,,0.0,4.0,4.0,4.0,4.0,4.0,4.0,4.0,4.0,4.0,4.0,4.0,4.0,4.0,4.0,4.0,4.0,4.0,4.0,4.0,4.0,4.0,4.0,4.0,4.0,4.0,4.0,4.0,4.0,4.0,4.0,4.0,4.0,100.0,,,,,,,,,,,,,,,,,,,,,,,,,,,,,,,,,,,45975.0,0.0,0.562526,0.319885,0.246155,0.721558,0.958125,-0.251007,0.016115,33.833332,-22.166666,-26.166666,,,,,,,,,,,,,,,,,,,,,,,,,,,,,,,,,,,,,,,,,,,,,,,,,,,,,,,,,,,,,,,,,,,,,,,,,,,,,,,,,,,,,,,,,,,,,,,,,,,,,,,,,,,,,,,,,,,,,,,,,,,,,,,,,,,,,,,,,,,,,,,,,,,,,,,,,,,,,,,,
1763974595.952089,52830.0,0.0,4356.922852,4373.589844,4476.538574,4508.461426,4390.897461,4486.410156,4517.05127,4353.077148,4561.538574,4404.615234,4480.128418,4498.974121,4546.282227,4365.769043,4373.333496,4481.025879,4517.692383,4512.436035,4486.666504,4363.589844,4366.794922,4542.307617,4500.128418,4462.436035,4392.94873,4566.025879,4372.820313,4542.692383,4497.94873,4382.179688,4512.820313,4484.871582,3024.0,1.0,18.0,2566.0,54250.0,,,,0.0,4.0,4.0,4.0,4.0,4.0,4.0,4.0,4.0,4.0,4.0,4.0,4.0,4.0,4.0,4.0,4.0,4.0,4.0,4.0,4.0,4.0,4.0,4.0,4.0,4.0,4.0,4.0,4.0,4.0,4.0,4.0,4.0,100.0,,,,,,,,,,,,,,,,,,,,,,,,,,,,,,,,,,,,,,,,,,,,,,,,,,,,,,,,,,,,,,,,,,,,,,,,,,,,,,,,,,,,,,,,,,,,,,,,,,,,,,,,,,,,,,,,,,,,,,,,,,,,,,,,,,,,,,,,,,,,,,,,,,,,,,,,,,,,,,,,,,,,,,,,,,,,,,,,,,,,,,,,,,,,,,,,,,,,,,,,,,,,,,
1763974595.955995,52831.0,0.0,4361.153809,4377.307617,4479.615234,4505.0,4400.641113,4488.589844,4524.230957,4358.333496,4556.922852,4396.282227,4480.769043,4503.205078,4553.077148,4368.717773,4372.94873,4481.025879,4524.743652,4515.769043,4497.820313,4371.282227,4374.871582,4545.641113,4507.436035,4470.641113,4389.358887,4572.563965,4381.922852,4547.692383,4503.846191,4388.974121,4517.307617,4490.897461,2945.0,1.0,18.0,2566.0,54250.0,,,,0.0,4.0,4.0,4.0,4.0,4.0,4.0,4.0,4.0,4.0,4.0,4.0,4.0,4.0,4.0,4.0,4.0,4.0,4.0,4.0,4.0,4.0,4.0,4.0,4.0,4.0,4.0,4.0,4.0,4.0,4.0,4.0,4.0,100.0,,,,,,,,,,,,,,,,,,,,,,,,,,,,,,,,,,,,,,,,,,,,,,,,,,,,,,,,,,,,,,,,,,,,,,,,,,,,,,,,,,,,,,,,,,,,,,,,,,,,,,,,,,,,,,,,,,,,,,,,,,,,,,,,,,,,,,,,,,,,,,,,,,,,,,,,,,,,,,,,,,,,,,,,,,,,,,,,,,,,,,,,,,,,,,,,,,,,,,,,,,,,,,
1763974595.959901,52832.0,0.0,4367.692383,4383.846191,4487.307617,4503.846191,4408.974121,4492.179688,4535.128418,4368.717773,4552.05127,4377.820313,4484.615234,4509.743652,4563.205078,4374.615234,4372.692383,4490.0,4533.846191,4523.974121,4508.333496,4376.153809,4381.794922,4552.307617,4516.666504,4481.410156,4385.512695,4575.512695,4390.769043,4553.974121,4509.743652,4395.384766,4521.282227,4492.436035,2876.0,1.0,18.0,2567.0,54258.0,,,,0.0,4.0,4.0,4.0,4.0,4.0,4.0,4.0,4.0,4.0,4.0,4.0,4.0,4.0,4.0,4.0,4.0,4.0,4.0,4.0,4.0,4.0,4.0,4.0,4.0,4.0,4.0,4.0,4.0,4.0,4.0,4.0,4.0,100.0,,,,,,,,,,,,,,,,,,,,,,,,,,,,,,,,,,,,,,,,,,,,,,,,,,,,,,,,,,,,,,,,,,,,,,,,,,,,,,,,,,,,,,,,,,,,,,,,,,,,,,,,,,,,,,,,,,,,,,,,,,,,,,,,,,,,,,,,,,,,,,,,,,,,,,,,,,,,,,,,,,,,,,,,,,,,,,,,,,,,,,,,,,,,,,,,,,,,,,,,,,,,,,
1763974595.963807,52833.0,0.0,4372.563965,4388.589844,4494.358887,4507.05127,4410.384766,4494.230957,4543.846191,4377.563965,4551.282227,4361.025879,4488.974121,4515.128418,4570.897461,4380.128418,4372.692383,4502.179688,4541.025879,4533.846191,4515.384766,4374.358887,4382.307617,4559.102539,4523.077148,4488.846191,4379.615234,4573.717773,4395.0,4558.333496,4512.563965,4396.794922,4523.589844,4489.102539,2918.0,1.0,18.0,2567.0,54258.0,,,,0.0,4.0,4.0,4.0,4.0,4.0,4.0,4.0,4.0,4.0,4.0,4.0,4.0,4.0,4.0,4.0,4.0,4.0,4.0,4.0,4.0,4.0,4.0,4.0,4.0,4.0,4.0,4.0,4.0,4.0,4.0,4.0,4.0,100.0,,,,,,,,,,,,,,,,,,,,,,,,,,,,,,,,,,,45976.0,0.0,0.562493,0.319763,0.246033,0.72168,0.966915,-0.254914,-0.000977,31.0,-22.666666,-29.166666,,,,,,,,,,,,,,,,,,,,,,,,,,,,,,,,,,,,,,,,,,,,,,,,,,,,,,,,,,,,,,,,,,,,,,,,,,,,,,,,,,,,,,,,,,,,,,,,,,,,,,,,,,,,,,,,,,,,,,,,,,,,,,,,,,,,,,,,,,,,,,,,,,,,,,,,,,,,,,,,
1763974595.967713,52834.0,0.0,4371.666504,4387.436035,4495.512695,4511.922852,4403.205078,4491.922852,4543.974121,4378.717773,4554.487305,4356.922852,4489.230957,4514.615234,4571.538574,4382.94873,4373.205078,4509.487305,4542.692383,4539.743652,4517.563965,4367.563965,4375.769043,4561.025879,4522.563965,4487.179688,4372.692383,4567.692383,4393.077148,4558.077148,4510.0,4391.025879,4522.692383,4483.461426,2305.0,1.0,18.0,2568.0,54266.0,,,,0.0,4.0,4.0,4.0,4.0,4.0,4.0,4.0,4.0,4.0,4.0,4.0,4.0,4.0,4.0,4.0,4.0,4.0,4.0,4.0,4.0,4.0,4.0,4.0,4.0,4.0,4.0,4.0,4.0,4.0,4.0,4.0,4.0,100.0,,,,,,,,,,,,,,,,,,,,,,,,,,,,,,,,,,,,,,,,,,,,,,,,,,,,,,,,,,,,,,,,,,,,,,,,,,,,,,,,,,,,,,,,,,,,,,,,,,,,,,,,,,,,,,,,,,,,,,,,,,,,,,,,,,,,,,,,,,,,,,,,,,,,,,,,,,,,,,,,,,,,,,,,,,,,,,,,,,,,,,,,,,,,,,,,,,,,,,,,,,,,,,
1763974595.971619,52835.0,0.0,4364.743652,4380.0,4489.615234,4513.846191,4390.641113,4484.871582,4533.846191,4370.384766,4557.820313,4368.077148,4482.820313,4507.692383,4564.615234,4384.615234,4375.0,4508.589844,4538.205078,4538.461426,4514.358887,4361.153809,4366.666504,4555.128418,4515.0,4475.512695,4368.589844,4559.487305,4386.025879,4552.563965,4502.307617,4381.025879,4518.205078,4478.717773,2995.0,1.0,18.0,2568.0,54266.0,,,,0.0,4.0,4.0,4.0,4.0,4.0,4.0,4.0,4.0,4.0,4.0,4.0,4.0,4.0,4.0,4.0,4.0,4.0,4.0,4.0,4.0,4.0,4.0,4.0,4.0,4.0,4.0,4.0,4.0,4.0,4.0,4.0,4.0,100.0,,,,,,,,,,,,,,,,,,,,,,,,,,,,,,,,,,,,,,,,,,,,,,,,,,,,,,,,,,,,,,,,,,,,,,,,,,,,,,,,,,,,,,,,,,,,,,,,,,,,,,,,,,,,,,,,,,,,,,,,,,,,,,,,,,,,,,,,,,,,,,,,,,,,,,,,,,,,,,,,,,,,,,,,,,,,,,,,,,,,,,,,,,,,,,,,,,,,,,,,,,,,,,
