title:Happy2, start timestamp:1764666492.432466, stop timestamp:1764666507.665483, headset type:FLEX2, headset serial:F30002B4, headset firmware:2f10, channels:283, sampling rate:eeg_256;mot_64;pow_8, samples:3901      , version:2.2, ,,,,,,,,,,,,,,,,,,,,,,,,,,,,,,,,,,,,,,,,,,,,,,,,,,,,,,,,,,,,,,,,,,,,,,,,,,,,,,,,,,,,,,,,,,,,,,,,,,,,,,,,,,,,,,,,,,,,,,,,,,,,,,,,,,,,,,,,,,,,,,,,,,,,,,,,,,,,,,,,,,,,,,,,,,,,,,,,,,,,,,,,,,,,,,,,,,,,,,,,,,,,,,,,,,,,,,,,,,,,,,,,,,,,,,,,,,,,,,,,,,,,,,,,,,,,,,,,,,,,,,,,,,,,,,,,
Timestamp,EEG.Counter,EEG.Interpolated,EEG.Cz,EEG.Fz,EEG.Fp1,EEG.F7,EEG.F3,EEG.FC1,EEG.C3,EEG.FC5,EEG.FT9,EEG.T7,EEG.CP5,EEG.CP1,EEG.P3,EEG.P7,EEG.PO9,EEG.O1,EEG.Pz,EEG.Oz,EEG.O2,EEG.PO10,EEG.P8,EEG.P4,EEG.CP2,EEG.CP6,EEG.T8,EEG.FT10,EEG.FC6,EEG.C4,EEG.FC2,EEG.F4,EEG.F8,EEG.Fp2,EEG.RawCq,EEG.Battery,EEG.BatteryPercent,EEG.FwBufferSize,EEG.FwClockTime,MarkerIndex,MarkerType,MarkerValueInt,EEG.MarkerHardware,CQ.Cz,CQ.Fz,CQ.Fp1,CQ.F7,CQ.F3,CQ.FC1,CQ.C3,CQ.FC5,CQ.FT9,CQ.T7,CQ.CP5,CQ.CP1,CQ.P3,CQ.P7,CQ.PO9,CQ.O1,CQ.Pz,CQ.Oz,CQ.O2,CQ.PO10,CQ.P8,CQ.P4,CQ.CP2,CQ.CP6,CQ.T8,CQ.FT10,CQ.FC6,CQ.C4,CQ.FC2,CQ.F4,CQ.F8,CQ.Fp2,CQ.Overall,EQ.SampleRateQuality,EQ.OVERALL,EQ.Cz,EQ.Fz,EQ.Fp1,EQ.F7,EQ.F3,EQ.FC1,EQ.C3,EQ.FC5,EQ.FT9,EQ.T7,EQ.CP5,EQ.CP1,EQ.P3,EQ.P7,EQ.PO9,EQ.O1,EQ.Pz,EQ.Oz,EQ.O2,EQ.PO10,EQ.P8,EQ.P4,EQ.CP2,EQ.CP6,EQ.T8,EQ.FT10,EQ.FC6,EQ.C4,EQ.FC2,EQ.F4,EQ.F8,EQ.Fp2,MOT.CounterMems,MOT.InterpolatedMems,MOT.Q0,MOT.Q1,MOT.Q2,MOT.Q3,MOT.AccX,MOT.AccY,MOT.AccZ,MOT.MagX,MOT.MagY,MOT.MagZ,POW.Cz.Theta,POW.Cz.Alpha,POW.Cz.BetaL,POW.Cz.BetaH,POW.Cz.Gamma,POW.Fz.Theta,POW.Fz.Alpha,POW.Fz.BetaL,POW.Fz.BetaH,POW.Fz.Gamma,POW.Fp1.Theta,POW.Fp1.Alpha,POW.Fp1.BetaL,POW.Fp1.BetaH,POW.Fp1.Gamma,POW.F7.Theta,POW.F7.Alpha,POW.F7.BetaL,POW.F7.BetaH,POW.F7.Gamma,POW.F3.Theta,POW.F3.Alpha,POW.F3.BetaL,POW.F3.BetaH,POW.F3.Gamma,POW.FC1.Theta,POW.FC1.Alpha,POW.FC1.BetaL,POW.FC1.BetaH,POW.FC1.Gamma,POW.C3.Theta,POW.C3.Alpha,POW.C3.BetaL,POW.C3.BetaH,POW.C3.Gamma,POW.FC5.Theta,POW.FC5.Alpha,POW.FC5.BetaL,POW.FC5.BetaH,POW.FC5.Gamma,POW.FT9.Theta,POW.FT9.Alpha,POW.FT9.BetaL,POW.FT9.BetaH,POW.FT9.Gamma,POW.T7.Theta,POW.T7.Alpha,POW.T7.BetaL,POW.T7.BetaH,POW.T7.Gamma,POW.CP5.Theta,POW.CP5.Alpha,POW.CP5.BetaL,POW.CP5.BetaH,POW.CP5.Gamma,POW.CP1.Theta,POW.CP1.Alpha,POW.CP1.BetaL,POW.CP1.BetaH,POW.CP1.Gamma,POW.P3.Theta,POW.P3.Alpha,POW.P3.BetaL,POW.P3.BetaH,POW.P3.Gamma,POW.P7.Theta,POW.P7.Alpha,POW.P7.BetaL,POW.P7.BetaH,POW.P7.Gamma,POW.PO9.Theta,POW.PO9.Alpha,POW.PO9.BetaL,POW.PO9.BetaH,POW.PO9.Gamma,POW.O1.Theta,POW.O1.Alpha,POW.O1.BetaL,POW.O1.BetaH,POW.O1.Gamma,POW.Pz.Theta,POW.Pz.Alpha,POW.Pz.BetaL,POW.Pz.BetaH,POW.Pz.Gamma,POW.Oz.Theta,POW.Oz.Alpha,POW.Oz.BetaL,POW.Oz.BetaH,POW.Oz.Gamma,POW.O2.Theta,POW.O2.Alpha,POW.O2.BetaL,POW.O2.BetaH,POW.O2.Gamma,POW.PO10.Theta,POW.PO10.Alpha,POW.PO10.BetaL,POW.PO10.BetaH,POW.PO10.Gamma,POW.P8.Theta,POW.P8.Alpha,POW.P8.BetaL,POW.P8.BetaH,POW.P8.Gamma,POW.P4.Theta,POW.P4.Alpha,POW.P4.BetaL,POW.P4.BetaH,POW.P4.Gamma,POW.CP2.Theta,POW.CP2.Alpha,POW.CP2.BetaL,POW.CP2.BetaH,POW.CP2.Gamma,POW.CP6.Theta,POW.CP6.Alpha,POW.CP6.BetaL,POW.CP6.BetaH,POW.CP6.Gamma,POW.T8.Theta,POW.T8.Alpha,POW.T8.BetaL,POW.T8.BetaH,POW.T8.Gamma,POW.FT10.Theta,POW.FT10.Alpha,POW.FT10.BetaL,POW.FT10.BetaH,POW.FT10.Gamma,POW.FC6.Theta,POW.FC6.Alpha,POW.FC6.BetaL,POW.FC6.BetaH,POW.FC6.Gamma,POW.C4.Theta,POW.C4.Alpha,POW.C4.BetaL,POW.C4.BetaH,POW.C4.Gamma,POW.FC2.Theta,POW.FC2.Alpha,POW.FC2.BetaL,POW.FC2.BetaH,POW.FC2.Gamma,POW.F4.Theta,POW.F4.Alpha,POW.F4.BetaL,POW.F4.BetaH,POW.F4.Gamma,POW.F8.Theta,POW.F8.Alpha,POW.F8.BetaL,POW.F8.BetaH,POW.F8.Gamma,POW.Fp2.Theta,POW.Fp2.Alpha,POW.Fp2.BetaL,POW.Fp2.BetaH,POW.Fp2.Gamma
1764666498.783313,40891,0,4429.102539,4446.666504,4557.307617,4583.717773,4435.384766,4562.05127,4598.461426,4443.333496,4636.538574,4376.538574,4521.538574,4552.436035,4597.820313,4405,4424.615234,4523.589844,4577.436035,4579.487305,4542.05127,4432.179688,4407.179688,4605,4546.410156,4544.358887,4389.230957,4590.512695,4447.307617,4605.641113,4552.05127,4439.358887,4573.205078,4545.641113,2643,1,19,2571,64563,1,1,1,0,4,4,4,4,4,4,4,4,4,4,4,4,4,4,4,4,4,4,4,4,4,4,4,4,4,4,4,4,4,4,4,4,100,,,,,,,,,,,,,,,,,,,,,,,,,,,,,,,,,,,,,,,,,,,,,,,,,,,,,,,,,,,,,,,,,,,,,,,,,,,,,,,,,,,,,,,,,,,,,,,,,,,,,,,,,,,,,,,,,,,,,,,,,,,,,,,,,,,,,,,,,,,,,,,,,,,,,,,,,,,,,,,,,,,,,,,,,,,,,,,,,,,,,,,,,,,,,,,,,,,,,,,,,,,,,,
1764666498.787219,40892,0,4418.333496,4433.974121,4541.922852,4570.512695,4426.666504,4549.871582,4583.461426,4428.589844,4629.102539,4407.05127,4506.410156,4541.922852,4589.487305,4400.128418,4416.666504,4520.641113,4566.538574,4574.230957,4539.743652,4421.538574,4404.358887,4587.307617,4531.666504,4523.333496,4399.871582,4588.077148,4427.179688,4587.820313,4542.820313,4425.641113,4560.897461,4538.461426,2738,1,19,2572,64571,,,,0,4,4,4,4,4,4,4,4,4,4,4,4,4,4,4,4,4,4,4,4,4,4,4,4,4,4,4,4,4,4,4,4,100,,,,,,,,,,,,,,,,,,,,,,,,,,,,,,,,,,,,,,,,,,,,,,,,,,,,,,,,,,,,,,,,,,,,,,,,,,,,,,,,,,,,,,,,,,,,,,,,,,,,,,,,,,,,,,,,,,,,,,,,,,,,,,,,,,,,,,,,,,,,,,,,,,,,,,,,,,,,,,,,,,,,,,,,,,,,,,,,,,,,,,,,,,,,,,,,,,,,,,,,,,,,,,
1764666498.791125,40893,0,4416.282227,4431.025879,4539.743652,4566.922852,4424.102539,4546.538574,4576.538574,4425.641113,4630.128418,4436.410156,4501.794922,4541.410156,4590.128418,4400.384766,4416.922852,4520.128418,4564.230957,4573.717773,4538.077148,4417.05127,4407.179688,4584.871582,4528.461426,4517.307617,4421.538574,4598.333496,4417.563965,4580.128418,4538.589844,4422.820313,4555,4537.05127,2582,1,19,2572,64571,,,,0,4,4,4,4,4,4,4,4,4,4,4,4,4,4,4,4,4,4,4,4,4,4,4,4,4,4,4,4,4,4,4,4,100,,,,,,,,,,,,,,,,,,,,,,,,,,,,,,,,,,,42991,0,0.501734,-0.392883,-0.287476,0.715027,0.967403,-0.332072,-0.02051,4.833333,43,-21.166666,,,,,,,,,,,,,,,,,,,,,,,,,,,,,,,,,,,,,,,,,,,,,,,,,,,,,,,,,,,,,,,,,,,,,,,,,,,,,,,,,,,,,,,,,,,,,,,,,,,,,,,,,,,,,,,,,,,,,,,,,,,,,,,,,,,,,,,,,,,,,,,,,,,,,,,,,,,,,,,,
1764666498.795031,40894,0,4421.153809,4435.641113,4547.436035,4571.282227,4424.743652,4550.769043,4577.307617,4431.025879,4635.897461,4437.563965,4506.666504,4547.563965,4596.538574,4402.820313,4422.820313,4522.94873,4570.128418,4578.461426,4539.871582,4418.589844,4411.666504,4595,4535.641113,4525.384766,4420.384766,4608.974121,4425.256348,4586.538574,4540.384766,4428.846191,4556.025879,4538.717773,2710,1,19,2573,64578,,,,0,4,4,4,4,4,4,4,4,4,4,4,4,4,4,4,4,4,4,4,4,4,4,4,4,4,4,4,4,4,4,4,4,100,,,,,,,,,,,,,,,,,,,,,,,,,,,,,,,,,,,,,,,,,,,,,,,,,,,,,,,,,,,,,,,,,,,,,,,,,,,,,,,,,,,,,,,,,,,,,,,,,,,,,,,,,,,,,,,,,,,,,,,,,,,,,,,,,,,,,,,,,,,,,,,,,,,,,,,,,,,,,,,,,,,,,,,,,,,,,,,,,,,,,,,,,,,,,,,,,,,,,,,,,,,,,,
1764666498.798937,40895,0,4425.384766,4439.743652,4552.692383,4574.230957,4424.615234,4555,4580,4435,4639.487305,4405.256348,4513.461426,4551.538574,4600.641113,4402.563965,4426.922852,4526.666504,4576.794922,4583.461426,4544.358887,4422.563965,4413.846191,4605,4544.102539,4535.769043,4381.922852,4607.307617,4441.922852,4599.615234,4544.487305,4435.128418,4559.487305,4536.794922,2830,1,19,2573,64578,,,,0,4,4,4,4,4,4,4,4,4,4,4,4,4,4,4,4,4,4,4,4,4,4,4,4,4,4,4,4,4,4,4,4,100,,,,,,,,,,,,,,,,,,,,,,,,,,,,,,,,,,,,,,,,,,,,,,,,,,,,,,,,,,,,,,,,,,,,,,,,,,,,,,,,,,,,,,,,,,,,,,,,,,,,,,,,,,,,,,,,,,,,,,,,,,,,,,,,,,,,,,,,,,,,,,,,,,,,,,,,,,,,,,,,,,,,,,,,,,,,,,,,,,,,,,,,,,,,,,,,,,,,,,,,,,,,,,
1764666498.802843,40896,0,4423.333496,4437.563965,4546.282227,4568.589844,4423.077148,4552.94873,4578.846191,4429.871582,4635.128418,4362.436035,4514.615234,4548.205078,4596.410156,4398.589844,4425.128418,4528.589844,4576.922852,4583.974121,4548.717773,4426.025879,4414.230957,4604.615234,4545.256348,4536.538574,4329.743652,4592.94873,4451.666504,4607.563965,4545.641113,4434.487305,4559.743652,4528.589844,2767,1,19,2574,64586,,,,0,4,4,4,4,4,4,4,4,4,4,4,4,4,4,4,4,4,4,4,4,4,4,4,4,4,4,4,4,4,4,4,4,100,,,,,,,,,,,,,,,,,,,,,,,,,,,,,,,,,,,,,,,,,,,,,,,,,,,,,,,,,,,,,,,,,,,,,,,,,,,,,,,,,,,,,,,,,,,,,,,,,,,,,,,,,,,,,,,,,,,,,,,,,,,,,,,,,,,,,,,,,,,,,,,,,,,,,,,,,,,,,,,,,,,,,,,,,,,,,,,,,,,,,,,,,,,,,,,,,,,,,,,,,,,,,,
1764666498.806749,40897,0,4416.666504,4431.025879,4530.512695,4557.307617,4423.589844,4545.512695,4573.846191,4418.589844,4624.358887,4341.153809,4509.358887,4540.384766,4585.641113,4395.256348,4420.128418,4527.94873,4571.025879,4580.384766,4550,4429.487305,4418.077148,4595.256348,4538.846191,4527.179688,4310.512695,4579.487305,4444.743652,4604.871582,4542.94873,4427.436035,4555.769043,4517.692383,2953,1,19,2574,64586,,,,0,4,4,4,4,4,4,4,4,4,4,4,4,4,4,4,4,4,4,4,4,4,4,4,4,4,4,4,4,4,4,4,4,100,,,,,,,,,,,,,,,,,,,,,,,,,,,,,,,,,,,42992,0,0.501204,-0.39325,-0.287292,0.715271,0.950311,-0.322793,-0.009767,2.833333,43,-23.666666,,,,,,,,,,,,,,,,,,,,,,,,,,,,,,,,,,,,,,,,,,,,,,,,,,,,,,,,,,,,,,,,,,,,,,,,,,,,,,,,,,,,,,,,,,,,,,,,,,,,,,,,,,,,,,,,,,,,,,,,,,,,,,,,,,,,,,,,,,,,,,,,,,,,,,,,,,,,,,,,
1764666498.810655,40898,1,4418.128418,4432.282227,4531.461426,4560.820313,4428.307617,4545.410156,4575.897461,4422.820313,4633.153809,4360.282227,4511.743652,4540.922852,4587.512695,4403,4423.077148,4526.615234,4571.974121,4579.512695,4547.512695,4431.05127,4425.153809,4598.769043,4539.077148,4530.974121,4347.769043,4584.743652,4437.282227,4600.717773,4543.230957,4427.922852,4555.615234,4520.589844,0,1,19,0,0,,,,0,4,4,4,4,4,4,4,4,4,4,4,4,4,4,4,4,4,4,4,4,4,4,4,4,4,4,4,4,4,4,4,4,100,,,,,,,,,,,,,,,,,,,,,,,,,,,,,,,,,,,,,,,,,,,,,,,,,,,,,,,,,,,,,,,,,,,,,,,,,,,,,,,,,,,,,,,,,,,,,,,,,,,,,,,,,,,,,,,,,,,,,,,,,,,,,,,,,,,,,,,,,,,,,,,,,,,,,,,,,,,,,,,,,,,,,,,,,,,,,,,,,,,,,,,,,,,,,,,,,,,,,,,,,,,,,,
1764666498.814561,40899,1,4419.589844,4433.538574,4532.410156,4564.333496,4433.025879,4545.307617,4577.94873,4427.05127,4641.94873,4379.410156,4514.128418,4541.461426,4589.384766,4410.743652,4426.025879,4525.282227,4572.922852,4578.641113,4545.025879,4432.615234,4432.230957,4602.282227,4539.307617,4534.769043,4385.025879,4590,4429.820313,4596.563965,4543.512695,4428.410156,4555.461426,4523.487305,0,1,19,0,0,,,,0,4,4,4,4,4,4,4,4,4,4,4,4,4,4,4,4,4,4,4,4,4,4,4,4,4,4,4,4,4,4,4,4,100,,,,,,,,,,,,,,,,,,,,,,,,,,,,,,,,,,,,,,,,,,,,,,,,,,,,,,,,,,,,,,,,,,,,,,,,,,,,,,,,,,,,,,,,,,,,,,,,,,,,,,,,,,,,,,,,,,,,,,,,,,,,,,,,,,,,,,,,,,,,,,,,,,,,,,,,,,,,,,,,,,,,,,,,,,,,,,,,,,,,,,,,,,,,,,,,,,,,,,,,,,,,,,
1764666498.818467,40900,1,4421.05127,4434.794922,4533.358887,4567.846191,4437.743652,4545.205078,4580,4431.282227,4650.743652,4398.538574,4516.512695,4542,4591.256348,4418.487305,4428.974121,4523.94873,4573.871582,4577.769043,4542.538574,4434.179688,4439.307617,4605.794922,4539.538574,4538.563965,4422.282227,4595.256348,4422.358887,4592.410156,4543.794922,4428.897461,4555.307617,4526.384766,0,1,19,0,0,,,,0,4,4,4,4,4,4,4,4,4,4,4,4,4,4,4,4,4,4,4,4,4,4,4,4,4,4,4,4,4,4,4,4,100,,,,,,,,,,,,,,,,,,,,,,,,,,,,,,,,,,,,,,,,,,,,,,,2.181507,0.954479,1.619197,0.861617,0.671887,4.104257,1.371779,1.750089,1.16354,0.798527,5.20263,3.053288,4.950066,2.20194,2.345221,2.104337,1.770607,2.556756,1.849335,1.273777,3.018323,1.093611,1.852013,1.456077,0.86883,2.670809,1.571974,1.273978,1.008873,0.518713,1.304933,1.166881,1.138108,1.066959,0.625776,2.316316,1.132079,1.089517,1.424002,0.729895,0.896484,1.110157,2.307647,0.96058,0.675456,1.445747,1.471481,4.743316,3.68827,3.627806,1.335791,0.678658,1.002419,0.608372,0.616663,1.426434,0.890174,1.352761,0.837118,0.796779,0.590953,0.975998,0.91812,0.896079,0.532742,0.887085,0.335383,0.918424,0.545211,0.39887,1.138097,1.256911,0.594368,0.477682,0.623845,0.246694,0.347231,0.165404,0.206956,0.189275,1.142409,1.401951,1.093757,1.027174,0.929545,1.173518,2.669935,1.062413,1.975606,2.229827,0.846367,2.105038,1.573744,1.734823,2.030006,1.14019,1.26586,0.732783,0.86944,1.239674,1.127682,1.972069,1.001677,1.700663,1.618396,1.533551,1.683874,1.328904,1.446176,1.345499,2.101003,0.915424,1.075787,1.013483,0.641063,2.917246,2.032318,1.773585,1.154093,1.189806,5.829113,6.612442,8.137694,6.663634,5.079725,3.257008,1.408249,1.104239,0.966219,0.689149,3.441748,1.777845,1.887639,1.832867,1.160669,2.592896,1.545393,1.342676,1.367582,1.056773,1.253176,0.626235,0.814274,0.570118,0.399409,3.909348,1.833512,1.885107,1.292543,0.941978,4.268366,1.929487,2.649163,2.496825,1.796176,4.265036,2.108911,4.133801,2.308865,2.545605
1764666498.822373,40901,1,4422.512695,4436.05127,4534.307617,4571.358887,4442.461426,4545.102539,4582.05127,4435.512695,4659.538574,4417.666504,4518.897461,4542.538574,4593.128418,4426.230957,4431.922852,4522.615234,4574.820313,4576.897461,4540.05127,4435.743652,4446.384766,4609.307617,4539.769043,4542.358887,4459.538574,4600.512695,4414.897461,4588.256348,4544.077148,4429.384766,4555.153809,4529.282227,0,1,19,0,0,,,,0,4,4,4,4,4,4,4,4,4,4,4,4,4,4,4,4,4,4,4,4,4,4,4,4,4,4,4,4,4,4,4,4,100,,,,,,,,,,,,,,,,,,,,,,,,,,,,,,,,,,,,,,,,,,,,,,,,,,,,,,,,,,,,,,,,,,,,,,,,,,,,,,,,,,,,,,,,,,,,,,,,,,,,,,,,,,,,,,,,,,,,,,,,,,,,,,,,,,,,,,,,,,,,,,,,,,,,,,,,,,,,,,,,,,,,,,,,,,,,,,,,,,,,,,,,,,,,,,,,,,,,,,,,,,,,,,
1764666498.826279,40902,0,4423.974121,4437.307617,4535.256348,4574.871582,4447.179688,4545,4584.102539,4439.743652,4668.333496,4436.794922,4521.282227,4543.077148,4595,4433.974121,4434.871582,4521.282227,4575.769043,4576.025879,4537.563965,4437.307617,4453.461426,4612.820313,4540,4546.153809,4496.794922,4605.769043,4407.436035,4584.102539,4544.358887,4429.871582,4555,4532.179688,2812,1,19,2576,64610,,,,0,4,4,4,4,4,4,4,4,4,4,4,4,4,4,4,4,4,4,4,4,4,4,4,4,4,4,4,4,4,4,4,4,100,,,,,,,,,,,,,,,,,,,,,,,,,,,,,,,,,,,,,,,,,,,,,,,,,,,,,,,,,,,,,,,,,,,,,,,,,,,,,,,,,,,,,,,,,,,,,,,,,,,,,,,,,,,,,,,,,,,,,,,,,,,,,,,,,,,,,,,,,,,,,,,,,,,,,,,,,,,,,,,,,,,,,,,,,,,,,,,,,,,,,,,,,,,,,,,,,,,,,,,,,,,,,,
1764666498.830185,40903,0,4416.282227,4427.692383,4525,4563.974121,4441.282227,4538.589844,4577.436035,4430.256348,4663.589844,4433.589844,4521.025879,4536.410156,4596.025879,4431.025879,4427.436035,4519.615234,4570.256348,4570.769043,4537.820313,4430.769043,4436.025879,4608.589844,4536.025879,4540.897461,4402.436035,4584.615234,4413.589844,4586.794922,4542.05127,4428.461426,4554.615234,4524.871582,2987,1,19,2576,64610,,,,0,4,4,4,4,4,4,4,4,4,4,4,4,4,4,4,4,4,4,4,4,4,4,4,4,4,4,4,4,4,4,4,4,100,,,,,,,,,,,,,,,,,,,,,,,,,,,,,,,,,,,,,,,,,,,,,,,,,,,,,,,,,,,,,,,,,,,,,,,,,,,,,,,,,,,,,,,,,,,,,,,,,,,,,,,,,,,,,,,,,,,,,,,,,,,,,,,,,,,,,,,,,,,,,,,,,,,,,,,,,,,,,,,,,,,,,,,,,,,,,,,,,,,,,,,,,,,,,,,,,,,,,,,,,,,,,,
1764666498.834091,40904,0,4415,4426.922852,4517.692383,4561.666504,4444.230957,4540.384766,4580.897461,4430.256348,4648.717773,4430.384766,4526.666504,4537.563965,4600,4430.897461,4426.410156,4520.384766,4570.769043,4570.641113,4539.871582,4429.743652,4421.922852,4607.94873,4537.436035,4537.94873,4328.717773,4576.153809,4420.769043,4594.743652,4542.307617,4431.153809,4557.692383,4519.743652,2901,1,19,2576,64617,,,,0,4,4,4,4,4,4,4,4,4,4,4,4,4,4,4,4,4,4,4,4,4,4,4,4,4,4,4,4,4,4,4,4,100,,,,,,,,,,,,,,,,,,,,,,,,,,,,,,,,,,,,,,,,,,,,,,,,,,,,,,,,,,,,,,,,,,,,,,,,,,,,,,,,,,,,,,,,,,,,,,,,,,,,,,,,,,,,,,,,,,,,,,,,,,,,,,,,,,,,,,,,,,,,,,,,,,,,,,,,,,,,,,,,,,,,,,,,,,,,,,,,,,,,,,,,,,,,,,,,,,,,,,,,,,,,,,
1764666498.837997,40905,0,4425.128418,4440.384766,4525.256348,4576.794922,4458.589844,4555,4600.897461,4450.128418,4639.487305,4421.282227,4541.922852,4550.256348,4611.025879,4436.922852,4436.922852,4523.974121,4582.179688,4579.487305,4544.230957,4435.641113,4415.128418,4617.307617,4548.077148,4545.897461,4314.102539,4588.589844,4433.461426,4609.615234,4548.333496,4441.538574,4565.512695,4522.94873,2720,1,19,2576,64617,,,,0,4,4,4,4,4,4,4,4,4,4,4,4,4,4,4,4,4,4,4,4,4,4,4,4,4,4,4,4,4,4,4,4,100,,,,,,,,,,,,,,,,,,,,,,,,,,,,,,,,,,,42994,0,0.500899,-0.393127,-0.287231,0.715576,0.88878,-0.349652,-0.014162,4.666667,44,-23.5,,,,,,,,,,,,,,,,,,,,,,,,,,,,,,,,,,,,,,,,,,,,,,,,,,,,,,,,,,,,,,,,,,,,,,,,,,,,,,,,,,,,,,,,,,,,,,,,,,,,,,,,,,,,,,,,,,,,,,,,,,,,,,,,,,,,,,,,,,,,,,,,,,,,,,,,,,,,,,,,
1764666498.841903,40906,0,4441.153809,4460.769043,4546.153809,4601.282227,4476.025879,4575.128418,4628.717773,4480.897461,4646.794922,4402.307617,4561.153809,4568.333496,4625.641113,4444.743652,4452.692383,4528.717773,4599.102539,4593.461426,4549.230957,4444.102539,4412.94873,4633.205078,4562.563965,4563.205078,4360,4614.230957,4450.897461,4626.153809,4557.820313,4455,4573.974121,4532.692383,701,1,19,2576,64625,,,,0,4,4,4,4,4,4,4,4,4,4,4,4,4,4,4,4,4,4,4,4,4,4,4,4,4,4,4,4,4,4,4,4,100,,,,,,,,,,,,,,,,,,,,,,,,,,,,,,,,,,,,,,,,,,,,,,,,,,,,,,,,,,,,,,,,,,,,,,,,,,,,,,,,,,,,,,,,,,,,,,,,,,,,,,,,,,,,,,,,,,,,,,,,,,,,,,,,,,,,,,,,,,,,,,,,,,,,,,,,,,,,,,,,,,,,,,,,,,,,,,,,,,,,,,,,,,,,,,,,,,,,,,,,,,,,,,
1764666498.845809,40907,0,4450.641113,4473.589844,4566.153809,4615.769043,4482.94873,4586.538574,4645.512695,4500.769043,4666.794922,4381.153809,4572.820313,4579.230957,4634.743652,4446.025879,4461.410156,4531.025879,4609.743652,4602.820313,4552.179688,4448.333496,4410.769043,4644.615234,4570.128418,4578.846191,4439.615234,4636.153809,4463.589844,4634.230957,4563.461426,4462.436035,4577.05127,4541.794922,2704,1,19,2576,64625,,,,0,4,4,4,4,4,4,4,4,4,4,4,4,4,4,4,4,4,4,4,4,4,4,4,4,4,4,4,4,4,4,4,4,100,,,,,,,,,,,,,,,,,,,,,,,,,,,,,,,,,,,,,,,,,,,,,,,,,,,,,,,,,,,,,,,,,,,,,,,,,,,,,,,,,,,,,,,,,,,,,,,,,,,,,,,,,,,,,,,,,,,,,,,,,,,,,,,,,,,,,,,,,,,,,,,,,,,,,,,,,,,,,,,,,,,,,,,,,,,,,,,,,,,,,,,,,,,,,,,,,,,,,,,,,,,,,,
1764666498.849715,40908,1,4439.700684,4463.888672,4562.521484,4598.760742,4467.820313,4574.401855,4628.119629,4481.794922,4672.94873,4391.709473,4562.05127,4568.675293,4625.726563,4431.453125,4449.829102,4527.820313,4600.085449,4596.751953,4550.683594,4445.042969,4412.265137,4634.914551,4559.529785,4570.98291,4470.769043,4631.880371,4453.418945,4620.512695,4556.96582,4456.538574,4576.196777,4544.187988,0,1,19,0,0,,,,0,4,4,4,4,4,4,4,4,4,4,4,4,4,4,4,4,4,4,4,4,4,4,4,4,4,4,4,4,4,4,4,4,100,,,,,,,,,,,,,,,,,,,,,,,,,,,,,,,,,,,,,,,,,,,,,,,,,,,,,,,,,,,,,,,,,,,,,,,,,,,,,,,,,,,,,,,,,,,,,,,,,,,,,,,,,,,,,,,,,,,,,,,,,,,,,,,,,,,,,,,,,,,,,,,,,,,,,,,,,,,,,,,,,,,,,,,,,,,,,,,,,,,,,,,,,,,,,,,,,,,,,,,,,,,,,,
1764666498.853621,40909,1,4428.760742,4454.187988,4558.888672,4581.751953,4452.692383,4562.265137,4610.726563,4462.820313,4679.102539,4402.265137,4551.282227,4558.119629,4616.709473,4416.880371,4438.248047,4524.615234,4590.427246,4590.683594,4549.187988,4441.751953,4413.760742,4625.213867,4548.931641,4563.119629,4501.922852,4627.606934,4443.248047,4606.794922,4550.470215,4450.641113,4575.341797,4546.581055,0,1,19,0,0,,,,0,4,4,4,4,4,4,4,4,4,4,4,4,4,4,4,4,4,4,4,4,4,4,4,4,4,4,4,4,4,4,4,4,100,,,,,,,,,,,,,,,,,,,,,,,,,,,,,,,,,,,,,,,,,,,,,,,,,,,,,,,,,,,,,,,,,,,,,,,,,,,,,,,,,,,,,,,,,,,,,,,,,,,,,,,,,,,,,,,,,,,,,,,,,,,,,,,,,,,,,,,,,,,,,,,,,,,,,,,,,,,,,,,,,,,,,,,,,,,,,,,,,,,,,,,,,,,,,,,,,,,,,,,,,,,,,,
1764666498.857527,40910,0,4417.820313,4444.487305,4555.256348,4564.743652,4437.563965,4550.128418,4593.333496,4443.846191,4685.256348,4412.820313,4540.512695,4547.563965,4607.692383,4402.307617,4426.666504,4521.410156,4580.769043,4584.615234,4547.692383,4438.461426,4415.256348,4615.512695,4538.333496,4555.256348,4533.077148,4623.333496,4433.077148,4593.077148,4543.974121,4444.743652,4574.487305,4548.974121,2713,1,19,2576,64641,,,,0,4,4,4,4,4,4,4,4,4,4,4,4,4,4,4,4,4,4,4,4,4,4,4,4,4,4,4,4,4,4,4,4,100,,,,,,,,,,,,,,,,,,,,,,,,,,,,,,,,,,,,,,,,,,,,,,,,,,,,,,,,,,,,,,,,,,,,,,,,,,,,,,,,,,,,,,,,,,,,,,,,,,,,,,,,,,,,,,,,,,,,,,,,,,,,,,,,,,,,,,,,,,,,,,,,,,,,,,,,,,,,,,,,,,,,,,,,,,,,,,,,,,,,,,,,,,,,,,,,,,,,,,,,,,,,,,
1764666498.861433,40911,0,4414.102539,4442.05127,4553.461426,4563.077148,4433.589844,4546.794922,4584.743652,4435.769043,4670.128418,4432.436035,4534.358887,4541.282227,4599.615234,4394.358887,4424.743652,4522.692383,4576.410156,4584.743652,4549.871582,4441.666504,4423.974121,4605.897461,4534.358887,4539.487305,4461.410156,4612.436035,4432.179688,4590.512695,4542.563965,4447.820313,4585.384766,4553.974121,2498,1,19,2576,64641,,,,0,4,4,4,4,4,4,4,4,4,4,4,4,4,4,4,4,4,4,4,4,4,4,4,4,4,4,4,4,4,4,4,4,100,,,,,,,,,,,,,,,,,,,,,,,,,,,,,,,,,,,,,,,,,,,,,,,,,,,,,,,,,,,,,,,,,,,,,,,,,,,,,,,,,,,,,,,,,,,,,,,,,,,,,,,,,,,,,,,,,,,,,,,,,,,,,,,,,,,,,,,,,,,,,,,,,,,,,,,,,,,,,,,,,,,,,,,,,,,,,,,,,,,,,,,,,,,,,,,,,,,,,,,,,,,,,,
1764666498.865339,40912,0,4416.794922,4445.512695,4557.563965,4575.769043,4437.692383,4550.512695,4588.461426,4442.436035,4653.846191,4428.333496,4535.256348,4540.641113,4595.512695,4396.025879,4430.512695,4527.563965,4578.461426,4590.512695,4552.05127,4445.512695,4428.077148,4601.666504,4535.512695,4527.820313,4372.05127,4603.589844,4444.871582,4599.230957,4545,4453.461426,4594.487305,4555.512695,2880,1,19,2572,64649,,,,0,4,4,4,4,4,4,4,4,4,4,4,4,4,4,4,4,4,4,4,4,4,4,4,4,4,4,4,4,4,4,4,4,100,,,,,,,,,,,,,,,,,,,,,,,,,,,,,,,,,,,,,,,,,,,,,,,,,,,,,,,,,,,,,,,,,,,,,,,,,,,,,,,,,,,,,,,,,,,,,,,,,,,,,,,,,,,,,,,,,,,,,,,,,,,,,,,,,,,,,,,,,,,,,,,,,,,,,,,,,,,,,,,,,,,,,,,,,,,,,,,,,,,,,,,,,,,,,,,,,,,,,,,,,,,,,,
1764666498.869245,40913,0,4417.94873,4445.897461,4559.230957,4587.563965,4440.512695,4550.897461,4592.05127,4449.487305,4642.820313,4403.461426,4535.641113,4539.743652,4591.666504,4404.743652,4434.871582,4532.692383,4579.615234,4595.256348,4551.538574,4445.512695,4425.641113,4599.230957,4535.128418,4520.769043,4316.538574,4596.794922,4458.461426,4608.077148,4545.256348,4453.333496,4593.077148,4549.358887,2883,1,19,2572,64649,,,,0,4,4,4,4,4,4,4,4,4,4,4,4,4,4,4,4,4,4,4,4,4,4,4,4,4,4,4,4,4,4,4,4,100,,,,,,,,,,,,,,,,,,,,,,,,,,,,,,,,,,,42996,0,0.501233,-0.393188,-0.287781,0.715088,0.978635,-0.333048,-0.009767,5,44.333332,-21.833334,,,,,,,,,,,,,,,,,,,,,,,,,,,,,,,,,,,,,,,,,,,,,,,,,,,,,,,,,,,,,,,,,,,,,,,,,,,,,,,,,,,,,,,,,,,,,,,,,,,,,,,,,,,,,,,,,,,,,,,,,,,,,,,,,,,,,,,,,,,,,,,,,,,,,,,,,,,,,,,,
1764666498.873151,40914,0,4413.077148,4438.974121,4553.461426,4587.436035,4436.794922,4543.077148,4585.512695,4445,4641.666504,4380.256348,4530,4536.282227,4586.922852,4417.05127,4433.077148,4534.615234,4576.538574,4596.025879,4549.230957,4442.307617,4422.307617,4597.692383,4530.512695,4519.358887,4334.487305,4595.641113,4458.717773,4607.692383,4540.384766,4445.512695,4581.922852,4538.333496,1732,1,19,2570,64657,,,,0,4,4,4,4,4,4,4,4,4,4,4,4,4,4,4,4,4,4,4,4,4,4,4,4,4,4,4,4,4,4,4,4,100,,,,,,,,,,,,,,,,,,,,,,,,,,,,,,,,,,,,,,,,,,,,,,,,,,,,,,,,,,,,,,,,,,,,,,,,,,,,,,,,,,,,,,,,,,,,,,,,,,,,,,,,,,,,,,,,,,,,,,,,,,,,,,,,,,,,,,,,,,,,,,,,,,,,,,,,,,,,,,,,,,,,,,,,,,,,,,,,,,,,,,,,,,,,,,,,,,,,,,,,,,,,,,
1764666498.877057,40915,0,4405.512695,4428.717773,4543.846191,4577.692383,4430,4531.666504,4570.256348,4430.384766,4650.128418,4381.794922,4520.384766,4533.974121,4583.205078,4430,4428.846191,4533.205078,4572.05127,4594.358887,4548.205078,4441.794922,4425.897461,4599.871582,4525.512695,4525,4420.128418,4605.128418,4442.692383,4598.077148,4532.94873,4436.282227,4570.897461,4531.410156,2842,1,19,2570,64657,,,,0,4,4,4,4,4,4,4,4,4,4,4,4,4,4,4,4,4,4,4,4,4,4,4,4,4,4,4,4,4,4,4,4,100,,,,,,,,,,,,,,,,,,,,,,,,,,,,,,,,,,,,,,,,,,,,,,,,,,,,,,,,,,,,,,,,,,,,,,,,,,,,,,,,,,,,,,,,,,,,,,,,,,,,,,,,,,,,,,,,,,,,,,,,,,,,,,,,,,,,,,,,,,,,,,,,,,,,,,,,,,,,,,,,,,,,,,,,,,,,,,,,,,,,,,,,,,,,,,,,,,,,,,,,,,,,,,
1764666498.880963,40916,0,4402.05127,4423.205078,4538.846191,4570,4427.94873,4526.025879,4557.692383,4418.589844,4662.307617,4411.794922,4514.230957,4537.179688,4583.974121,4441.025879,4429.615234,4530.512695,4572.179688,4593.205078,4549.358887,4447.179688,4438.974121,4607.692383,4525.641113,4536.025879,4518.717773,4624.743652,4420.897461,4588.205078,4528.717773,4433.846191,4570.256348,4535.769043,2556,1,19,2571,64664,,,,0,4,4,4,4,4,4,4,4,4,4,4,4,4,4,4,4,4,4,4,4,4,4,4,4,4,4,4,4,4,4,4,4,100,,,,,,,,,,,,,,,,,,,,,,,,,,,,,,,,,,,,,,,,,,,,,,,,,,,,,,,,,,,,,,,,,,,,,,,,,,,,,,,,,,,,,,,,,,,,,,,,,,,,,,,,,,,,,,,,,,,,,,,,,,,,,,,,,,,,,,,,,,,,,,,,,,,,,,,,,,,,,,,,,,,,,,,,,,,,,,,,,,,,,,,,,,,,,,,,,,,,,,,,,,,,,,
1764666498.884869,40917,0,4406.794922,4426.922852,4543.974121,4574.615234,4435.128418,4530.897461,4558.846191,4421.794922,4670.512695,4449.871582,4517.05127,4546.153809,4589.487305,4447.436035,4438.205078,4529.230957,4578.717773,4593.717773,4550.641113,4455.769043,4455,4619.358887,4532.94873,4547.692383,4561.025879,4646.666504,4409.358887,4587.05127,4531.282227,4440.512695,4581.282227,4550.512695,2828,1,19,2571,64664,,,,0,4,4,4,4,4,4,4,4,4,4,4,4,4,4,4,4,4,4,4,4,4,4,4,4,4,4,4,4,4,4,4,4,100,,,,,,,,,,,,,,,,,,,,,,,,,,,,,,,,,,,42997,0,0.499658,-0.394104,-0.287598,0.715759,0.880479,-0.339885,-0.030765,4.166667,43.5,-22.666666,,,,,,,,,,,,,,,,,,,,,,,,,,,,,,,,,,,,,,,,,,,,,,,,,,,,,,,,,,,,,,,,,,,,,,,,,,,,,,,,,,,,,,,,,,,,,,,,,,,,,,,,,,,,,,,,,,,,,,,,,,,,,,,,,,,,,,,,,,,,,,,,,,,,,,,,,,,,,,,,
1764666498.888775,40918,0,4417.05127,4437.436035,4557.179688,4590.512695,4448.461426,4542.94873,4575.128418,4440.384766,4671.922852,4465.897461,4527.692383,4556.282227,4597.307617,4447.692383,4449.871582,4531.153809,4587.94873,4596.282227,4551.282227,4460.512695,4463.974121,4628.717773,4543.846191,4554.487305,4514.871582,4658.717773,4416.794922,4596.922852,4539.358887,4451.282227,4594.871582,4566.538574,2933,1,19,2570,64672,,,,0,4,4,4,4,4,4,4,4,4,4,4,4,4,4,4,4,4,4,4,4,4,4,4,4,4,4,4,4,4,4,4,4,100,,,,,,,,,,,,,,,,,,,,,,,,,,,,,,,,,,,,,,,,,,,,,,,,,,,,,,,,,,,,,,,,,,,,,,,,,,,,,,,,,,,,,,,,,,,,,,,,,,,,,,,,,,,,,,,,,,,,,,,,,,,,,,,,,,,,,,,,,,,,,,,,,,,,,,,,,,,,,,,,,,,,,,,,,,,,,,,,,,,,,,,,,,,,,,,,,,,,,,,,,,,,,,
1764666498.892681,40919,0,4426.025879,4446.410156,4568.717773,4606.153809,4459.230957,4553.333496,4595.641113,4462.436035,4668.846191,4445.512695,4538.333496,4561.666504,4603.461426,4442.692383,4456.025879,4534.871582,4593.205078,4601.666504,4553.846191,4457.307617,4461.153809,4630.384766,4551.922852,4553.205078,4409.358887,4652.820313,4438.077148,4611.922852,4547.05127,4458.205078,4598.717773,4572.563965,2841,1,19,2570,64672,,,,0,4,4,4,4,4,4,4,4,4,4,4,4,4,4,4,4,4,4,4,4,4,4,4,4,4,4,4,4,4,4,4,4,100,,,,,,,,,,,,,,,,,,,,,,,,,,,,,,,,,,,,,,,,,,,,,,,,,,,,,,,,,,,,,,,,,,,,,,,,,,,,,,,,,,,,,,,,,,,,,,,,,,,,,,,,,,,,,,,,,,,,,,,,,,,,,,,,,,,,,,,,,,,,,,,,,,,,,,,,,,,,,,,,,,,,,,,,,,,,,,,,,,,,,,,,,,,,,,,,,,,,,,,,,,,,,,
1764666498.896587,40920,0,4427.692383,4446.794922,4570,4609.487305,4459.871582,4554.871582,4606.410156,4472.05127,4664.615234,4402.94873,4541.538574,4560.128418,4605.256348,4435.897461,4452.820313,4537.820313,4591.282227,4610.384766,4562.436035,4448.846191,4452.05127,4624.615234,4552.820313,4546.282227,4317.436035,4631.538574,4458.717773,4622.563965,4548.589844,4456.666504,4588.333496,4563.589844,2736,1,19,2571,64680,,,,0,4,4,4,4,4,4,4,4,4,4,4,4,4,4,4,4,4,4,4,4,4,4,4,4,4,4,4,4,4,4,4,4,100,,,,,,,,,,,,,,,,,,,,,,,,,,,,,,,,,,,,,,,,,,,,,,,,,,,,,,,,,,,,,,,,,,,,,,,,,,,,,,,,,,,,,,,,,,,,,,,,,,,,,,,,,,,,,,,,,,,,,,,,,,,,,,,,,,,,,,,,,,,,,,,,,,,,,,,,,,,,,,,,,,,,,,,,,,,,,,,,,,,,,,,,,,,,,,,,,,,,,,,,,,,,,,
1764666498.900493,40921,0,4423.077148,4439.102539,4560.641113,4598.974121,4451.410156,4548.461426,4601.794922,4463.461426,4662.05127,4371.410156,4537.05127,4555,4604.230957,4432.436035,4444.871582,4538.333496,4585.769043,4621.282227,4577.692383,4443.846191,4448.461426,4618.461426,4548.846191,4540.897461,4306.410156,4608.974121,4466.538574,4623.333496,4543.846191,4449.230957,4571.282227,4546.153809,2849,1,19,2571,64680,,,,0,4,4,4,4,4,4,4,4,4,4,4,4,4,4,4,4,4,4,4,4,4,4,4,4,4,4,4,4,4,4,4,4,100,,,,,,,,,,,,,,,,,,,,,,,,,,,,,,,,,,,42998,0,0.499203,-0.394348,-0.287598,0.715942,0.880479,-0.339885,-0.030765,3,44.333332,-23,,,,,,,,,,,,,,,,,,,,,,,,,,,,,,,,,,,,,,,,,,,,,,,,,,,,,,,,,,,,,,,,,,,,,,,,,,,,,,,,,,,,,,,,,,,,,,,,,,,,,,,,,,,,,,,,,,,,,,,,,,,,,,,,,,,,,,,,,,,,,,,,,,,,,,,,,,,,,,,,
1764666498.904399,40922,0,4418.589844,4430.769043,4548.974121,4584.743652,4441.666504,4541.282227,4589.487305,4445.256348,4662.179688,4375.769043,4532.05127,4552.436035,4604.487305,4435,4441.794922,4536.922852,4583.461426,4630.128418,4592.307617,4448.333496,4456.538574,4619.871582,4546.666504,4544.871582,4389.743652,4602.179688,4459.615234,4616.666504,4537.820313,4442.820313,4560.897461,4532.820313,1968,1,19,2572,64688,,,,0,4,4,4,4,4,4,4,4,4,4,4,4,4,4,4,4,4,4,4,4,4,4,4,4,4,4,4,4,4,4,4,4,100,,,,,,,,,,,,,,,,,,,,,,,,,,,,,,,,,,,,,,,,,,,,,,,,,,,,,,,,,,,,,,,,,,,,,,,,,,,,,,,,,,,,,,,,,,,,,,,,,,,,,,,,,,,,,,,,,,,,,,,,,,,,,,,,,,,,,,,,,,,,,,,,,,,,,,,,,,,,,,,,,,,,,,,,,,,,,,,,,,,,,,,,,,,,,,,,,,,,,,,,,,,,,,
1764666498.908305,40923,0,4418.974121,4428.461426,4542.563965,4577.307617,4437.820313,4539.102539,4581.538574,4431.922852,4664.358887,4413.205078,4533.333496,4554.615234,4607.94873,4441.922852,4447.820313,4534.743652,4586.794922,4630.384766,4595.128418,4459.230957,4469.615234,4629.487305,4549.615234,4558.461426,4512.94873,4617.179688,4444.487305,4608.461426,4535.769043,4441.794922,4564.358887,4531.922852,2626,1,19,2572,64688,,,,0,4,4,4,4,4,4,4,4,4,4,4,4,4,4,4,4,4,4,4,4,4,4,4,4,4,4,4,4,4,4,4,4,100,,,,,,,,,,,,,,,,,,,,,,,,,,,,,,,,,,,,,,,,,,,,,,,,,,,,,,,,,,,,,,,,,,,,,,,,,,,,,,,,,,,,,,,,,,,,,,,,,,,,,,,,,,,,,,,,,,,,,,,,,,,,,,,,,,,,,,,,,,,,,,,,,,,,,,,,,,,,,,,,,,,,,,,,,,,,,,,,,,,,,,,,,,,,,,,,,,,,,,,,,,,,,,
1764666498.912211,40924,0,4422.94873,4431.922852,4542.179688,4578.974121,4441.025879,4541.538574,4582.94873,4431.025879,4665.769043,4455.256348,4540.897461,4558.589844,4612.436035,4447.436035,4458.333496,4532.692383,4591.153809,4617.692383,4579.358887,4466.410156,4473.077148,4640,4555.128418,4573.077148,4591.538574,4644.102539,4430.769043,4603.461426,4538.333496,4444.615234,4577.307617,4541.153809,2732,1,19,2573,64696,,,,0,4,4,4,4,4,4,4,4,4,4,4,4,4,4,4,4,4,4,4,4,4,4,4,4,4,4,4,4,4,4,4,4,100,,,,,,,,,,,,,,,,,,,,,,,,,,,,,,,,,,,,,,,,,,,,,,,,,,,,,,,,,,,,,,,,,,,,,,,,,,,,,,,,,,,,,,,,,,,,,,,,,,,,,,,,,,,,,,,,,,,,,,,,,,,,,,,,,,,,,,,,,,,,,,,,,,,,,,,,,,,,,,,,,,,,,,,,,,,,,,,,,,,,,,,,,,,,,,,,,,,,,,,,,,,,,,
1764666498.916117,40925,0,4426.282227,4437.05127,4542.692383,4584.358887,4448.205078,4544.743652,4591.153809,4440.384766,4664.615234,4469.615234,4550.256348,4560.128418,4615.384766,4447.820313,4464.358887,4531.025879,4590.897461,4596.025879,4550.256348,4461.666504,4458.461426,4643.717773,4558.461426,4579.358887,4575.128418,4664.102539,4425.897461,4603.589844,4542.563965,4447.307617,4590,4552.563965,2577,1,19,2573,64696,,,,0,4,4,4,4,4,4,4,4,4,4,4,4,4,4,4,4,4,4,4,4,4,4,4,4,4,4,4,4,4,4,4,4,100,,,,,,,,,,,,,,,,,,,,,,,,,,,,,,,,,,,42999,0,0.499775,-0.394287,-0.287903,0.715454,0.87413,-0.363326,-0.024905,4.333333,41.833332,-23.666666,,,,,,,,,,,,,,,,,,,,,,,,,,,,,,,,,,,,,,,,,,,,,,,,,,,,,,,,,,,,,,,,,,,,,,,,,,,,,,,,,,,,,,,,,,,,,,,,,,,,,,,,,,,,,,,,,,,,,,,,,,,,,,,,,,,,,,,,,,,,,,,,,,,,,,,,,,,,,,,,
1764666498.920023,40926,0,4427.563965,4441.922852,4541.538574,4588.717773,4457.05127,4547.820313,4601.410156,4454.615234,4663.589844,4447.179688,4558.461426,4560,4617.563965,4443.974121,4461.794922,4530.128418,4586.538574,4577.563965,4524.743652,4446.794922,4431.282227,4640.641113,4559.871582,4576.282227,4483.974121,4665,4432.820313,4609.230957,4546.666504,4448.589844,4597.05127,4560,2706,1,19,2574,64703,,,,0,4,4,4,4,4,4,4,4,4,4,4,4,4,4,4,4,4,4,4,4,4,4,4,4,4,4,4,4,4,4,4,4,100,,,,,,,,,,,,,,,,,,,,,,,,,,,,,,,,,,,,,,,,,,,,,,,,,,,,,,,,,,,,,,,,,,,,,,,,,,,,,,,,,,,,,,,,,,,,,,,,,,,,,,,,,,,,,,,,,,,,,,,,,,,,,,,,,,,,,,,,,,,,,,,,,,,,,,,,,,,,,,,,,,,,,,,,,,,,,,,,,,,,,,,,,,,,,,,,,,,,,,,,,,,,,,
1764666498.923929,40927,0,4430.512695,4449.615234,4542.563965,4594.487305,4468.461426,4554.871582,4613.077148,4471.153809,4669.487305,4410.769043,4568.461426,4563.589844,4623.461426,4439.615234,4455,4531.025879,4585.384766,4574.615234,4519.871582,4433.589844,4406.922852,4637.94873,4563.974121,4572.179688,4387.436035,4650.641113,4449.487305,4620.769043,4552.307617,4452.436035,4600,4563.846191,2820,1,19,2574,64703,,,,0,4,4,4,4,4,4,4,4,4,4,4,4,4,4,4,4,4,4,4,4,4,4,4,4,4,4,4,4,4,4,4,4,100,,,,,,,,,,,,,,,,,,,,,,,,,,,,,,,,,,,,,,,,,,,,,,,,,,,,,,,,,,,,,,,,,,,,,,,,,,,,,,,,,,,,,,,,,,,,,,,,,,,,,,,,,,,,,,,,,,,,,,,,,,,,,,,,,,,,,,,,,,,,,,,,,,,,,,,,,,,,,,,,,,,,,,,,,,,,,,,,,,,,,,,,,,,,,,,,,,,,,,,,,,,,,,
1764666498.927835,40928,0,4440.769043,4465.641113,4553.974121,4608.077148,4485.256348,4571.153809,4629.487305,4491.538574,4688.077148,4395.384766,4586.153809,4577.179688,4637.05127,4436.538574,4452.563965,4534.487305,4596.025879,4591.538574,4540.384766,4434.871582,4399.615234,4644.230957,4576.282227,4578.205078,4347.94873,4637.820313,4472.05127,4638.461426,4563.333496,4464.871582,4605.256348,4569.230957,2763,1,19,2575,64711,,,,0,4,4,4,4,4,4,4,4,4,4,4,4,4,4,4,4,4,4,4,4,4,4,4,4,4,4,4,4,4,4,4,4,100,,,,,,,,,,,,,,,,,,,,,,,,,,,,,,,,,,,,,,,,,,,,,,,,,,,,,,,,,,,,,,,,,,,,,,,,,,,,,,,,,,,,,,,,,,,,,,,,,,,,,,,,,,,,,,,,,,,,,,,,,,,,,,,,,,,,,,,,,,,,,,,,,,,,,,,,,,,,,,,,,,,,,,,,,,,,,,,,,,,,,,,,,,,,,,,,,,,,,,,,,,,,,,
1764666498.931741,40929,0,4461.025879,4490.897461,4579.743652,4632.179688,4507.94873,4597.307617,4653.205078,4516.153809,4717.820313,4417.820313,4614.358887,4601.666504,4658.589844,4432.692383,4460.256348,4540.769043,4620.897461,4621.794922,4575.641113,4455.384766,4412.563965,4662.307617,4597.436035,4598.974121,4380.512695,4644.230957,4496.153809,4661.538574,4581.538574,4488.333496,4617.05127,4581.025879,2962,1,19,2575,64711,,,,0,4,4,4,4,4,4,4,4,4,4,4,4,4,4,4,4,4,4,4,4,4,4,4,4,4,4,4,4,4,4,4,4,100,,,,,,,,,,,,,,,,,,,,,,,,,,,,,,,,,,,43000,0,0.500547,-0.394104,-0.288025,0.714966,0.984984,-0.31498,0.008302,4.333333,41.833332,-23.666666,,,,,,,,,,,,,,,,,,,,,,,,,,,,,,,,,,,,,,,,,,,,,,,,,,,,,,,,,,,,,,,,,,,,,,,,,,,,,,,,,,,,,,,,,,,,,,,,,,,,,,,,,,,,,,,,,,,,,,,,,,,,,,,,,,,,,,,,,,,,,,,,,,,,,,,,,,,,,,,,
1764666498.935647,40930,0,4485.512695,4518.717773,4613.333496,4658.717773,4530.769043,4625.769043,4679.358887,4538.461426,4747.820313,4463.717773,4646.410156,4629.230957,4681.025879,4424.230957,4475.641113,4547.563965,4651.538574,4650.256348,4605.512695,4486.410156,4436.538574,4685.641113,4620.128418,4626.794922,4454.358887,4673.461426,4516.282227,4684.871582,4601.794922,4516.538574,4633.846191,4598.846191,2628,1,19,2576,64719,,,,0,4,4,4,4,4,4,4,4,4,4,4,4,4,4,4,4,4,4,4,4,4,4,4,4,4,4,4,4,4,4,4,4,100,,,,,,,,,,,,,,,,,,,,,,,,,,,,,,,,,,,,,,,,,,,,,,,,,,,,,,,,,,,,,,,,,,,,,,,,,,,,,,,,,,,,,,,,,,,,,,,,,,,,,,,,,,,,,,,,,,,,,,,,,,,,,,,,,,,,,,,,,,,,,,,,,,,,,,,,,,,,,,,,,,,,,,,,,,,,,,,,,,,,,,,,,,,,,,,,,,,,,,,,,,,,,,
1764666498.939553,40931,0,4502.179688,4536.025879,4639.743652,4673.461426,4542.563965,4642.820313,4695.128418,4546.282227,4762.94873,4501.794922,4666.153809,4646.025879,4692.436035,4410.384766,4489.102539,4551.282227,4671.922852,4662.436035,4612.563965,4510.256348,4454.743652,4701.153809,4631.666504,4645.512695,4522.05127,4709.871582,4525.128418,4698.333496,4613.974121,4536.538574,4648.077148,4615,2846,1,19,2576,64719,,,,0,4,4,4,4,4,4,4,4,4,4,4,4,4,4,4,4,4,4,4,4,4,4,4,4,4,4,4,4,4,4,4,4,100,,,,,,,,,,,,,,,,,,,,,,,,,,,,,,,,,,,,,,,,,,,,,,,,,,,,,,,,,,,,,,,,,,,,,,,,,,,,,,,,,,,,,,,,,,,,,,,,,,,,,,,,,,,,,,,,,,,,,,,,,,,,,,,,,,,,,,,,,,,,,,,,,,,,,,,,,,,,,,,,,,,,,,,,,,,,,,,,,,,,,,,,,,,,,,,,,,,,,,,,,,,,,,
1764666498.943459,40932,0,4499.871582,4532.05127,4645.641113,4666.410156,4535,4638.461426,4688.589844,4531.410156,4754.615234,4510.641113,4657.563965,4640.512695,4683.333496,4396.282227,4491.282227,4549.615234,4668.589844,4652.563965,4594.743652,4512.436035,4455,4697.820313,4623.461426,4641.538574,4552.692383,4730.128418,4517.820313,4692.820313,4610.256348,4536.794922,4651.538574,4620.384766,2737,1,19,2576,64727,,,,0,4,4,4,4,4,4,4,4,4,4,4,4,4,4,4,4,4,4,4,4,4,4,4,4,4,4,4,4,4,4,4,4,100,,,,,,,,,,,,,,,,,,,,,,,,,,,,,,,,,,,,,,,,,,,,,,,2.59973,0.817291,1.540584,1.01747,0.735185,4.933552,1.348128,1.553427,1.43207,0.839873,4.690776,2.814532,4.20786,2.077502,2.634457,2.280809,1.528898,2.407047,2.134068,1.343667,3.574399,1.112905,1.790429,1.82153,0.98938,3.022641,1.466722,1.182811,1.184474,0.575443,1.692145,1.173091,1.202211,1.245892,0.723047,2.623478,1.136144,0.981648,1.690925,0.853247,1.087131,1.084316,2.210865,1.088261,0.770734,1.390042,1.235334,4.436696,3.309886,4.239512,1.535864,0.683462,0.939521,0.654319,0.625698,1.498164,0.903635,1.254716,0.870151,0.866773,0.612202,0.906915,0.963414,0.927151,0.619477,1.087441,0.40284,0.926191,0.502748,0.423252,1.229497,1.423658,0.556167,0.450746,0.713042,0.225715,0.3987,0.140058,0.222818,0.208229,1.409834,1.350779,1.100275,1.185007,1.031014,1.08453,3.312699,1.094482,1.873773,2.413404,0.752287,2.549837,1.485309,1.582377,2.262677,1.095567,1.391831,0.702117,1.000116,1.297557,1.017068,2.181593,0.807708,1.868559,1.758708,1.651579,1.731289,1.22604,1.645619,1.447621,2.521048,1.00693,1.041458,1.132281,0.653185,3.081916,1.962147,1.53587,1.479691,1.259546,5.393669,6.561671,7.714174,7.116227,5.523357,3.372925,1.404711,1.170406,1.286373,0.7874,4.10081,1.684366,1.760256,2.280327,1.25891,2.995539,1.493018,1.308455,1.684878,1.097703,1.570769,0.62053,0.812416,0.690404,0.439086,4.460522,1.843307,1.812614,1.656439,0.936352,4.728788,1.719959,2.349903,2.731901,1.841643,4.168779,1.97321,4.21789,2.365137,2.738054
1764666498.947365,40933,0,4478.846191,4508.461426,4630.128418,4641.794922,4510.897461,4614.743652,4659.743652,4498.589844,4727.179688,4494.615234,4618.717773,4614.358887,4655.384766,4391.025879,4481.794922,4543.974121,4642.307617,4629.102539,4566.794922,4494.102539,4440,4675.897461,4599.102539,4615.128418,4545.897461,4721.282227,4497.179688,4668.717773,4591.666504,4516.922852,4642.820313,4612.05127,2766,1,19,2576,64727,,,,0,4,4,4,4,4,4,4,4,4,4,4,4,4,4,4,4,4,4,4,4,4,4,4,4,4,4,4,4,4,4,4,4,100,,,,,,,,,,,,,,,,,,,,,,,,,,,,,,,,,,,43001,0,0.500244,-0.394531,-0.288269,0.714844,1.030888,-0.315957,-0.015139,5,42,-21,,,,,,,,,,,,,,,,,,,,,,,,,,,,,,,,,,,,,,,,,,,,,,,,,,,,,,,,,,,,,,,,,,,,,,,,,,,,,,,,,,,,,,,,,,,,,,,,,,,,,,,,,,,,,,,,,,,,,,,,,,,,,,,,,,,,,,,,,,,,,,,,,,,,,,,,,,,,,,,,
1764666498.951271,40934,1,4466.96582,4497.777832,4620.042969,4633.888672,4500.769043,4602.820313,4644.914551,4487.777832,4710.98291,4487.905762,4592.222168,4601.922852,4644.187988,4407.777832,4480.769043,4544.01709,4628.803223,4627.991211,4572.265137,4488.03418,4444.487305,4665.769043,4590.555664,4597.436035,4535.384766,4699.444336,4488.333496,4654.487305,4581.367676,4501.922852,4636.751953,4605.470215,0,1,19,0,0,,,,0,4,4,4,4,4,4,4,4,4,4,4,4,4,4,4,4,4,4,4,4,4,4,4,4,4,4,4,4,4,4,4,4,100,,,,,,,,,,,,,,,,,,,,,,,,,,,,,,,,,,,,,,,,,,,,,,,,,,,,,,,,,,,,,,,,,,,,,,,,,,,,,,,,,,,,,,,,,,,,,,,,,,,,,,,,,,,,,,,,,,,,,,,,,,,,,,,,,,,,,,,,,,,,,,,,,,,,,,,,,,,,,,,,,,,,,,,,,,,,,,,,,,,,,,,,,,,,,,,,,,,,,,,,,,,,,,
1764666498.955177,40935,1,4455.085449,4487.094238,4609.957031,4625.98291,4490.641113,4590.897461,4630.085449,4476.96582,4694.786133,4481.196777,4565.726563,4589.487305,4632.991211,4424.529785,4479.743652,4544.060059,4615.299316,4626.880371,4577.734863,4481.96582,4448.974121,4655.641113,4582.008789,4579.743652,4524.871582,4677.606934,4479.487305,4640.256348,4571.068359,4486.922852,4630.683594,4598.888672,0,1,19,0,0,,,,0,4,4,4,4,4,4,4,4,4,4,4,4,4,4,4,4,4,4,4,4,4,4,4,4,4,4,4,4,4,4,4,4,100,,,,,,,,,,,,,,,,,,,,,,,,,,,,,,,,,,,,,,,,,,,,,,,,,,,,,,,,,,,,,,,,,,,,,,,,,,,,,,,,,,,,,,,,,,,,,,,,,,,,,,,,,,,,,,,,,,,,,,,,,,,,,,,,,,,,,,,,,,,,,,,,,,,,,,,,,,,,,,,,,,,,,,,,,,,,,,,,,,,,,,,,,,,,,,,,,,,,,,,,,,,,,,
1764666498.959083,40936,0,4443.205078,4476.410156,4599.871582,4618.077148,4480.512695,4578.974121,4615.256348,4466.153809,4678.589844,4474.487305,4539.230957,4577.05127,4621.794922,4441.282227,4478.717773,4544.102539,4601.794922,4625.769043,4583.205078,4475.897461,4453.461426,4645.512695,4573.461426,4562.05127,4514.358887,4655.769043,4470.641113,4626.025879,4560.769043,4471.922852,4624.615234,4592.307617,2895,1,19,2575,64742,,,,0,4,4,4,4,4,4,4,4,4,4,4,4,4,4,4,4,4,4,4,4,4,4,4,4,4,4,4,4,4,4,4,4,100,,,,,,,,,,,,,,,,,,,,,,,,,,,,,,,,,,,,,,,,,,,,,,,,,,,,,,,,,,,,,,,,,,,,,,,,,,,,,,,,,,,,,,,,,,,,,,,,,,,,,,,,,,,,,,,,,,,,,,,,,,,,,,,,,,,,,,,,,,,,,,,,,,,,,,,,,,,,,,,,,,,,,,,,,,,,,,,,,,,,,,,,,,,,,,,,,,,,,,,,,,,,,,
1764666498.962989,40937,0,4462.563965,4498.461426,4616.794922,4639.102539,4501.153809,4599.615234,4643.461426,4493.589844,4697.692383,4472.820313,4571.025879,4602.179688,4650.512695,4444.871582,4490.128418,4548.589844,4626.922852,4649.487305,4608.333496,4496.153809,4480.512695,4667.05127,4596.794922,4580.384766,4518.717773,4666.794922,4488.077148,4646.025879,4575.512695,4487.563965,4634.487305,4604.358887,2718,1,19,2575,64742,,,,0,4,4,4,4,4,4,4,4,4,4,4,4,4,4,4,4,4,4,4,4,4,4,4,4,4,4,4,4,4,4,4,4,100,,,,,,,,,,,,,,,,,,,,,,,,,,,,,,,,,,,43002,0,0.499199,-0.395081,-0.288269,0.715271,0.95959,-0.354535,-0.045416,3.666667,42.5,-21.666666,,,,,,,,,,,,,,,,,,,,,,,,,,,,,,,,,,,,,,,,,,,,,,,,,,,,,,,,,,,,,,,,,,,,,,,,,,,,,,,,,,,,,,,,,,,,,,,,,,,,,,,,,,,,,,,,,,,,,,,,,,,,,,,,,,,,,,,,,,,,,,,,,,,,,,,,,,,,,,,,
1764666498.966895,40938,0,4478.461426,4515.256348,4627.436035,4650.512695,4517.05127,4616.538574,4668.077148,4512.436035,4717.820313,4451.666504,4602.94873,4623.717773,4673.205078,4429.615234,4490.897461,4548.589844,4646.538574,4661.922852,4615.128418,4504.743652,4490,4683.205078,4614.487305,4597.692383,4509.230957,4683.077148,4500.512695,4664.871582,4587.94873,4501.794922,4640.128418,4612.307617,700,1,19,2575,64750,,,,0,4,4,4,4,4,4,4,4,4,4,4,4,4,4,4,4,4,4,4,4,4,4,4,4,4,4,4,4,4,4,4,4,100,,,,,,,,,,,,,,,,,,,,,,,,,,,,,,,,,,,,,,,,,,,,,,,,,,,,,,,,,,,,,,,,,,,,,,,,,,,,,,,,,,,,,,,,,,,,,,,,,,,,,,,,,,,,,,,,,,,,,,,,,,,,,,,,,,,,,,,,,,,,,,,,,,,,,,,,,,,,,,,,,,,,,,,,,,,,,,,,,,,,,,,,,,,,,,,,,,,,,,,,,,,,,,
1764666498.970801,40939,0,4476.922852,4512.307617,4618.846191,4640.769043,4514.871582,4615.384766,4669.102539,4507.179688,4721.538574,4417.179688,4607.692383,4624.230957,4671.153809,4405.641113,4476.410156,4543.461426,4643.333496,4653.077148,4598.974121,4490.641113,4472.563965,4679.615234,4613.461426,4598.974121,4483.333496,4689.615234,4495.641113,4667.307617,4587.436035,4500.256348,4633.333496,4606.153809,2701,1,19,2575,64750,,,,0,4,4,4,4,4,4,4,4,4,4,4,4,4,4,4,4,4,4,4,4,4,4,4,4,4,4,4,4,4,4,4,4,100,,,,,,,,,,,,,,,,,,,,,,,,,,,,,,,,,,,,,,,,,,,,,,,,,,,,,,,,,,,,,,,,,,,,,,,,,,,,,,,,,,,,,,,,,,,,,,,,,,,,,,,,,,,,,,,,,,,,,,,,,,,,,,,,,,,,,,,,,,,,,,,,,,,,,,,,,,,,,,,,,,,,,,,,,,,,,,,,,,,,,,,,,,,,,,,,,,,,,,,,,,,,,,
1764666498.974707,40940,0,4457.820313,4490.641113,4594.102539,4614.487305,4495.256348,4595.897461,4644.487305,4480.641113,4703.333496,4393.846191,4579.487305,4602.436035,4643.589844,4390.128418,4454.487305,4537.05127,4618.717773,4627.94873,4570.512695,4461.025879,4439.102539,4658.589844,4595.384766,4583.077148,4454.871582,4683.333496,4475,4651.410156,4573.717773,4482.179688,4616.410156,4587.436035,2519,1,19,2576,64758,,,,0,4,4,4,4,4,4,4,4,4,4,4,4,4,4,4,4,4,4,4,4,4,4,4,4,4,4,4,4,4,4,4,4,100,,,,,,,,,,,,,,,,,,,,,,,,,,,,,,,,,,,,,,,,,,,,,,,,,,,,,,,,,,,,,,,,,,,,,,,,,,,,,,,,,,,,,,,,,,,,,,,,,,,,,,,,,,,,,,,,,,,,,,,,,,,,,,,,,,,,,,,,,,,,,,,,,,,,,,,,,,,,,,,,,,,,,,,,,,,,,,,,,,,,,,,,,,,,,,,,,,,,,,,,,,,,,,
1764666498.978613,40941,0,4435.128418,4465.128418,4569.230957,4589.102539,4471.922852,4571.794922,4610.256348,4451.025879,4675.641113,4405,4537.94873,4572.820313,4608.846191,4395.256348,4439.358887,4535.128418,4590.384766,4604.102539,4549.102539,4435,4412.820313,4636.153809,4574.615234,4563.077148,4438.717773,4672.692383,4452.94873,4629.615234,4556.666504,4461.025879,4600.512695,4568.333496,2308,1,19,2576,64758,,,,0,4,4,4,4,4,4,4,4,4,4,4,4,4,4,4,4,4,4,4,4,4,4,4,4,4,4,4,4,4,4,4,4,100,,,,,,,,,,,,,,,,,,,,,,,,,,,,,,,,,,,43003,0,0.498103,-0.395447,-0.288147,0.715881,0.88878,-0.370162,-0.055183,3.333333,42,-20.5,,,,,,,,,,,,,,,,,,,,,,,,,,,,,,,,,,,,,,,,,,,,,,,,,,,,,,,,,,,,,,,,,,,,,,,,,,,,,,,,,,,,,,,,,,,,,,,,,,,,,,,,,,,,,,,,,,,,,,,,,,,,,,,,,,,,,,,,,,,,,,,,,,,,,,,,,,,,,,,,
1764666498.982519,40942,0,4423.846191,4451.794922,4559.358887,4580.512695,4459.615234,4558.589844,4587.05127,4436.153809,4658.461426,4450.384766,4510.384766,4554.743652,4589.487305,4419.230957,4441.153809,4539.743652,4577.94873,4597.94873,4548.205078,4428.717773,4409.743652,4627.820313,4565.897461,4553.077148,4435.512695,4667.179688,4445.512695,4617.563965,4548.333496,4451.794922,4595,4561.282227,2711,1,19,2574,64766,,,,0,4,4,4,4,4,4,4,4,4,4,4,4,4,4,4,4,4,4,4,4,4,4,4,4,4,4,4,4,4,4,4,4,100,,,,,,,,,,,,,,,,,,,,,,,,,,,,,,,,,,,,,,,,,,,,,,,,,,,,,,,,,,,,,,,,,,,,,,,,,,,,,,,,,,,,,,,,,,,,,,,,,,,,,,,,,,,,,,,,,,,,,,,,,,,,,,,,,,,,,,,,,,,,,,,,,,,,,,,,,,,,,,,,,,,,,,,,,,,,,,,,,,,,,,,,,,,,,,,,,,,,,,,,,,,,,,
1764666498.986425,40943,0,4427.94873,4454.871582,4566.025879,4589.615234,4462.436035,4561.153809,4584.487305,4440.128418,4662.179688,4499.743652,4510.256348,4556.153809,4594.487305,4447.05127,4456.538574,4547.179688,4586.666504,4610.897461,4565.769043,4441.794922,4427.436035,4635.384766,4571.538574,4556.410156,4433.333496,4667.05127,4456.025879,4620.769043,4552.436035,4458.333496,4598.205078,4568.077148,2496,1,19,2574,64766,,,,0,4,4,4,4,4,4,4,4,4,4,4,4,4,4,4,4,4,4,4,4,4,4,4,4,4,4,4,4,4,4,4,4,100,,,,,,,,,,,,,,,,,,,,,,,,,,,,,,,,,,,,,,,,,,,,,,,,,,,,,,,,,,,,,,,,,,,,,,,,,,,,,,,,,,,,,,,,,,,,,,,,,,,,,,,,,,,,,,,,,,,,,,,,,,,,,,,,,,,,,,,,,,,,,,,,,,,,,,,,,,,,,,,,,,,,,,,,,,,,,,,,,,,,,,,,,,,,,,,,,,,,,,,,,,,,,,
1764666498.990331,40944,0,4438.974121,4465.512695,4577.692383,4603.717773,4472.05127,4571.538574,4596.410156,4452.820313,4680,4512.820313,4528.717773,4569.358887,4613.333496,4460.641113,4470.641113,4551.153809,4604.743652,4628.974121,4586.282227,4458.717773,4447.820313,4647.179688,4581.666504,4563.846191,4426.538574,4665.641113,4472.307617,4630.769043,4562.05127,4470.641113,4599.230957,4579.358887,2882,1,19,2573,64774,,,,0,4,4,4,4,4,4,4,4,4,4,4,4,4,4,4,4,4,4,4,4,4,4,4,4,4,4,4,4,4,4,4,4,100,,,,,,,,,,,,,,,,,,,,,,,,,,,,,,,,,,,,,,,,,,,,,,,,,,,,,,,,,,,,,,,,,,,,,,,,,,,,,,,,,,,,,,,,,,,,,,,,,,,,,,,,,,,,,,,,,,,,,,,,,,,,,,,,,,,,,,,,,,,,,,,,,,,,,,,,,,,,,,,,,,,,,,,,,,,,,,,,,,,,,,,,,,,,,,,,,,,,,,,,,,,,,,
1764666498.994237,40945,0,4444.487305,4471.538574,4581.282227,4608.589844,4477.307617,4578.461426,4609.358887,4461.282227,4695.897461,4471.410156,4546.025879,4579.358887,4627.563965,4452.692383,4469.487305,4548.717773,4614.743652,4635.641113,4593.461426,4463.205078,4453.717773,4649.487305,4583.974121,4564.102539,4426.282227,4659.487305,4477.05127,4633.974121,4567.307617,4475.769043,4588.333496,4583.077148,2879,1,19,2573,64774,,,,0,4,4,4,4,4,4,4,4,4,4,4,4,4,4,4,4,4,4,4,4,4,4,4,4,4,4,4,4,4,4,4,4,100,,,,,,,,,,,,,,,,,,,,,,,,,,,,,,,,,,,43004,0,0.497656,-0.395325,-0.28833,0.716187,0.887315,-0.354047,-0.018557,3.666667,43,-22.833334,,,,,,,,,,,,,,,,,,,,,,,,,,,,,,,,,,,,,,,,,,,,,,,,,,,,,,,,,,,,,,,,,,,,,,,,,,,,,,,,,,,,,,,,,,,,,,,,,,,,,,,,,,,,,,,,,,,,,,,,,,,,,,,,,,,,,,,,,,,,,,,,,,,,,,,,,,,,,,,,
1764666498.998143,40946,0,4439.102539,4467.436035,4573.205078,4598.974121,4473.077148,4577.05127,4613.077148,4459.743652,4696.794922,4397.563965,4548.461426,4577.179688,4625.769043,4432.05127,4451.153809,4542.563965,4608.333496,4625.384766,4582.563965,4451.025879,4441.410156,4638.333496,4574.230957,4554.615234,4446.153809,4653.077148,4461.025879,4623.974121,4563.205078,4468.461426,4566.538574,4574.615234,1730,1,19,2567,64782,,,,0,4,4,4,4,4,4,4,4,4,4,4,4,4,4,4,4,4,4,4,4,4,4,4,4,4,4,4,4,4,4,4,4,100,,,,,,,,,,,,,,,,,,,,,,,,,,,,,,,,,,,,,,,,,,,,,,,,,,,,,,,,,,,,,,,,,,,,,,,,,,,,,,,,,,,,,,,,,,,,,,,,,,,,,,,,,,,,,,,,,,,,,,,,,,,,,,,,,,,,,,,,,,,,,,,,,,,,,,,,,,,,,,,,,,,,,,,,,,,,,,,,,,,,,,,,,,,,,,,,,,,,,,,,,,,,,,
1764666499.002049,40947,0,4427.179688,4457.179688,4559.358887,4581.538574,4462.692383,4570.128418,4606.538574,4451.538574,4681.794922,4340,4537.179688,4565.256348,4611.410156,4415.512695,4427.692383,4538.077148,4590.769043,4606.794922,4562.563965,4431.794922,4421.922852,4620.897461,4558.333496,4542.05127,4482.307617,4654.102539,4430.769043,4604.871582,4553.333496,4453.974121,4544.615234,4558.717773,2846,1,19,2567,64782,,,,0,4,4,4,4,4,4,4,4,4,4,4,4,4,4,4,4,4,4,4,4,4,4,4,4,4,4,4,4,4,4,4,4,100,,,,,,,,,,,,,,,,,,,,,,,,,,,,,,,,,,,,,,,,,,,,,,,,,,,,,,,,,,,,,,,,,,,,,,,,,,,,,,,,,,,,,,,,,,,,,,,,,,,,,,,,,,,,,,,,,,,,,,,,,,,,,,,,,,,,,,,,,,,,,,,,,,,,,,,,,,,,,,,,,,,,,,,,,,,,,,,,,,,,,,,,,,,,,,,,,,,,,,,,,,,,,,
1764666499.005955,40948,0,4417.179688,4448.205078,4548.589844,4567.692383,4454.230957,4563.974121,4596.025879,4442.94873,4660.769043,4337.94873,4524.871582,4553.077148,4597.436035,4414.743652,4415,4538.077148,4575.256348,4593.717773,4547.692383,4420.128418,4410.769043,4608.717773,4546.794922,4535.512695,4515.128418,4664.615234,4403.077148,4587.820313,4545.256348,4442.05127,4535,4545.128418,2536,1,19,2568,64789,,,,0,4,4,4,4,4,4,4,4,4,4,4,4,4,4,4,4,4,4,4,4,4,4,4,4,4,4,4,4,4,4,4,4,100,,,,,,,,,,,,,,,,,,,,,,,,,,,,,,,,,,,,,,,,,,,,,,,,,,,,,,,,,,,,,,,,,,,,,,,,,,,,,,,,,,,,,,,,,,,,,,,,,,,,,,,,,,,,,,,,,,,,,,,,,,,,,,,,,,,,,,,,,,,,,,,,,,,,,,,,,,,,,,,,,,,,,,,,,,,,,,,,,,,,,,,,,,,,,,,,,,,,,,,,,,,,,,
1764666499.009861,40949,0,4414.487305,4445,4544.871582,4564.102539,4453.333496,4562.05127,4588.717773,4438.589844,4647.05127,4389.487305,4523.077148,4548.461426,4594.102539,4426.666504,4420.641113,4541.025879,4570.384766,4592.820313,4544.871582,4421.794922,4414.743652,4607.179688,4545,4537.436035,4523.717773,4677.94873,4392.436035,4580.512695,4542.692383,4438.205078,4541.666504,4539.743652,2832,1,19,2568,64789,,,,0,4,4,4,4,4,4,4,4,4,4,4,4,4,4,4,4,4,4,4,4,4,4,4,4,4,4,4,4,4,4,4,4,100,,,,,,,,,,,,,,,,,,,,,,,,,,,,,,,,,,,43005,0,0.49835,-0.395203,-0.288208,0.71582,0.931754,-0.32963,0.002442,4,42.5,-20.333334,,,,,,,,,,,,,,,,,,,,,,,,,,,,,,,,,,,,,,,,,,,,,,,,,,,,,,,,,,,,,,,,,,,,,,,,,,,,,,,,,,,,,,,,,,,,,,,,,,,,,,,,,,,,,,,,,,,,,,,,,,,,,,,,,,,,,,,,,,,,,,,,,,,,,,,,,,,,,,,,
1764666499.013767,40950,0,4416.282227,4444.487305,4544.487305,4568.589844,4458.333496,4561.538574,4587.179688,4437.94873,4646.794922,4453.461426,4532.436035,4550.512695,4600,4436.922852,4437.307617,4542.05127,4573.589844,4597.692383,4548.717773,4429.487305,4426.025879,4611.282227,4548.974121,4541.410156,4497.307617,4682.692383,4400.641113,4581.794922,4543.717773,4439.102539,4556.666504,4539.487305,2941,1,19,2569,64797,,,,0,4,4,4,4,4,4,4,4,4,4,4,4,4,4,4,4,4,4,4,4,4,4,4,4,4,4,4,4,4,4,4,4,100,,,,,,,,,,,,,,,,,,,,,,,,,,,,,,,,,,,,,,,,,,,,,,,,,,,,,,,,,,,,,,,,,,,,,,,,,,,,,,,,,,,,,,,,,,,,,,,,,,,,,,,,,,,,,,,,,,,,,,,,,,,,,,,,,,,,,,,,,,,,,,,,,,,,,,,,,,,,,,,,,,,,,,,,,,,,,,,,,,,,,,,,,,,,,,,,,,,,,,,,,,,,,,
1764666499.017673,40951,0,4415.256348,4441.025879,4540.897461,4572.820313,4461.922852,4556.538574,4588.077148,4437.563965,4654.487305,4481.538574,4543.205078,4551.410156,4604.487305,4432.563965,4448.717773,4538.077148,4574.871582,4596.794922,4548.589844,4430.256348,4429.871582,4610.769043,4550.128418,4538.205078,4440.256348,4671.794922,4417.307617,4584.487305,4543.205078,4437.94873,4566.282227,4536.025879,2843,1,19,2569,64797,,,,0,4,4,4,4,4,4,4,4,4,4,4,4,4,4,4,4,4,4,4,4,4,4,4,4,4,4,4,4,4,4,4,4,100,,,,,,,,,,,,,,,,,,,,,,,,,,,,,,,,,,,,,,,,,,,,,,,,,,,,,,,,,,,,,,,,,,,,,,,,,,,,,,,,,,,,,,,,,,,,,,,,,,,,,,,,,,,,,,,,,,,,,,,,,,,,,,,,,,,,,,,,,,,,,,,,,,,,,,,,,,,,,,,,,,,,,,,,,,,,,,,,,,,,,,,,,,,,,,,,,,,,,,,,,,,,,,
1764666499.021579,40952,1,4414.216309,4440.754883,4541.97998,4572.849121,4460.099609,4554.900391,4586.9375,4435.98291,4654.672363,4472.734863,4540.612305,4549.515625,4602.450195,4431.695313,4444.00293,4537.150879,4572.265137,4593.248047,4546.823242,4427.635254,4430,4607.706543,4548.703613,4534.757813,4433.418945,4671.253418,4418.147949,4584.686523,4541.666504,4437.008789,4564.644043,4537.265137,0,1,19,0,0,,,,0,4,4,4,4,4,4,4,4,4,4,4,4,4,4,4,4,4,4,4,4,4,4,4,4,4,4,4,4,4,4,4,4,100,,,,,,,,,,,,,,,,,,,,,,,,,,,,,,,,,,,,,,,,,,,,,,,,,,,,,,,,,,,,,,,,,,,,,,,,,,,,,,,,,,,,,,,,,,,,,,,,,,,,,,,,,,,,,,,,,,,,,,,,,,,,,,,,,,,,,,,,,,,,,,,,,,,,,,,,,,,,,,,,,,,,,,,,,,,,,,,,,,,,,,,,,,,,,,,,,,,,,,,,,,,,,,
1764666499.025485,40953,1,4413.176758,4440.484375,4543.0625,4572.877441,4458.276367,4553.262207,4585.797852,4434.401855,4654.857422,4463.931641,4538.02002,4547.621094,4600.413086,4430.826172,4439.287598,4536.225098,4569.658203,4589.700684,4545.057129,4425.01416,4430.128418,4604.644043,4547.279297,4531.310547,4426.581055,4670.712402,4418.98877,4584.88623,4540.128418,4436.068359,4563.005859,4538.504395,0,1,19,0,0,,,,0,4,4,4,4,4,4,4,4,4,4,4,4,4,4,4,4,4,4,4,4,4,4,4,4,4,4,4,4,4,4,4,4,100,,,,,,,,,,,,,,,,,,,,,,,,,,,,,,,,,,,,,,,,,,,,,,,,,,,,,,,,,,,,,,,,,,,,,,,,,,,,,,,,,,,,,,,,,,,,,,,,,,,,,,,,,,,,,,,,,,,,,,,,,,,,,,,,,,,,,,,,,,,,,,,,,,,,,,,,,,,,,,,,,,,,,,,,,,,,,,,,,,,,,,,,,,,,,,,,,,,,,,,,,,,,,,
1764666499.029391,40954,1,4412.136719,4440.213867,4544.145508,4572.905762,4456.453125,4551.624023,4584.658203,4432.820313,4655.042969,4455.128418,4535.427246,4545.726563,4598.375977,4429.957031,4434.572754,4535.299316,4567.05127,4586.153809,4543.290527,4422.393066,4430.256348,4601.581055,4545.854492,4527.863281,4419.743652,4670.170898,4419.829102,4585.085449,4538.589844,4435.128418,4561.367676,4539.743652,0,1,19,0,0,,,,0,4,4,4,4,4,4,4,4,4,4,4,4,4,4,4,4,4,4,4,4,4,4,4,4,4,4,4,4,4,4,4,4,100,,,,,,,,,,,,,,,,,,,,,,,,,,,,,,,,,,,,,,,,,,,,,,,,,,,,,,,,,,,,,,,,,,,,,,,,,,,,,,,,,,,,,,,,,,,,,,,,,,,,,,,,,,,,,,,,,,,,,,,,,,,,,,,,,,,,,,,,,,,,,,,,,,,,,,,,,,,,,,,,,,,,,,,,,,,,,,,,,,,,,,,,,,,,,,,,,,,,,,,,,,,,,,
1764666499.033297,40955,1,4411.09668,4439.942871,4545.228027,4572.93457,4454.629395,4549.98584,4583.518555,4431.239258,4655.228027,4446.324707,4532.834961,4543.832031,4596.338867,4429.088379,4429.857422,4534.373047,4564.444336,4582.606934,4541.524414,4419.771973,4430.384766,4598.518555,4544.430176,4524.416016,4412.905762,4669.629395,4420.669434,4585.284668,4537.05127,4434.187988,4559.729492,4540.98291,0,1,19,0,0,,,,0,4,4,4,4,4,4,4,4,4,4,4,4,4,4,4,4,4,4,4,4,4,4,4,4,4,4,4,4,4,4,4,4,100,,,,,,,,,,,,,,,,,,,,,,,,,,,,,,,,,,,,,,,,,,,,,,,,,,,,,,,,,,,,,,,,,,,,,,,,,,,,,,,,,,,,,,,,,,,,,,,,,,,,,,,,,,,,,,,,,,,,,,,,,,,,,,,,,,,,,,,,,,,,,,,,,,,,,,,,,,,,,,,,,,,,,,,,,,,,,,,,,,,,,,,,,,,,,,,,,,,,,,,,,,,,,,
1764666499.037203,40956,1,4410.057129,4439.672363,4546.310547,4572.962891,4452.806152,4548.347656,4582.378906,4429.658203,4655.413086,4437.521484,4530.242188,4541.9375,4594.301758,4428.219238,4425.142578,4533.447266,4561.837402,4579.060059,4539.757813,4417.150879,4430.512695,4595.456055,4543.005859,4520.96875,4406.068359,4669.088379,4421.509766,4585.484375,4535.512695,4433.248047,4558.091309,4542.222168,0,1,19,0,0,,,,0,4,4,4,4,4,4,4,4,4,4,4,4,4,4,4,4,4,4,4,4,4,4,4,4,4,4,4,4,4,4,4,4,100,,,,,,,,,,,,,,,,,,,,,,,,,,,,,,,,,,,,,,,,,,,,,,,,,,,,,,,,,,,,,,,,,,,,,,,,,,,,,,,,,,,,,,,,,,,,,,,,,,,,,,,,,,,,,,,,,,,,,,,,,,,,,,,,,,,,,,,,,,,,,,,,,,,,,,,,,,,,,,,,,,,,,,,,,,,,,,,,,,,,,,,,,,,,,,,,,,,,,,,,,,,,,,
1764666499.041109,40957,1,4409.01709,4439.401855,4547.393066,4572.991211,4450.98291,4546.709473,4581.239258,4428.077148,4655.598145,4428.717773,4527.649414,4540.042969,4592.265137,4427.350586,4420.427246,4532.521484,4559.230957,4575.512695,4537.991211,4414.529785,4430.641113,4592.393066,4541.581055,4517.521484,4399.230957,4668.546875,4422.350586,4585.683594,4533.974121,4432.307617,4556.453125,4543.461426,0,1,19,0,0,,,,0,4,4,4,4,4,4,4,4,4,4,4,4,4,4,4,4,4,4,4,4,4,4,4,4,4,4,4,4,4,4,4,4,100,,,,,,,,,,,,,,,,,,,,,,,,,,,,,,,,,,,43006,1,0.498966,-0.395182,-0.288228,0.715393,0.930289,-0.324584,-0.001953,3.722222,42.5,-20.5,,,,,,,,,,,,,,,,,,,,,,,,,,,,,,,,,,,,,,,,,,,,,,,,,,,,,,,,,,,,,,,,,,,,,,,,,,,,,,,,,,,,,,,,,,,,,,,,,,,,,,,,,,,,,,,,,,,,,,,,,,,,,,,,,,,,,,,,,,,,,,,,,,,,,,,,,,,,,,,,
1764666499.045015,40958,1,4407.977051,4439.130859,4548.475586,4573.02002,4449.159668,4545.071289,4580.099609,4426.495605,4655.783691,4419.914551,4525.057129,4538.147949,4590.228027,4426.481445,4415.712402,4531.595215,4556.624023,4571.96582,4536.225098,4411.908691,4430.769043,4589.330566,4540.156738,4514.074219,4392.393066,4668.005859,4423.190918,4585.883301,4532.436035,4431.367676,4554.814941,4544.700684,0,1,19,0,0,,,,0,4,4,4,4,4,4,4,4,4,4,4,4,4,4,4,4,4,4,4,4,4,4,4,4,4,4,4,4,4,4,4,4,100,,,,,,,,,,,,,,,,,,,,,,,,,,,,,,,,,,,,,,,,,,,,,,,,,,,,,,,,,,,,,,,,,,,,,,,,,,,,,,,,,,,,,,,,,,,,,,,,,,,,,,,,,,,,,,,,,,,,,,,,,,,,,,,,,,,,,,,,,,,,,,,,,,,,,,,,,,,,,,,,,,,,,,,,,,,,,,,,,,,,,,,,,,,,,,,,,,,,,,,,,,,,,,
1764666499.048921,40959,1,4406.9375,4438.860352,4549.558594,4573.04834,4447.336426,4543.433105,4578.959961,4424.914551,4655.96875,4411.111328,4522.464355,4536.253418,4588.190918,4425.612305,4410.99707,4530.669434,4554.01709,4568.418945,4534.458496,4409.287598,4430.897461,4586.267578,4538.732422,4510.626953,4385.555664,4667.464355,4424.03125,4586.08252,4530.897461,4430.427246,4553.176758,4545.939941,0,1,19,0,0,,,,0,4,4,4,4,4,4,4,4,4,4,4,4,4,4,4,4,4,4,4,4,4,4,4,4,4,4,4,4,4,4,4,4,100,,,,,,,,,,,,,,,,,,,,,,,,,,,,,,,,,,,43007,1,0.499582,-0.395162,-0.288249,0.714966,0.928824,-0.319538,-0.006348,3.444444,42.5,-20.666666,,,,,,,,,,,,,,,,,,,,,,,,,,,,,,,,,,,,,,,,,,,,,,,,,,,,,,,,,,,,,,,,,,,,,,,,,,,,,,,,,,,,,,,,,,,,,,,,,,,,,,,,,,,,,,,,,,,,,,,,,,,,,,,,,,,,,,,,,,,,,,,,,,,,,,,,,,,,,,,,
1764666499.052827,40960,0,4405.897461,4438.589844,4550.641113,4573.077148,4445.512695,4541.794922,4577.820313,4423.333496,4656.153809,4402.307617,4519.871582,4534.358887,4586.153809,4424.743652,4406.282227,4529.743652,4551.410156,4564.871582,4532.692383,4406.666504,4431.025879,4583.205078,4537.307617,4507.179688,4378.717773,4666.922852,4424.871582,4586.282227,4529.358887,4429.487305,4551.538574,4547.179688,2761,1,19,2574,64836,,,,0,4,4,4,4,4,4,4,4,4,4,4,4,4,4,4,4,4,4,4,4,4,4,4,4,4,4,4,4,4,4,4,4,100,,,,,,,,,,,,,,,,,,,,,,,,,,,,,,,,,,,,,,,,,,,,,,,,,,,,,,,,,,,,,,,,,,,,,,,,,,,,,,,,,,,,,,,,,,,,,,,,,,,,,,,,,,,,,,,,,,,,,,,,,,,,,,,,,,,,,,,,,,,,,,,,,,,,,,,,,,,,,,,,,,,,,,,,,,,,,,,,,,,,,,,,,,,,,,,,,,,,,,,,,,,,,,
1764666499.056733,40961,0,4404.230957,4439.230957,4547.436035,4562.94873,4446.666504,4543.333496,4577.05127,4423.974121,4648.589844,4377.436035,4514.615234,4531.282227,4579.871582,4422.307617,4392.307617,4527.563965,4550.512695,4561.025879,4528.205078,4404.102539,4425.897461,4588.077148,4537.692383,4511.153809,4420.384766,4667.307617,4426.025879,4589.102539,4530.256348,4433.205078,4552.436035,4540.897461,2945,1,19,2574,64836,,,,0,4,4,4,4,4,4,4,4,4,4,4,4,4,4,4,4,4,4,4,4,4,4,4,4,4,4,4,4,4,4,4,4,100,,,,,,,,,,,,,,,,,,,,,,,,,,,,,,,,,,,43008,0,0.500199,-0.395142,-0.288269,0.714539,0.927359,-0.314492,-0.010743,3.166667,42.5,-20.833334,,,,,,,,,,,,,,,,,,,,,,,,,,,,,,,,,,,,,,,,,,,,,,,,,,,,,,,,,,,,,,,,,,,,,,,,,,,,,,,,,,,,,,,,,,,,,,,,,,,,,,,,,,,,,,,,,,,,,,,,,,,,,,,,,,,,,,,,,,,,,,,,,,,,,,,,,,,,,,,,
1764666499.060639,40962,0,4408.333496,4444.487305,4552.563965,4559.358887,4448.974121,4548.461426,4579.230957,4424.358887,4647.436035,4372.436035,4513.974121,4536.538574,4581.153809,4427.94873,4394.230957,4529.743652,4556.794922,4569.230957,4530.769043,4415.512695,4432.307617,4599.102539,4543.974121,4524.615234,4480.128418,4677.307617,4426.666504,4594.230957,4533.205078,4440.641113,4556.794922,4544.358887,2628,1,19,2575,64844,,,,0,4,4,4,4,4,4,4,4,4,4,4,4,4,4,4,4,4,4,4,4,4,4,4,4,4,4,4,4,4,4,4,4,100,,,,,,,,,,,,,,,,,,,,,,,,,,,,,,,,,,,,,,,,,,,,,,,,,,,,,,,,,,,,,,,,,,,,,,,,,,,,,,,,,,,,,,,,,,,,,,,,,,,,,,,,,,,,,,,,,,,,,,,,,,,,,,,,,,,,,,,,,,,,,,,,,,,,,,,,,,,,,,,,,,,,,,,,,,,,,,,,,,,,,,,,,,,,,,,,,,,,,,,,,,,,,,
1764666499.064545,40963,0,4416.538574,4451.794922,4560.897461,4563.461426,4451.666504,4554.102539,4583.461426,4423.846191,4653.461426,4389.743652,4518.974121,4547.692383,4590,4436.794922,4410.512695,4534.743652,4567.563965,4583.717773,4539.230957,4433.846191,4446.538574,4611.410156,4553.205078,4541.153809,4532.820313,4695,4423.974121,4599.102539,4536.666504,4446.666504,4561.410156,4553.974121,2837,1,19,2575,64844,,,,0,4,4,4,4,4,4,4,4,4,4,4,4,4,4,4,4,4,4,4,4,4,4,4,4,4,4,4,4,4,4,4,4,100,,,,,,,,,,,,,,,,,,,,,,,,,,,,,,,,,,,,,,,,,,,,,,,,,,,,,,,,,,,,,,,,,,,,,,,,,,,,,,,,,,,,,,,,,,,,,,,,,,,,,,,,,,,,,,,,,,,,,,,,,,,,,,,,,,,,,,,,,,,,,,,,,,,,,,,,,,,,,,,,,,,,,,,,,,,,,,,,,,,,,,,,,,,,,,,,,,,,,,,,,,,,,,
1764666499.068451,40964,0,4423.974121,4457.692383,4566.282227,4571.410156,4454.358887,4558.205078,4588.333496,4423.205078,4662.436035,4417.307617,4528.205078,4558.077148,4601.666504,4440.256348,4428.717773,4539.230957,4577.307617,4595.512695,4549.230957,4447.94873,4458.589844,4619.615234,4561.025879,4552.563965,4555.512695,4711.410156,4417.820313,4601.794922,4538.974121,4447.94873,4564.615234,4562.05127,2701,1,19,2575,64852,,,,0,4,4,4,4,4,4,4,4,4,4,4,4,4,4,4,4,4,4,4,4,4,4,4,4,4,4,4,4,4,4,4,4,100,,,,,,,,,,,,,,,,,,,,,,,,,,,,,,,,,,,,,,,,,,,,,,,3.030618,0.740857,1.54574,1.184964,0.807861,5.695114,1.363136,1.490834,1.698987,0.902659,4.375021,2.740578,3.901735,2.02938,2.869923,2.503075,1.320898,2.406674,2.328522,1.405739,4.079337,1.197661,1.713697,2.125279,1.178974,3.375639,1.419622,1.190537,1.369312,0.663369,2.110057,1.267025,1.445951,1.465258,0.905025,2.884669,1.159217,1.05702,1.973911,1.105788,1.349102,1.077356,2.232797,1.265431,0.932764,1.380627,1.12223,3.831258,3.166087,5.022208,1.659886,0.834964,1.02834,0.704303,0.670197,1.658514,1.030088,1.303353,0.935275,0.950947,0.719814,0.871071,1.134807,0.97462,0.716971,1.352687,0.506348,0.956657,0.466783,0.447372,1.264959,1.523074,0.522506,0.467668,0.833514,0.207927,0.427641,0.113413,0.250409,0.222272,1.813448,1.355519,1.23659,1.355707,1.115147,1.119001,3.882844,1.221529,1.796738,2.512942,0.695256,2.979291,1.405833,1.443313,2.448853,1.110453,1.496807,0.81223,1.157423,1.329941,1.03898,2.362355,0.861622,2.109089,1.810415,1.798169,1.763127,1.29499,1.85491,1.523389,2.974839,1.15935,1.135393,1.269261,0.68127,3.128759,1.880922,1.424354,1.853214,1.317658,4.849284,6.262996,8.105989,7.740116,6.118964,3.403703,1.464462,1.423443,1.621069,0.870291,4.654286,1.560501,1.725654,2.768593,1.428545,3.365819,1.438974,1.404431,1.986857,1.159284,1.913024,0.622023,0.855643,0.810087,0.486086,5.073824,1.945373,1.943078,2.00039,0.983418,5.207649,1.487075,2.131873,2.93049,1.881477,4.305641,2.207355,5.112377,2.39797,2.767456
1764666499.072357,40965,0,4425.769043,4459.743652,4565.256348,4577.436035,4456.538574,4559.871582,4591.025879,4422.563965,4666.794922,4434.743652,4537.563965,4562.436035,4609.230957,4433.077148,4434.871582,4540.128418,4580.897461,4597.820313,4554.358887,4448.717773,4458.205078,4619.871582,4563.974121,4553.333496,4536.922852,4715.641113,4412.307617,4601.025879,4539.358887,4445.128418,4566.153809,4563.077148,2769,1,19,2575,64852,,,,0,4,4,4,4,4,4,4,4,4,4,4,4,4,4,4,4,4,4,4,4,4,4,4,4,4,4,4,4,4,4,4,4,100,,,,,,,,,,,,,,,,,,,,,,,,,,,,,,,,,,,43009,0,0.50099,-0.395264,-0.288391,0.713867,0.950311,-0.319375,0.006348,3,42,-22.666666,,,,,,,,,,,,,,,,,,,,,,,,,,,,,,,,,,,,,,,,,,,,,,,,,,,,,,,,,,,,,,,,,,,,,,,,,,,,,,,,,,,,,,,,,,,,,,,,,,,,,,,,,,,,,,,,,,,,,,,,,,,,,,,,,,,,,,,,,,,,,,,,,,,,,,,,,,,,,,,,
1764666499.076263,40966,0,4421.282227,4458.077148,4559.615234,4577.307617,4457.820313,4560.384766,4590.128418,4422.692383,4661.410156,4427.820313,4541.666504,4559.487305,4608.717773,4419.487305,4425.256348,4536.922852,4576.666504,4590,4550.512695,4436.282227,4442.94873,4612.436035,4561.282227,4543.974121,4485,4703.461426,4412.436035,4597.563965,4538.717773,4441.922852,4567.179688,4558.461426,2803,1,19,2576,64860,,,,0,4,4,4,4,4,4,4,4,4,4,4,4,4,4,4,4,4,4,4,4,4,4,4,4,4,4,4,4,4,4,4,4,100,,,,,,,,,,,,,,,,,,,,,,,,,,,,,,,,,,,,,,,,,,,,,,,,,,,,,,,,,,,,,,,,,,,,,,,,,,,,,,,,,,,,,,,,,,,,,,,,,,,,,,,,,,,,,,,,,,,,,,,,,,,,,,,,,,,,,,,,,,,,,,,,,,,,,,,,,,,,,,,,,,,,,,,,,,,,,,,,,,,,,,,,,,,,,,,,,,,,,,,,,,,,,,
1764666499.080170,40967,0,4415.128418,4455.641113,4555.897461,4572.820313,4458.077148,4561.666504,4587.563965,4424.615234,4649.487305,4401.666504,4538.589844,4553.205078,4602.05127,4410.384766,4408.717773,4532.563965,4568.846191,4577.436035,4538.846191,4418.974121,4422.820313,4602.307617,4555.256348,4530.384766,4425.256348,4683.205078,4420.897461,4594.102539,4538.846191,4442.05127,4568.333496,4554.743652,2985,1,19,2576,64860,,,,0,4,4,4,4,4,4,4,4,4,4,4,4,4,4,4,4,4,4,4,4,4,4,4,4,4,4,4,4,4,4,4,4,100,,,,,,,,,,,,,,,,,,,,,,,,,,,,,,,,,,,,,,,,,,,,,,,,,,,,,,,,,,,,,,,,,,,,,,,,,,,,,,,,,,,,,,,,,,,,,,,,,,,,,,,,,,,,,,,,,,,,,,,,,,,,,,,,,,,,,,,,,,,,,,,,,,,,,,,,,,,,,,,,,,,,,,,,,,,,,,,,,,,,,,,,,,,,,,,,,,,,,,,,,,,,,,
1764666499.084076,40968,0,4413.333496,4455.641113,4559.871582,4570.128418,4457.820313,4565.256348,4586.666504,4429.102539,4641.794922,4379.102539,4532.692383,4548.717773,4596.025879,4412.94873,4399.871582,4530.769043,4563.717773,4567.179688,4524.102539,4407.692383,4411.922852,4596.282227,4550.256348,4520.512695,4385.769043,4670.897461,4434.358887,4593.333496,4540.641113,4446.410156,4570.641113,4557.436035,2893,1,19,2573,64867,,,,0,4,4,4,4,4,4,4,4,4,4,4,4,4,4,4,4,4,4,4,4,4,4,4,4,4,4,4,4,4,4,4,4,100,,,,,,,,,,,,,,,,,,,,,,,,,,,,,,,,,,,,,,,,,,,,,,,,,,,,,,,,,,,,,,,,,,,,,,,,,,,,,,,,,,,,,,,,,,,,,,,,,,,,,,,,,,,,,,,,,,,,,,,,,,,,,,,,,,,,,,,,,,,,,,,,,,,,,,,,,,,,,,,,,,,,,,,,,,,,,,,,,,,,,,,,,,,,,,,,,,,,,,,,,,,,,,
1764666499.087982,40969,0,4418.717773,4459.358887,4571.538574,4574.871582,4457.563965,4571.282227,4590.256348,4435.128418,4648.205078,4383.205078,4531.282227,4549.487305,4596.282227,4424.615234,4406.666504,4533.077148,4565.512695,4563.589844,4512.436035,4408.333496,4416.410156,4598.589844,4549.871582,4520.769043,4379.230957,4677.436035,4447.179688,4598.077148,4544.358887,4453.333496,4574.871582,4566.410156,2717,1,19,2573,64867,,,,0,4,4,4,4,4,4,4,4,4,4,4,4,4,4,4,4,4,4,4,4,4,4,4,4,4,4,4,4,4,4,4,4,100,,,,,,,,,,,,,,,,,,,,,,,,,,,,,,,,,,,43010,0,0.500893,-0.395447,-0.289063,0.713562,1.028446,-0.290563,-0.009278,3.166667,43.333332,-21.666666,,,,,,,,,,,,,,,,,,,,,,,,,,,,,,,,,,,,,,,,,,,,,,,,,,,,,,,,,,,,,,,,,,,,,,,,,,,,,,,,,,,,,,,,,,,,,,,,,,,,,,,,,,,,,,,,,,,,,,,,,,,,,,,,,,,,,,,,,,,,,,,,,,,,,,,,,,,,,,,,
1764666499.091888,40970,0,4429.230957,4467.307617,4585.128418,4588.461426,4459.487305,4579.487305,4598.717773,4441.666504,4669.743652,4416.794922,4540.256348,4556.153809,4604.487305,4436.666504,4425.641113,4537.94873,4574.102539,4567.94873,4509.615234,4419.102539,4429.487305,4609.358887,4556.153809,4533.846191,4398.333496,4700.897461,4456.538574,4609.743652,4550.641113,4461.922852,4581.922852,4576.794922,711,1,19,2571,64875,,,,0,4,4,4,4,4,4,4,4,4,4,4,4,4,4,4,4,4,4,4,4,4,4,4,4,4,4,4,4,4,4,4,4,100,,,,,,,,,,,,,,,,,,,,,,,,,,,,,,,,,,,,,,,,,,,,,,,,,,,,,,,,,,,,,,,,,,,,,,,,,,,,,,,,,,,,,,,,,,,,,,,,,,,,,,,,,,,,,,,,,,,,,,,,,,,,,,,,,,,,,,,,,,,,,,,,,,,,,,,,,,,,,,,,,,,,,,,,,,,,,,,,,,,,,,,,,,,,,,,,,,,,,,,,,,,,,,
1764666499.095794,40971,0,4442.05127,4478.974121,4594.871582,4607.179688,4467.179688,4589.743652,4611.410156,4450.512695,4698.717773,4460.384766,4558.846191,4567.94873,4617.563965,4441.153809,4445.897461,4542.563965,4587.820313,4580.128418,4519.102539,4433.846191,4438.333496,4625.384766,4568.333496,4556.794922,4427.563965,4727.692383,4464.615234,4627.692383,4559.615234,4472.692383,4592.436035,4584.487305,2714,1,19,2571,64875,,,,0,4,4,4,4,4,4,4,4,4,4,4,4,4,4,4,4,4,4,4,4,4,4,4,4,4,4,4,4,4,4,4,4,100,,,,,,,,,,,,,,,,,,,,,,,,,,,,,,,,,,,,,,,,,,,,,,,,,,,,,,,,,,,,,,,,,,,,,,,,,,,,,,,,,,,,,,,,,,,,,,,,,,,,,,,,,,,,,,,,,,,,,,,,,,,,,,,,,,,,,,,,,,,,,,,,,,,,,,,,,,,,,,,,,,,,,,,,,,,,,,,,,,,,,,,,,,,,,,,,,,,,,,,,,,,,,,
1764666499.099700,40972,0,4454.102539,4492.307617,4598.974121,4624.230957,4481.922852,4601.666504,4626.153809,4463.205078,4723.461426,4487.94873,4579.102539,4582.179688,4630.384766,4436.410156,4457.820313,4545.641113,4602.820313,4597.820313,4538.589844,4446.538574,4434.615234,4640.256348,4582.307617,4581.410156,4456.666504,4744.358887,4474.102539,4647.307617,4569.487305,4485.641113,4604.743652,4588.205078,2519,1,19,2572,64883,,,,0,4,4,4,4,4,4,4,4,4,4,4,4,4,4,4,4,4,4,4,4,4,4,4,4,4,4,4,4,4,4,4,4,100,,,,,,,,,,,,,,,,,,,,,,,,,,,,,,,,,,,,,,,,,,,,,,,,,,,,,,,,,,,,,,,,,,,,,,,,,,,,,,,,,,,,,,,,,,,,,,,,,,,,,,,,,,,,,,,,,,,,,,,,,,,,,,,,,,,,,,,,,,,,,,,,,,,,,,,,,,,,,,,,,,,,,,,,,,,,,,,,,,,,,,,,,,,,,,,,,,,,,,,,,,,,,,
1764666499.103606,40973,0,4461.922852,4502.692383,4598.846191,4632.563965,4499.615234,4611.794922,4638.589844,4477.436035,4734.358887,4484.615234,4590.512695,4593.846191,4638.077148,4426.025879,4457.692383,4547.307617,4613.846191,4614.871582,4559.615234,4454.102539,4420.641113,4647.307617,4591.153809,4596.025879,4481.153809,4745.641113,4482.94873,4659.615234,4575.641113,4497.05127,4614.487305,4589.743652,2322,1,19,2572,64883,,,,0,4,4,4,4,4,4,4,4,4,4,4,4,4,4,4,4,4,4,4,4,4,4,4,4,4,4,4,4,4,4,4,4,100,,,,,,,,,,,,,,,,,,,,,,,,,,,,,,,,,,,43011,0,0.500324,-0.395569,-0.289429,0.713745,1.035771,-0.272494,-0.026859,4.166667,42.333332,-23.5,,,,,,,,,,,,,,,,,,,,,,,,,,,,,,,,,,,,,,,,,,,,,,,,,,,,,,,,,,,,,,,,,,,,,,,,,,,,,,,,,,,,,,,,,,,,,,,,,,,,,,,,,,,,,,,,,,,,,,,,,,,,,,,,,,,,,,,,,,,,,,,,,,,,,,,,,,,,,,,,
1764666499.107512,40974,0,4461.410156,4504.102539,4595.769043,4627.820313,4509.615234,4613.974121,4641.922852,4484.615234,4727.436035,4454.615234,4585.384766,4596.153809,4636.922852,4415.641113,4447.820313,4547.563965,4614.743652,4622.692383,4570.256348,4455.897461,4405.897461,4641.538574,4588.589844,4592.563965,4495.512695,4736.538574,4484.102539,4656.153809,4573.333496,4500,4615.641113,4589.487305,2707,1,19,2571,64891,,,,0,4,4,4,4,4,4,4,4,4,4,4,4,4,4,4,4,4,4,4,4,4,4,4,4,4,4,4,4,4,4,4,4,100,,,,,,,,,,,,,,,,,,,,,,,,,,,,,,,,,,,,,,,,,,,,,,,,,,,,,,,,,,,,,,,,,,,,,,,,,,,,,,,,,,,,,,,,,,,,,,,,,,,,,,,,,,,,,,,,,,,,,,,,,,,,,,,,,,,,,,,,,,,,,,,,,,,,,,,,,,,,,,,,,,,,,,,,,,,,,,,,,,,,,,,,,,,,,,,,,,,,,,,,,,,,,,
1764666499.111418,40975,0,4450.384766,4492.692383,4587.436035,4609.358887,4501.794922,4603.589844,4630.512695,4475.256348,4705.256348,4416.153809,4564.102539,4584.487305,4626.025879,4409.102539,4432.692383,4545.769043,4602.94873,4614.743652,4564.358887,4451.666504,4399.358887,4624.358887,4573.333496,4571.666504,4493.974121,4724.871582,4471.025879,4636.282227,4561.794922,4488.846191,4605,4585.641113,2490,1,19,2571,64891,,,,0,4,4,4,4,4,4,4,4,4,4,4,4,4,4,4,4,4,4,4,4,4,4,4,4,4,4,4,4,4,4,4,4,100,,,,,,,,,,,,,,,,,,,,,,,,,,,,,,,,,,,,,,,,,,,,,,,,,,,,,,,,,,,,,,,,,,,,,,,,,,,,,,,,,,,,,,,,,,,,,,,,,,,,,,,,,,,,,,,,,,,,,,,,,,,,,,,,,,,,,,,,,,,,,,,,,,,,,,,,,,,,,,,,,,,,,,,,,,,,,,,,,,,,,,,,,,,,,,,,,,,,,,,,,,,,,,
1764666499.115324,40976,1,4448.345703,4490.140625,4585.244141,4606.52002,4499.304199,4600.98877,4627.338379,4471.092773,4703.003906,4415.439453,4562.289551,4582.148926,4623.961914,4408.516602,4431.617676,4545.07959,4600.909668,4612.41748,4562.673828,4449.609375,4399.212402,4622.790039,4571.593262,4569.078125,4488.717773,4724.822754,4468.11377,4634.157715,4560.274902,4485.830078,4602.680176,4584.145508,2887,1,19,0,0,,,,0,4,4,4,4,4,4,4,4,4,4,4,4,4,4,4,4,4,4,4,4,4,4,4,4,4,4,4,4,4,4,4,4,100,,,,,,,,,,,,,,,,,,,,,,,,,,,,,,,,,,,,,,,,,,,,,,,,,,,,,,,,,,,,,,,,,,,,,,,,,,,,,,,,,,,,,,,,,,,,,,,,,,,,,,,,,,,,,,,,,,,,,,,,,,,,,,,,,,,,,,,,,,,,,,,,,,,,,,,,,,,,,,,,,,,,,,,,,,,,,,,,,,,,,,,,,,,,,,,,,,,,,,,,,,,,,,
1764666499.119230,40977,1,4446.306641,4487.588379,4583.052734,4603.681152,4496.812988,4598.388184,4624.163574,4466.929199,4700.750977,4414.725098,4560.476074,4579.810547,4621.898438,4407.930176,4430.543457,4544.389648,4598.870605,4610.091797,4560.98877,4447.551758,4399.065918,4621.221191,4569.853516,4566.489746,4483.461426,4724.773926,4465.20166,4632.033203,4558.754395,4482.814453,4600.360352,4582.649414,2879,1,19,0,0,,,,0,4,4,4,4,4,4,4,4,4,4,4,4,4,4,4,4,4,4,4,4,4,4,4,4,4,4,4,4,4,4,4,4,100,,,,,,,,,,,,,,,,,,,,,,,,,,,,,,,,,,,,,,,,,,,,,,,,,,,,,,,,,,,,,,,,,,,,,,,,,,,,,,,,,,,,,,,,,,,,,,,,,,,,,,,,,,,,,,,,,,,,,,,,,,,,,,,,,,,,,,,,,,,,,,,,,,,,,,,,,,,,,,,,,,,,,,,,,,,,,,,,,,,,,,,,,,,,,,,,,,,,,,,,,,,,,,
1764666499.123136,40978,1,4444.267578,4485.036621,4580.86084,4600.842285,4494.322266,4595.787598,4620.98877,4462.765625,4698.498047,4414.01123,4558.663086,4577.472656,4619.834961,4407.344238,4429.46875,4543.699707,4596.831543,4607.765625,4559.304199,4445.494629,4398.919434,4619.651855,4568.11377,4563.900879,4478.205078,4724.725098,4462.289551,4629.908203,4557.234375,4479.79834,4598.040527,4581.153809,1745,1,19,0,0,,,,0,4,4,4,4,4,4,4,4,4,4,4,4,4,4,4,4,4,4,4,4,4,4,4,4,4,4,4,4,4,4,4,4,100,,,,,,,,,,,,,,,,,,,,,,,,,,,,,,,,,,,,,,,,,,,,,,,,,,,,,,,,,,,,,,,,,,,,,,,,,,,,,,,,,,,,,,,,,,,,,,,,,,,,,,,,,,,,,,,,,,,,,,,,,,,,,,,,,,,,,,,,,,,,,,,,,,,,,,,,,,,,,,,,,,,,,,,,,,,,,,,,,,,,,,,,,,,,,,,,,,,,,,,,,,,,,,
1764666499.127042,40979,1,4442.228516,4482.484863,4578.668945,4598.003906,4491.831543,4593.187012,4617.814453,4458.602051,4696.245605,4413.296875,4556.849609,4575.134277,4617.771484,4406.758301,4428.394531,4543.009766,4594.79248,4605.439453,4557.619141,4443.437012,4398.772949,4618.083008,4566.373535,4561.3125,4472.94873,4724.67627,4459.377441,4627.783691,4555.714355,4476.782715,4595.720215,4579.658203,2829,1,19,0,0,,,,0,4,4,4,4,4,4,4,4,4,4,4,4,4,4,4,4,4,4,4,4,4,4,4,4,4,4,4,4,4,4,4,4,100,,,,,,,,,,,,,,,,,,,,,,,,,,,,,,,,,,,,,,,,,,,,,,,,,,,,,,,,,,,,,,,,,,,,,,,,,,,,,,,,,,,,,,,,,,,,,,,,,,,,,,,,,,,,,,,,,,,,,,,,,,,,,,,,,,,,,,,,,,,,,,,,,,,,,,,,,,,,,,,,,,,,,,,,,,,,,,,,,,,,,,,,,,,,,,,,,,,,,,,,,,,,,,
1764666499.130948,40980,1,4440.189453,4479.932617,4576.477539,4595.165039,4489.34082,4590.585938,4614.639648,4454.438477,4693.992676,4412.58252,4555.036621,4572.795898,4615.708008,4406.172363,4427.319824,4542.319824,4592.753418,4603.11377,4555.934082,4441.379883,4398.626465,4616.51416,4564.633789,4558.724121,4467.692383,4724.627441,4456.465332,4625.65918,4554.194336,4473.766602,4593.400391,4578.162598,2559,1,19,0,0,,,,0,4,4,4,4,4,4,4,4,4,4,4,4,4,4,4,4,4,4,4,4,4,4,4,4,4,4,4,4,4,4,4,4,100,,,,,,,,,,,,,,,,,,,,,,,,,,,,,,,,,,,,,,,,,,,,,,,,,,,,,,,,,,,,,,,,,,,,,,,,,,,,,,,,,,,,,,,,,,,,,,,,,,,,,,,,,,,,,,,,,,,,,,,,,,,,,,,,,,,,,,,,,,,,,,,,,,,,,,,,,,,,,,,,,,,,,,,,,,,,,,,,,,,,,,,,,,,,,,,,,,,,,,,,,,,,,,
1764666499.134854,40981,1,4438.150391,4477.380859,4574.285645,4592.326172,4486.849609,4587.985352,4611.465332,4450.274902,4691.739746,4411.868164,4553.223633,4570.458008,4613.644531,4405.585938,4426.245605,4541.629883,4590.714355,4600.787598,4554.249023,4439.322266,4398.47998,4614.944824,4562.893555,4556.135742,4462.436035,4724.578613,4453.553223,4623.534668,4552.673828,4470.750977,4591.080566,4576.666504,2850,1,19,0,0,,,,0,4,4,4,4,4,4,4,4,4,4,4,4,4,4,4,4,4,4,4,4,4,4,4,4,4,4,4,4,4,4,4,4,100,,,,,,,,,,,,,,,,,,,,,,,,,,,,,,,,,,,,,,,,,,,,,,,,,,,,,,,,,,,,,,,,,,,,,,,,,,,,,,,,,,,,,,,,,,,,,,,,,,,,,,,,,,,,,,,,,,,,,,,,,,,,,,,,,,,,,,,,,,,,,,,,,,,,,,,,,,,,,,,,,,,,,,,,,,,,,,,,,,,,,,,,,,,,,,,,,,,,,,,,,,,,,,
1764666499.138760,40982,1,4436.111328,4474.829102,4572.094238,4589.487305,4484.358887,4585.384766,4608.290527,4446.111328,4689.487305,4411.153809,4551.410156,4568.119629,4611.581055,4405,4425.170898,4540.939941,4588.675293,4598.461426,4552.563965,4437.265137,4398.333496,4613.375977,4561.153809,4553.546875,4457.179688,4724.529785,4450.641113,4621.410156,4551.153809,4467.734863,4588.760742,4575.170898,2939,1,19,0,0,,,,0,4,4,4,4,4,4,4,4,4,4,4,4,4,4,4,4,4,4,4,4,4,4,4,4,4,4,4,4,4,4,4,4,100,,,,,,,,,,,,,,,,,,,,,,,,,,,,,,,,,,,,,,,,,,,,,,,,,,,,,,,,,,,,,,,,,,,,,,,,,,,,,,,,,,,,,,,,,,,,,,,,,,,,,,,,,,,,,,,,,,,,,,,,,,,,,,,,,,,,,,,,,,,,,,,,,,,,,,,,,,,,,,,,,,,,,,,,,,,,,,,,,,,,,,,,,,,,,,,,,,,,,,,,,,,,,,
1764666499.142666,40983,1,4434.072266,4472.277344,4569.902344,4586.648438,4481.868164,4582.783691,4605.116211,4441.947266,4687.234375,4410.439453,4549.597168,4565.78125,4609.517578,4404.414063,4424.09668,4540.250488,4586.63623,4596.135742,4550.878906,4435.20752,4398.187012,4611.807129,4559.414063,4550.958496,4451.922852,4724.480957,4447.729004,4619.285645,4549.633789,4464.719238,4586.440918,4573.675293,2841,1,19,0,0,,,,0,4,4,4,4,4,4,4,4,4,4,4,4,4,4,4,4,4,4,4,4,4,4,4,4,4,4,4,4,4,4,4,4,100,,,,,,,,,,,,,,,,,,,,,,,,,,,,,,,,,,,,,,,,,,,,,,,,,,,,,,,,,,,,,,,,,,,,,,,,,,,,,,,,,,,,,,,,,,,,,,,,,,,,,,,,,,,,,,,,,,,,,,,,,,,,,,,,,,,,,,,,,,,,,,,,,,,,,,,,,,,,,,,,,,,,,,,,,,,,,,,,,,,,,,,,,,,,,,,,,,,,,,,,,,,,,,
1764666499.146572,40984,1,4432.033203,4469.725098,4567.710449,4583.80957,4479.377441,4580.183105,4601.941406,4437.783691,4684.981445,4409.725098,4547.783691,4563.443359,4607.454102,4403.827637,4423.021973,4539.560547,4584.597168,4593.80957,4549.194336,4433.150391,4398.040527,4610.238281,4557.673828,4548.370117,4446.666504,4724.432129,4444.816895,4617.161133,4548.11377,4461.703125,4584.121094,4572.179688,2751,1,19,0,0,,,,0,4,4,4,4,4,4,4,4,4,4,4,4,4,4,4,4,4,4,4,4,4,4,4,4,4,4,4,4,4,4,4,4,100,,,,,,,,,,,,,,,,,,,,,,,,,,,,,,,,,,,,,,,,,,,,,,,,,,,,,,,,,,,,,,,,,,,,,,,,,,,,,,,,,,,,,,,,,,,,,,,,,,,,,,,,,,,,,,,,,,,,,,,,,,,,,,,,,,,,,,,,,,,,,,,,,,,,,,,,,,,,,,,,,,,,,,,,,,,,,,,,,,,,,,,,,,,,,,,,,,,,,,,,,,,,,,
1764666499.150478,40985,1,4429.993652,4467.17334,4565.519043,4580.970703,4476.88623,4577.58252,4598.766602,4433.620117,4682.729004,4409.01123,4545.970703,4561.10498,4605.390625,4403.241699,4421.947266,4538.870605,4582.558105,4591.483398,4547.509277,4431.092773,4397.893555,4608.668945,4555.934082,4545.78125,4441.410156,4724.383301,4441.904785,4615.036621,4546.593262,4458.6875,4581.800781,4570.683594,2865,1,19,0,0,,,,0,4,4,4,4,4,4,4,4,4,4,4,4,4,4,4,4,4,4,4,4,4,4,4,4,4,4,4,4,4,4,4,4,100,,,,,,,,,,,,,,,,,,,,,,,,,,,,,,,,,,,,,,,,,,,,,,,,,,,,,,,,,,,,,,,,,,,,,,,,,,,,,,,,,,,,,,,,,,,,,,,,,,,,,,,,,,,,,,,,,,,,,,,,,,,,,,,,,,,,,,,,,,,,,,,,,,,,,,,,,,,,,,,,,,,,,,,,,,,,,,,,,,,,,,,,,,,,,,,,,,,,,,,,,,,,,,
1764666499.154384,40986,1,4427.95459,4464.621582,4563.327148,4578.131836,4474.395508,4574.981445,4595.592285,4429.456543,4680.476074,4408.296875,4544.157715,4558.766602,4603.327148,4402.655762,4420.873047,4538.180664,4580.519043,4589.157715,4545.824219,4429.035645,4397.74707,4607.100098,4554.194336,4543.192871,4436.153809,4724.334473,4438.992676,4612.912109,4545.073242,4455.671387,4579.480957,4569.187988,1974,1,19,0,0,,,,0,4,4,4,4,4,4,4,4,4,4,4,4,4,4,4,4,4,4,4,4,4,4,4,4,4,4,4,4,4,4,4,4,100,,,,,,,,,,,,,,,,,,,,,,,,,,,,,,,,,,,,,,,,,,,,,,,,,,,,,,,,,,,,,,,,,,,,,,,,,,,,,,,,,,,,,,,,,,,,,,,,,,,,,,,,,,,,,,,,,,,,,,,,,,,,,,,,,,,,,,,,,,,,,,,,,,,,,,,,,,,,,,,,,,,,,,,,,,,,,,,,,,,,,,,,,,,,,,,,,,,,,,,,,,,,,,
1764666499.158290,40987,1,4425.915527,4462.069824,4561.135742,4575.292969,4471.904785,4572.380859,4592.41748,4425.292969,4678.223633,4407.58252,4542.344238,4556.428711,4601.263672,4402.069824,4419.79834,4537.490723,4578.47998,4586.831543,4544.13916,4426.978027,4397.600586,4605.53125,4552.454102,4540.604492,4430.897461,4724.285645,4436.080566,4610.787598,4543.553223,4452.655762,4577.161133,4567.692383,2656,1,19,0,0,,,,0,4,4,4,4,4,4,4,4,4,4,4,4,4,4,4,4,4,4,4,4,4,4,4,4,4,4,4,4,4,4,4,4,100,,,,,,,,,,,,,,,,,,,,,,,,,,,,,,,,,,,43012,1,0.499661,-0.395386,-0.28893,0.714508,1.027388,-0.286086,-0.024173,4.333333,42.444443,-23.194445,,,,,,,,,,,,,,,,,,,,,,,,,,,,,,,,,,,,,,,,,,,,,,,,,,,,,,,,,,,,,,,,,,,,,,,,,,,,,,,,,,,,,,,,,,,,,,,,,,,,,,,,,,,,,,,,,,,,,,,,,,,,,,,,,,,,,,,,,,,,,,,,,,,,,,,,,,,,,,,,
1764666499.162196,40988,1,4423.876465,4459.517578,4558.943848,4572.454102,4469.414063,4569.780273,4589.243164,4421.129395,4675.970703,4406.868164,4540.53125,4554.090332,4599.200195,4401.483398,4418.724121,4536.800781,4576.440918,4584.505371,4542.454102,4424.92041,4397.454102,4603.961914,4550.714355,4538.016113,4425.641113,4724.236816,4433.168457,4608.663086,4542.033203,4449.639648,4574.841309,4566.196777,2743,1,19,0,0,,,,0,4,4,4,4,4,4,4,4,4,4,4,4,4,4,4,4,4,4,4,4,4,4,4,4,4,4,4,4,4,4,4,4,100,,,,,,,,,,,,,,,,,,,,,,,,,,,,,,,,,,,,,,,,,,,,,,,,,,,,,,,,,,,,,,,,,,,,,,,,,,,,,,,,,,,,,,,,,,,,,,,,,,,,,,,,,,,,,,,,,,,,,,,,,,,,,,,,,,,,,,,,,,,,,,,,,,,,,,,,,,,,,,,,,,,,,,,,,,,,,,,,,,,,,,,,,,,,,,,,,,,,,,,,,,,,,,
1764666499.166102,40989,1,4421.837402,4456.96582,4556.751953,4569.615234,4466.922852,4567.179688,4586.068359,4416.96582,4673.717773,4406.153809,4538.717773,4551.751953,4597.136719,4400.897461,4417.649414,4536.111328,4574.401855,4582.179688,4540.769043,4422.863281,4397.307617,4602.393066,4548.974121,4535.427246,4420.384766,4724.187988,4430.256348,4606.538574,4540.512695,4446.624023,4572.521484,4564.700684,2594,1,19,0,0,,,,0,4,4,4,4,4,4,4,4,4,4,4,4,4,4,4,4,4,4,4,4,4,4,4,4,4,4,4,4,4,4,4,4,100,,,,,,,,,,,,,,,,,,,,,,,,,,,,,,,,,,,43013,1,0.498998,-0.395203,-0.288432,0.715271,1.019005,-0.299679,-0.021487,4.5,42.555557,-22.888889,,,,,,,,,,,,,,,,,,,,,,,,,,,,,,,,,,,,,,,,,,,,,,,,,,,,,,,,,,,,,,,,,,,,,,,,,,,,,,,,,,,,,,,,,,,,,,,,,,,,,,,,,,,,,,,,,,,,,,,,,,,,,,,,,,,,,,,,,,,,,,,,,,,,,,,,,,,,,,,,
1764666499.170008,40990,1,4419.79834,4454.414063,4554.560547,4566.776367,4464.432129,4564.578613,4582.893555,4412.802246,4671.465332,4405.439453,4536.904785,4549.414063,4595.073242,4400.311523,4416.575195,4535.421387,4572.362793,4579.853516,4539.084473,4420.805664,4397.161133,4600.824219,4547.234375,4532.838867,4415.128418,4724.13916,4427.344238,4604.414063,4538.992676,4443.60791,4570.20166,4563.205078,2716,1,19,0,0,,,,0,4,4,4,4,4,4,4,4,4,4,4,4,4,4,4,4,4,4,4,4,4,4,4,4,4,4,4,4,4,4,4,4,100,,,,,,,,,,,,,,,,,,,,,,,,,,,,,,,,,,,,,,,,,,,,,,,,,,,,,,,,,,,,,,,,,,,,,,,,,,,,,,,,,,,,,,,,,,,,,,,,,,,,,,,,,,,,,,,,,,,,,,,,,,,,,,,,,,,,,,,,,,,,,,,,,,,,,,,,,,,,,,,,,,,,,,,,,,,,,,,,,,,,,,,,,,,,,,,,,,,,,,,,,,,,,,
1764666499.173914,40991,1,4417.759277,4451.861816,4552.368652,4563.9375,4461.941406,4561.978027,4579.719238,4408.638672,4669.212402,4404.725098,4535.091797,4547.075684,4593.009766,4399.725098,4415.500488,4534.731445,4570.32373,4577.527344,4537.399414,4418.748535,4397.014648,4599.255371,4545.494629,4530.250488,4409.871582,4724.090332,4424.432129,4602.289551,4537.472656,4440.592285,4567.881348,4561.709473,2836,1,19,0,0,,,,0,4,4,4,4,4,4,4,4,4,4,4,4,4,4,4,4,4,4,4,4,4,4,4,4,4,4,4,4,4,4,4,4,100,,,,,,,,,,,,,,,,,,,,,,,,,,,,,,,,,,,43014,1,0.498335,-0.39502,-0.287933,0.716034,1.010621,-0.313271,-0.018801,4.666667,42.666668,-22.583334,,,,,,,,,,,,,,,,,,,,,,,,,,,,,,,,,,,,,,,,,,,,,,,,,,,,,,,,,,,,,,,,,,,,,,,,,,,,,,,,,,,,,,,,,,,,,,,,,,,,,,,,,,,,,,,,,,,,,,,,,,,,,,,,,,,,,,,,,,,,,,,,,,,,,,,,,,,,,,,,
1764666499.177820,40992,1,4415.720215,4449.310059,4550.177246,4561.099121,4459.450684,4559.377441,4576.544434,4404.475098,4666.959473,4404.01123,4533.27832,4544.737305,4590.946289,4399.13916,4414.42627,4534.041504,4568.284668,4575.20166,4535.714355,4416.690918,4396.868164,4597.686035,4543.754395,4527.661621,4404.615234,4724.041504,4421.52002,4600.165039,4535.952148,4437.576172,4565.561523,4560.213867,0,1,19,0,0,,,,0,4,4,4,4,4,4,4,4,4,4,4,4,4,4,4,4,4,4,4,4,4,4,4,4,4,4,4,4,4,4,4,4,100,,,,,,,,,,,,,,,,,,,,,,,,,,,,,,,,,,,,,,,,,,,,,,,,,,,,,,,,,,,,,,,,,,,,,,,,,,,,,,,,,,,,,,,,,,,,,,,,,,,,,,,,,,,,,,,,,,,,,,,,,,,,,,,,,,,,,,,,,,,,,,,,,,,,,,,,,,,,,,,,,,,,,,,,,,,,,,,,,,,,,,,,,,,,,,,,,,,,,,,,,,,,,,
1764666499.181726,40993,1,4413.681152,4446.758301,4547.985352,4558.260254,4456.959473,4556.776367,4573.370117,4400.311523,4664.707031,4403.296875,4531.465332,4542.399414,4588.882813,4398.553223,4413.351563,4533.351563,4566.245605,4572.875488,4534.029297,4414.633789,4396.72168,4596.117188,4542.014648,4525.073242,4399.358887,4723.992676,4418.60791,4598.040527,4534.432129,4434.560547,4563.241699,4558.717773,0,1,19,0,0,,,,0,4,4,4,4,4,4,4,4,4,4,4,4,4,4,4,4,4,4,4,4,4,4,4,4,4,4,4,4,4,4,4,4,100,,,,,,,,,,,,,,,,,,,,,,,,,,,,,,,,,,,43015,1,0.497672,-0.394836,-0.287435,0.716797,1.002238,-0.326863,-0.016115,4.833333,42.777779,-22.277779,,,,,,,,,,,,,,,,,,,,,,,,,,,,,,,,,,,,,,,,,,,,,,,,,,,,,,,,,,,,,,,,,,,,,,,,,,,,,,,,,,,,,,,,,,,,,,,,,,,,,,,,,,,,,,,,,,,,,,,,,,,,,,,,,,,,,,,,,,,,,,,,,,,,,,,,,,,,,,,,
1764666499.185632,40994,1,4411.64209,4444.206543,4545.793457,4555.421387,4454.46875,4554.175781,4570.195313,4396.147949,4662.454102,4402.58252,4529.651855,4540.061035,4586.819336,4397.966797,4412.277344,4532.661621,4564.206543,4570.549316,4532.344238,4412.576172,4396.575195,4594.54834,4540.274902,4522.484863,4394.102539,4723.943848,4415.695801,4595.915527,4532.912109,4431.544434,4560.921875,4557.222168,0,1,19,0,0,,,,0,4,4,4,4,4,4,4,4,4,4,4,4,4,4,4,4,4,4,4,4,4,4,4,4,4,4,4,4,4,4,4,4,100,,,,,,,,,,,,,,,,,,,,,,,,,,,,,,,,,,,,,,,,,,,,,,,,,,,,,,,,,,,,,,,,,,,,,,,,,,,,,,,,,,,,,,,,,,,,,,,,,,,,,,,,,,,,,,,,,,,,,,,,,,,,,,,,,,,,,,,,,,,,,,,,,,,,,,,,,,,,,,,,,,,,,,,,,,,,,,,,,,,,,,,,,,,,,,,,,,,,,,,,,,,,,,
1764666499.189538,40995,1,4409.603027,4441.654297,4543.602051,4552.58252,4451.978027,4551.575195,4567.020996,4391.983887,4660.20166,4401.868164,4527.838867,4537.722656,4584.755859,4397.380859,4411.202637,4531.97168,4562.16748,4568.223633,4530.65918,4410.519043,4396.428711,4592.979004,4538.534668,4519.895996,4388.846191,4723.89502,4412.783691,4593.791016,4531.39209,4428.528809,4558.602051,4555.726563,0,1,19,0,0,,,,0,4,4,4,4,4,4,4,4,4,4,4,4,4,4,4,4,4,4,4,4,4,4,4,4,4,4,4,4,4,4,4,4,100,,,,,,,,,,,,,,,,,,,,,,,,,,,,,,,,,,,43016,1,0.497009,-0.394653,-0.286936,0.71756,0.993855,-0.340455,-0.013429,5,42.888889,-21.972221,,,,,,,,,,,,,,,,,,,,,,,,,,,,,,,,,,,,,,,,,,,,,,,,,,,,,,,,,,,,,,,,,,,,,,,,,,,,,,,,,,,,,,,,,,,,,,,,,,,,,,,,,,,,,,,,,,,,,,,,,,,,,,,,,,,,,,,,,,,,,,,,,,,,,,,,,,,,,,,,
1764666499.193444,40996,0,4407.563965,4439.102539,4541.410156,4549.743652,4449.487305,4548.974121,4563.846191,4387.820313,4657.94873,4401.153809,4526.025879,4535.384766,4582.692383,4396.794922,4410.128418,4531.282227,4560.128418,4565.897461,4528.974121,4408.461426,4396.282227,4591.410156,4536.794922,4517.307617,4383.589844,4723.846191,4409.871582,4591.666504,4529.871582,4425.512695,4556.282227,4554.230957,2713,1,19,2571,64977,,,,0,4,4,4,4,4,4,4,4,4,4,4,4,4,4,4,4,4,4,4,4,4,4,4,4,4,4,4,4,4,4,4,4,100,0.832031,41.666668,4,4,3,4,4,4,4,4,4,1,4,4,4,4,4,4,4,4,3,4,4,4,4,4,1,4,4,4,4,4,4,4,,,,,,,,,,,,,3.529247,0.803582,1.645523,1.315061,0.884081,6.345308,1.501621,1.583512,1.88477,0.987302,4.317245,2.853332,3.990119,2.04717,3.014859,2.778064,1.25678,2.548067,2.394161,1.471415,4.508779,1.452335,1.677246,2.302243,1.420912,3.769917,1.538282,1.349115,1.518711,0.781521,2.632302,1.627003,1.886271,1.670172,1.172744,3.126472,1.364257,1.375251,2.2232,1.501623,1.686501,1.225226,2.37165,1.477391,1.135776,1.453182,1.275995,3.110496,3.270657,6.113804,1.819641,1.372127,1.356228,0.75298,0.770693,2.122192,1.331641,1.537055,1.013874,1.046501,1.046155,1.012513,1.454443,1.010744,0.810455,1.708318,0.652091,1.104492,0.45818,0.477266,1.329238,1.595903,0.538504,0.510028,0.962529,0.207976,0.436933,0.096431,0.284099,0.228152,2.399968,1.481753,1.491025,1.483215,1.16719,1.415018,4.341709,1.498894,1.77141,2.490048,0.782695,3.358966,1.418645,1.373248,2.534818,1.335258,1.612739,1.078255,1.302862,1.323693,1.217793,2.525599,1.245898,2.363435,1.773197,2.09227,1.844194,1.578925,2.000111,1.561637,3.50367,1.412361,1.380364,1.373293,0.726883,3.18723,1.893578,1.564371,2.173544,1.366706,4.261199,5.931046,9.553163,8.408971,7.3304,3.417308,1.63524,1.834901,1.895283,0.945011,5.092979,1.472937,1.801642,3.151285,1.687133,3.807505,1.454377,1.603561,2.176808,1.251828,2.279397,0.667188,0.949638,0.890717,0.541449,5.771681,2.123836,2.218724,2.221097,1.08246,5.612873,1.374489,2.038491,3.011498,1.898307,4.523978,2.73712,6.660148,2.383621,2.615814
1764666499.197350,40997,0,4403.717773,4433.589844,4535.512695,4546.922852,4438.333496,4542.820313,4555.769043,4378.077148,4654.487305,4428.333496,4514.615234,4529.871582,4578.205078,4402.563965,4410.769043,4528.717773,4559.358887,4568.974121,4529.230957,4409.487305,4399.487305,4587.820313,4533.589844,4509.487305,4352.179688,4713.461426,4416.025879,4591.922852,4526.282227,4425.769043,4544.743652,4544.487305,2759,1,19,2571,64977,,,,0,4,4,4,4,4,4,4,4,4,4,4,4,4,4,4,4,4,4,4,4,4,4,4,4,4,4,4,4,4,4,4,4,100,,,,,,,,,,,,,,,,,,,,,,,,,,,,,,,,,,,43017,0,0.496346,-0.39447,-0.286438,0.718323,0.985472,-0.354047,-0.010743,5.166667,43,-21.666666,,,,,,,,,,,,,,,,,,,,,,,,,,,,,,,,,,,,,,,,,,,,,,,,,,,,,,,,,,,,,,,,,,,,,,,,,,,,,,,,,,,,,,,,,,,,,,,,,,,,,,,,,,,,,,,,,,,,,,,,,,,,,,,,,,,,,,,,,,,,,,,,,,,,,,,,,,,,,,,,
1764666499.201256,40998,0,4399.487305,4427.179688,4527.307617,4545.128418,4424.615234,4537.563965,4553.333496,4378.717773,4652.94873,4423.461426,4505.256348,4524.743652,4573.717773,4410.769043,4412.563965,4528.333496,4553.589844,4568.333496,4526.410156,4404.230957,4399.871582,4575.384766,4523.974121,4493.846191,4342.692383,4701.153809,4417.820313,4583.333496,4520.641113,4422.436035,4534.230957,4534.615234,2789,1,19,2571,64985,,,,0,4,4,4,4,4,4,4,4,4,4,4,4,4,4,4,4,4,4,4,4,4,4,4,4,4,4,4,4,4,4,4,4,100,,,,,,,,,,,,,,,,,,,,,,,,,,,,,,,,,,,,,,,,,,,,,,,,,,,,,,,,,,,,,,,,,,,,,,,,,,,,,,,,,,,,,,,,,,,,,,,,,,,,,,,,,,,,,,,,,,,,,,,,,,,,,,,,,,,,,,,,,,,,,,,,,,,,,,,,,,,,,,,,,,,,,,,,,,,,,,,,,,,,,,,,,,,,,,,,,,,,,,,,,,,,,,
1764666499.205162,40999,0,4395.256348,4421.666504,4518.461426,4541.794922,4414.230957,4535.256348,4555,4386.794922,4651.922852,4389.102539,4500.512695,4520.897461,4570.769043,4417.179688,4412.820313,4530,4543.846191,4562.94873,4522.05127,4395.897461,4397.436035,4560.256348,4511.153809,4477.820313,4369.615234,4692.692383,4408.974121,4567.179688,4514.487305,4415.384766,4530.128418,4527.179688,2977,1,19,2571,64985,,,,0,4,4,4,4,4,4,4,4,4,4,4,4,4,4,4,4,4,4,4,4,4,4,4,4,4,4,4,4,4,4,4,4,100,,,,,,,,,,,,,,,,,,,,,,,,,,,,,,,,,,,,,,,,,,,,,,,,,,,,,,,,,,,,,,,,,,,,,,,,,,,,,,,,,,,,,,,,,,,,,,,,,,,,,,,,,,,,,,,,,,,,,,,,,,,,,,,,,,,,,,,,,,,,,,,,,,,,,,,,,,,,,,,,,,,,,,,,,,,,,,,,,,,,,,,,,,,,,,,,,,,,,,,,,,,,,,
1764666499.209068,41000,1,4393.265625,4419.358887,4516.85498,4539.208008,4412.760254,4533.303223,4552.397949,4383.60498,4649.449707,4389.147949,4499.34375,4518.929199,4568.929199,4416.131348,4410.429688,4529.321289,4541.478027,4560.746582,4521.259277,4393.582031,4396.893066,4559.268555,4509.109863,4476.651367,4366.09375,4690.859863,4406.568848,4565.037598,4513.137207,4412.767578,4527.699707,4524.811523,0,1,19,0,0,,,,0,4,4,4,4,4,4,4,4,4,4,4,4,4,4,4,4,4,4,4,4,4,4,4,4,4,4,4,4,4,4,4,4,100,,,,,,,,,,,,,,,,,,,,,,,,,,,,,,,,,,,,,,,,,,,,,,,,,,,,,,,,,,,,,,,,,,,,,,,,,,,,,,,,,,,,,,,,,,,,,,,,,,,,,,,,,,,,,,,,,,,,,,,,,,,,,,,,,,,,,,,,,,,,,,,,,,,,,,,,,,,,,,,,,,,,,,,,,,,,,,,,,,,,,,,,,,,,,,,,,,,,,,,,,,,,,,
1764666499.212974,41001,1,4391.274414,4417.05127,4515.249023,4536.621582,4411.289551,4531.350098,4549.796387,4380.414551,4646.976074,4389.192871,4498.174805,4516.960938,4567.088867,4415.083008,4408.039063,4528.642578,4539.109863,4558.544434,4520.467773,4391.26709,4396.350098,4558.280762,4507.066406,4475.482422,4362.571777,4689.027344,4404.163086,4562.895996,4511.787109,4410.150879,4525.271484,4522.443359,0,1,19,0,0,,,,0,4,4,4,4,4,4,4,4,4,4,4,4,4,4,4,4,4,4,4,4,4,4,4,4,4,4,4,4,4,4,4,4,100,,,,,,,,,,,,,,,,,,,,,,,,,,,,,,,,,,,,,,,,,,,,,,,,,,,,,,,,,,,,,,,,,,,,,,,,,,,,,,,,,,,,,,,,,,,,,,,,,,,,,,,,,,,,,,,,,,,,,,,,,,,,,,,,,,,,,,,,,,,,,,,,,,,,,,,,,,,,,,,,,,,,,,,,,,,,,,,,,,,,,,,,,,,,,,,,,,,,,,,,,,,,,,
1764666499.216880,41002,1,4389.283691,4414.743652,4513.642578,4534.034668,4409.818848,4529.396484,4547.194336,4377.224609,4644.502441,4389.238281,4497.005859,4514.992676,4565.249023,4414.034668,4405.648438,4527.963867,4536.742188,4556.342285,4519.675781,4388.95166,4395.807129,4557.29248,4505.022461,4474.313965,4359.049805,4687.194336,4401.757324,4560.753906,4510.4375,4407.53418,4522.843262,4520.075195,0,1,19,0,0,,,,0,4,4,4,4,4,4,4,4,4,4,4,4,4,4,4,4,4,4,4,4,4,4,4,4,4,4,4,4,4,4,4,4,100,,,,,,,,,,,,,,,,,,,,,,,,,,,,,,,,,,,,,,,,,,,,,,,,,,,,,,,,,,,,,,,,,,,,,,,,,,,,,,,,,,,,,,,,,,,,,,,,,,,,,,,,,,,,,,,,,,,,,,,,,,,,,,,,,,,,,,,,,,,,,,,,,,,,,,,,,,,,,,,,,,,,,,,,,,,,,,,,,,,,,,,,,,,,,,,,,,,,,,,,,,,,,,
1764666499.220786,41003,1,4387.29248,4412.436035,4512.036133,4531.447754,4408.348633,4527.443359,4544.592773,4374.034668,4642.028809,4389.283691,4495.836914,4513.023926,4563.408691,4412.986328,4403.257813,4527.285156,4534.374023,4554.140137,4518.883789,4386.636719,4395.26416,4556.304688,4502.979004,4473.14502,4355.527832,4685.361816,4399.351563,4558.612305,4509.087402,4404.916992,4520.414551,4517.70752,0,1,19,0,0,,,,0,4,4,4,4,4,4,4,4,4,4,4,4,4,4,4,4,4,4,4,4,4,4,4,4,4,4,4,4,4,4,4,4,100,,,,,,,,,,,,,,,,,,,,,,,,,,,,,,,,,,,,,,,,,,,,,,,,,,,,,,,,,,,,,,,,,,,,,,,,,,,,,,,,,,,,,,,,,,,,,,,,,,,,,,,,,,,,,,,,,,,,,,,,,,,,,,,,,,,,,,,,,,,,,,,,,,,,,,,,,,,,,,,,,,,,,,,,,,,,,,,,,,,,,,,,,,,,,,,,,,,,,,,,,,,,,,
1764666499.224692,41004,1,4385.301758,4410.128418,4510.429688,4528.861328,4406.87793,4525.490234,4541.990723,4370.844727,4639.555176,4389.328613,4494.667969,4511.055664,4561.568848,4411.937988,4400.867188,4526.606445,4532.005859,4551.937988,4518.091797,4384.321289,4394.721191,4555.316895,4500.935059,4471.976074,4352.005859,4683.529297,4396.945801,4556.470703,4507.737793,4402.300293,4517.986328,4515.339355,0,1,19,0,0,,,,0,4,4,4,4,4,4,4,4,4,4,4,4,4,4,4,4,4,4,4,4,4,4,4,4,4,4,4,4,4,4,4,4,100,,,,,,,,,,,,,,,,,,,,,,,,,,,,,,,,,,,,,,,,,,,,,,,,,,,,,,,,,,,,,,,,,,,,,,,,,,,,,,,,,,,,,,,,,,,,,,,,,,,,,,,,,,,,,,,,,,,,,,,,,,,,,,,,,,,,,,,,,,,,,,,,,,,,,,,,,,,,,,,,,,,,,,,,,,,,,,,,,,,,,,,,,,,,,,,,,,,,,,,,,,,,,,
1764666499.228598,41005,1,4383.310547,4407.820313,4508.82373,4526.274414,4405.407227,4523.537109,4539.38916,4367.654785,4637.081543,4389.374023,4493.499023,4509.087402,4559.728516,4410.890137,4398.476563,4525.927734,4529.638184,4549.73584,4517.300293,4382.005859,4394.178223,4554.328613,4498.891602,4470.807129,4348.484375,4681.696777,4394.540039,4554.328613,4506.387695,4399.683105,4515.558105,4512.971191,0,1,19,0,0,,,,0,4,4,4,4,4,4,4,4,4,4,4,4,4,4,4,4,4,4,4,4,4,4,4,4,4,4,4,4,4,4,4,4,100,,,,,,,,,,,,,,,,,,,,,,,,,,,,,,,,,,,,,,,,,,,,,,,,,,,,,,,,,,,,,,,,,,,,,,,,,,,,,,,,,,,,,,,,,,,,,,,,,,,,,,,,,,,,,,,,,,,,,,,,,,,,,,,,,,,,,,,,,,,,,,,,,,,,,,,,,,,,,,,,,,,,,,,,,,,,,,,,,,,,,,,,,,,,,,,,,,,,,,,,,,,,,,
1764666499.232504,41006,1,4381.319824,4405.512695,4507.217285,4523.687988,4403.936523,4521.583496,4536.787109,4364.464355,4634.60791,4389.419434,4492.330078,4507.119141,4557.888184,4409.841797,4396.085938,4525.249023,4527.27002,4547.53418,4516.508301,4379.690918,4393.634766,4553.34082,4496.847656,4469.638184,4344.962402,4679.864258,4392.134277,4552.187012,4505.037598,4397.066406,4513.129883,4510.603516,0,1,19,0,0,,,,0,4,4,4,4,4,4,4,4,4,4,4,4,4,4,4,4,4,4,4,4,4,4,4,4,4,4,4,4,4,4,4,4,100,,,,,,,,,,,,,,,,,,,,,,,,,,,,,,,,,,,,,,,,,,,,,,,,,,,,,,,,,,,,,,,,,,,,,,,,,,,,,,,,,,,,,,,,,,,,,,,,,,,,,,,,,,,,,,,,,,,,,,,,,,,,,,,,,,,,,,,,,,,,,,,,,,,,,,,,,,,,,,,,,,,,,,,,,,,,,,,,,,,,,,,,,,,,,,,,,,,,,,,,,,,,,,
1764666499.236410,41007,1,4379.328613,4403.205078,4505.61084,4521.101074,4402.46582,4519.630371,4534.185547,4361.274414,4632.134277,4389.464355,4491.161621,4505.150879,4556.04834,4408.793457,4393.695313,4524.570313,4524.901855,4545.332031,4515.716309,4377.375488,4393.091797,4552.353027,4494.803711,4468.469238,4341.44043,4678.031738,4389.728516,4550.04541,4503.687988,4394.449707,4510.701172,4508.235352,0,1,19,0,0,,,,0,4,4,4,4,4,4,4,4,4,4,4,4,4,4,4,4,4,4,4,4,4,4,4,4,4,4,4,4,4,4,4,4,100,,,,,,,,,,,,,,,,,,,,,,,,,,,,,,,,,,,,,,,,,,,,,,,,,,,,,,,,,,,,,,,,,,,,,,,,,,,,,,,,,,,,,,,,,,,,,,,,,,,,,,,,,,,,,,,,,,,,,,,,,,,,,,,,,,,,,,,,,,,,,,,,,,,,,,,,,,,,,,,,,,,,,,,,,,,,,,,,,,,,,,,,,,,,,,,,,,,,,,,,,,,,,,
1764666499.240316,41008,1,4377.337891,4400.897461,4504.004395,4518.51416,4400.995605,4517.677246,4531.583496,4358.084473,4629.660645,4389.509766,4489.992676,4503.182617,4554.208008,4407.745117,4391.304688,4523.891602,4522.53418,4543.129883,4514.924805,4375.060547,4392.548828,4551.365234,4492.760254,4467.300293,4337.918457,4676.199219,4387.322754,4547.90332,4502.337891,4391.83252,4508.272949,4505.867188,0,1,19,0,0,,,,0,4,4,4,4,4,4,4,4,4,4,4,4,4,4,4,4,4,4,4,4,4,4,4,4,4,4,4,4,4,4,4,4,100,,,,,,,,,,,,,,,,,,,,,,,,,,,,,,,,,,,,,,,,,,,,,,,,,,,,,,,,,,,,,,,,,,,,,,,,,,,,,,,,,,,,,,,,,,,,,,,,,,,,,,,,,,,,,,,,,,,,,,,,,,,,,,,,,,,,,,,,,,,,,,,,,,,,,,,,,,,,,,,,,,,,,,,,,,,,,,,,,,,,,,,,,,,,,,,,,,,,,,,,,,,,,,
1764666499.244222,41009,1,4375.34668,4398.589844,4502.397949,4515.927734,4399.524902,4515.724121,4528.981934,4354.894531,4627.187012,4389.555176,4488.82373,4501.214355,4552.368164,4406.696777,4388.914063,4523.212891,4520.166016,4540.927734,4514.132813,4372.745117,4392.005859,4550.376953,4490.716309,4466.131348,4334.396484,4674.366699,4384.916992,4545.761719,4500.987793,4389.21582,4505.844727,4503.499023,0,1,19,0,0,,,,0,4,4,4,4,4,4,4,4,4,4,4,4,4,4,4,4,4,4,4,4,4,4,4,4,4,4,4,4,4,4,4,4,100,,,,,,,,,,,,,,,,,,,,,,,,,,,,,,,,,,,43018,1,0.495852,-0.394995,-0.285828,0.718616,0.969845,-0.359517,-0.006446,4.9,43.099998,-21.533333,,,,,,,,,,,,,,,,,,,,,,,,,,,,,,,,,,,,,,,,,,,,,,,,,,,,,,,,,,,,,,,,,,,,,,,,,,,,,,,,,,,,,,,,,,,,,,,,,,,,,,,,,,,,,,,,,,,,,,,,,,,,,,,,,,,,,,,,,,,,,,,,,,,,,,,,,,,,,,,,
1764666499.248128,41010,1,4373.355957,4396.282227,4500.791992,4513.34082,4398.054199,4513.770508,4526.379883,4351.70459,4624.713379,4389.600098,4487.654785,4499.246094,4550.527832,4405.648438,4386.523438,4522.53418,4517.797852,4538.725586,4513.34082,4370.429688,4391.462891,4549.38916,4488.672852,4464.962402,4330.875,4672.53418,4382.51123,4543.620117,4499.638184,4386.598633,4503.416504,4501.131348,0,1,19,0,0,,,,0,4,4,4,4,4,4,4,4,4,4,4,4,4,4,4,4,4,4,4,4,4,4,4,4,4,4,4,4,4,4,4,4,100,,,,,,,,,,,,,,,,,,,,,,,,,,,,,,,,,,,,,,,,,,,,,,,,,,,,,,,,,,,,,,,,,,,,,,,,,,,,,,,,,,,,,,,,,,,,,,,,,,,,,,,,,,,,,,,,,,,,,,,,,,,,,,,,,,,,,,,,,,,,,,,,,,,,,,,,,,,,,,,,,,,,,,,,,,,,,,,,,,,,,,,,,,,,,,,,,,,,,,,,,,,,,,
1764666499.252034,41011,1,4371.365234,4393.974121,4499.185547,4510.753906,4396.583496,4511.817383,4523.77832,4348.51416,4622.239746,4389.645508,4486.48584,4497.277344,4548.687988,4404.600098,4384.132813,4521.85498,4515.429688,4536.523438,4512.548828,4368.114746,4390.919922,4548.401367,4486.628906,4463.793457,4327.353027,4670.701172,4380.105469,4541.478027,4498.288086,4383.981934,4500.987793,4498.763184,0,1,19,0,0,,,,0,4,4,4,4,4,4,4,4,4,4,4,4,4,4,4,4,4,4,4,4,4,4,4,4,4,4,4,4,4,4,4,4,100,,,,,,,,,,,,,,,,,,,,,,,,,,,,,,,,,,,43019,1,0.495358,-0.39552,-0.285217,0.718909,0.954218,-0.364986,-0.002149,4.633333,43.200001,-21.4,,,,,,,,,,,,,,,,,,,,,,,,,,,,,,,,,,,,,,,,,,,,,,,,,,,,,,,,,,,,,,,,,,,,,,,,,,,,,,,,,,,,,,,,,,,,,,,,,,,,,,,,,,,,,,,,,,,,,,,,,,,,,,,,,,,,,,,,,,,,,,,,,,,,,,,,,,,,,,,,
1764666499.255940,41012,1,4369.374023,4391.666504,4497.579102,4508.16748,4395.113281,4509.864258,4521.17627,4345.324219,4619.766113,4389.690918,4485.316895,4495.309082,4546.847656,4403.552246,4381.742188,4521.17627,4513.062012,4534.321289,4511.757324,4365.799316,4390.376953,4547.413086,4484.585449,4462.624512,4323.831055,4668.868652,4377.699707,4539.336426,4496.937988,4381.365234,4498.55957,4496.39502,0,1,19,0,0,,,,0,4,4,4,4,4,4,4,4,4,4,4,4,4,4,4,4,4,4,4,4,4,4,4,4,4,4,4,4,4,4,4,4,100,,,,,,,,,,,,,,,,,,,,,,,,,,,,,,,,,,,,,,,,,,,,,,,,,,,,,,,,,,,,,,,,,,,,,,,,,,,,,,,,,,,,,,,,,,,,,,,,,,,,,,,,,,,,,,,,,,,,,,,,,,,,,,,,,,,,,,,,,,,,,,,,,,,,,,,,,,,,,,,,,,,,,,,,,,,,,,,,,,,,,,,,,,,,,,,,,,,,,,,,,,,,,,
1764666499.259846,41013,1,4367.383301,4389.358887,4495.972656,4505.580566,4393.642578,4507.911133,4518.574707,4342.134277,4617.29248,4389.73584,4484.147949,4493.34082,4545.007324,4402.503906,4379.351563,4520.497559,4510.693848,4532.119141,4510.965332,4363.484375,4389.833984,4546.425293,4482.541504,4461.455566,4320.309082,4667.036133,4375.293945,4537.194336,4495.588379,4378.748047,4496.131348,4494.027344,0,1,19,0,0,,,,0,4,4,4,4,4,4,4,4,4,4,4,4,4,4,4,4,4,4,4,4,4,4,4,4,4,4,4,4,4,4,4,4,100,,,,,,,,,,,,,,,,,,,,,,,,,,,,,,,,,,,43020,1,0.494864,-0.396045,-0.284607,0.719202,0.938591,-0.370455,0.002149,4.366667,43.299999,-21.266666,,,,,,,,,,,,,,,,,,,,,,,,,,,,,,,,,,,,,,,,,,,,,,,,,,,,,,,,,,,,,,,,,,,,,,,,,,,,,,,,,,,,,,,,,,,,,,,,,,,,,,,,,,,,,,,,,,,,,,,,,,,,,,,,,,,,,,,,,,,,,,,,,,,,,,,,,,,,,,,,
1764666499.263752,41014,1,4365.39209,4387.05127,4494.366699,4502.994141,4392.171875,4505.958008,4515.972656,4338.944336,4614.818848,4389.78125,4482.979004,4491.372559,4543.16748,4401.455566,4376.960938,4519.818848,4508.325684,4529.916992,4510.17334,4361.168945,4389.291016,4545.4375,4480.497559,4460.286621,4316.787109,4665.203613,4372.888184,4535.052734,4494.238281,4376.131348,4493.702637,4491.65918,0,1,19,0,0,,,,0,4,4,4,4,4,4,4,4,4,4,4,4,4,4,4,4,4,4,4,4,4,4,4,4,4,4,4,4,4,4,4,4,100,,,,,,,,,,,,,,,,,,,,,,,,,,,,,,,,,,,,,,,,,,,,,,,,,,,,,,,,,,,,,,,,,,,,,,,,,,,,,,,,,,,,,,,,,,,,,,,,,,,,,,,,,,,,,,,,,,,,,,,,,,,,,,,,,,,,,,,,,,,,,,,,,,,,,,,,,,,,,,,,,,,,,,,,,,,,,,,,,,,,,,,,,,,,,,,,,,,,,,,,,,,,,,
1764666499.267658,41015,1,4363.401367,4384.743652,4492.760254,4500.407227,4390.701172,4504.004395,4513.371094,4335.753906,4612.345215,4389.82666,4481.810059,4489.404297,4541.327148,4400.407227,4374.570313,4519.140137,4505.958008,4527.714844,4509.381836,4358.853516,4388.748047,4544.449707,4478.454102,4459.117676,4313.265625,4663.371094,4370.482422,4532.911133,4492.888184,4373.51416,4491.274414,4489.291016,0,1,19,0,0,,,,0,4,4,4,4,4,4,4,4,4,4,4,4,4,4,4,4,4,4,4,4,4,4,4,4,4,4,4,4,4,4,4,4,100,,,,,,,,,,,,,,,,,,,,,,,,,,,,,,,,,,,43021,1,0.49437,-0.39657,-0.283997,0.719495,0.922964,-0.375925,0.006446,4.1,43.400002,-21.133333,,,,,,,,,,,,,,,,,,,,,,,,,,,,,,,,,,,,,,,,,,,,,,,,,,,,,,,,,,,,,,,,,,,,,,,,,,,,,,,,,,,,,,,,,,,,,,,,,,,,,,,,,,,,,,,,,,,,,,,,,,,,,,,,,,,,,,,,,,,,,,,,,,,,,,,,,,,,,,,,
1764666499.271564,41016,0,4361.410156,4382.436035,4491.153809,4497.820313,4389.230957,4502.05127,4510.769043,4332.563965,4609.871582,4389.871582,4480.641113,4487.436035,4539.487305,4399.358887,4372.179688,4518.461426,4503.589844,4525.512695,4508.589844,4356.538574,4388.205078,4543.461426,4476.410156,4457.94873,4309.743652,4661.538574,4368.077148,4530.769043,4491.538574,4370.897461,4488.846191,4486.922852,2749,1,19,2576,65055,,,,0,4,4,4,4,4,4,4,4,4,4,4,4,4,4,4,4,4,4,4,4,4,4,4,4,4,4,4,4,4,4,4,4,100,,,,,,,,,,,,,,,,,,,,,,,,,,,,,,,,,,,,,,,,,,,,,,,,,,,,,,,,,,,,,,,,,,,,,,,,,,,,,,,,,,,,,,,,,,,,,,,,,,,,,,,,,,,,,,,,,,,,,,,,,,,,,,,,,,,,,,,,,,,,,,,,,,,,,,,,,,,,,,,,,,,,,,,,,,,,,,,,,,,,,,,,,,,,,,,,,,,,,,,,,,,,,,
1764666499.275470,41017,0,4350.641113,4370.128418,4478.461426,4481.666504,4377.179688,4491.153809,4499.487305,4318.974121,4591.666504,4389.615234,4474.487305,4483.077148,4535.128418,4395.512695,4370.641113,4512.563965,4498.205078,4518.974121,4504.615234,4349.615234,4380.512695,4536.538574,4468.461426,4452.05127,4344.743652,4658.974121,4348.589844,4515.384766,4481.666504,4358.974121,4472.179688,4470.128418,2851,1,19,2576,65055,,,,0,4,4,4,4,4,4,4,4,4,4,4,4,4,4,4,4,4,4,4,4,4,4,4,4,4,4,4,4,4,4,4,4,100,,,,,,,,,,,,,,,,,,,,,,,,,,,,,,,,,,,43022,0,0.493876,-0.397095,-0.283386,0.719788,0.907337,-0.381394,0.010743,3.833333,43.5,-21,,,,,,,,,,,,,,,,,,,,,,,,,,,,,,,,,,,,,,,,,,,,,,,,,,,,,,,,,,,,,,,,,,,,,,,,,,,,,,,,,,,,,,,,,,,,,,,,,,,,,,,,,,,,,,,,,,,,,,,,,,,,,,,,,,,,,,,,,,,,,,,,,,,,,,,,,,,,,,,,
1764666499.279376,41018,0,4349.487305,4367.05127,4474.743652,4482.05127,4376.794922,4489.358887,4500.769043,4327.563965,4585.769043,4370.512695,4475.769043,4486.794922,4539.871582,4397.05127,4371.666504,4504.615234,4498.077148,4509.230957,4490.769043,4343.333496,4374.743652,4534.102539,4469.230957,4451.538574,4391.410156,4666.025879,4334.871582,4506.794922,4476.922852,4356.794922,4466.153809,4468.846191,1967,1,19,2576,65063,,,,0,4,4,4,4,4,4,4,4,4,4,4,4,4,4,4,4,4,4,4,4,4,4,4,4,4,4,4,4,4,4,4,4,100,,,,,,,,,,,,,,,,,,,,,,,,,,,,,,,,,,,,,,,,,,,,,,,,,,,,,,,,,,,,,,,,,,,,,,,,,,,,,,,,,,,,,,,,,,,,,,,,,,,,,,,,,,,,,,,,,,,,,,,,,,,,,,,,,,,,,,,,,,,,,,,,,,,,,,,,,,,,,,,,,,,,,,,,,,,,,,,,,,,,,,,,,,,,,,,,,,,,,,,,,,,,,,
1764666499.283282,41019,0,4360,4377.179688,4484.615234,4501.794922,4392.05127,4500.512695,4516.153809,4356.153809,4598.717773,4345.512695,4486.410156,4497.94873,4553.717773,4401.410156,4375.128418,4498.974121,4504.358887,4502.307617,4473.846191,4340.769043,4370.384766,4538.846191,4478.974121,4457.94873,4425.769043,4679.102539,4336.410156,4512.05127,4481.794922,4367.820313,4475.897461,4482.94873,2630,1,19,2576,65063,,,,0,4,4,4,4,4,4,4,4,4,4,4,4,4,4,4,4,4,4,4,4,4,4,4,4,4,4,4,4,4,4,4,4,100,,,,,,,,,,,,,,,,,,,,,,,,,,,,,,,,,,,,,,,,,,,,,,,,,,,,,,,,,,,,,,,,,,,,,,,,,,,,,,,,,,,,,,,,,,,,,,,,,,,,,,,,,,,,,,,,,,,,,,,,,,,,,,,,,,,,,,,,,,,,,,,,,,,,,,,,,,,,,,,,,,,,,,,,,,,,,,,,,,,,,,,,,,,,,,,,,,,,,,,,,,,,,,
1764666499.287188,41020,0,4378.077148,4396.538574,4504.487305,4530.897461,4416.282227,4520.512695,4538.205078,4388.717773,4624.102539,4331.282227,4501.922852,4511.153809,4569.871582,4403.846191,4379.615234,4499.102539,4514.615234,4502.692383,4463.846191,4343.461426,4367.692383,4548.077148,4492.94873,4468.333496,4430,4693.974121,4353.589844,4530.384766,4494.487305,4388.333496,4498.333496,4503.461426,2746,1,19,2576,65071,,,,0,4,4,4,4,4,4,4,4,4,4,4,4,4,4,4,4,4,4,4,4,4,4,4,4,4,4,4,4,4,4,4,4,100,,,,,,,,,,,,,,,,,,,,,,,,,,,,,,,,,,,,,,,,,,,,,,,,,,,,,,,,,,,,,,,,,,,,,,,,,,,,,,,,,,,,,,,,,,,,,,,,,,,,,,,,,,,,,,,,,,,,,,,,,,,,,,,,,,,,,,,,,,,,,,,,,,,,,,,,,,,,,,,,,,,,,,,,,,,,,,,,,,,,,,,,,,,,,,,,,,,,,,,,,,,,,,
1764666499.291094,41021,0,4395.128418,4415.512695,4523.717773,4554.102539,4436.282227,4540,4555.769043,4406.922852,4649.102539,4340.256348,4515,4520.256348,4579.615234,4401.153809,4383.461426,4505.256348,4524.871582,4509.871582,4466.538574,4351.153809,4367.179688,4557.179688,4504.871582,4478.077148,4406.538574,4707.436035,4376.282227,4552.563965,4507.820313,4409.230957,4522.307617,4519.358887,2584,1,19,2576,65071,,,,0,4,4,4,4,4,4,4,4,4,4,4,4,4,4,4,4,4,4,4,4,4,4,4,4,4,4,4,4,4,4,4,4,100,,,,,,,,,,,,,,,,,,,,,,,,,,,,,,,,,,,43023,0,0.494012,-0.397522,-0.283325,0.719482,0.931754,-0.395068,0.008302,4.333333,43.333332,-22,,,,,,,,,,,,,,,,,,,,,,,,,,,,,,,,,,,,,,,,,,,,,,,,,,,,,,,,,,,,,,,,,,,,,,,,,,,,,,,,,,,,,,,,,,,,,,,,,,,,,,,,,,,,,,,,,,,,,,,,,,,,,,,,,,,,,,,,,,,,,,,,,,,,,,,,,,,,,,,,
1764666499.295000,41022,0,4403.717773,4424.871582,4532.563965,4561.282227,4441.538574,4550,4561.025879,4403.461426,4663.589844,4373.974121,4519.615234,4521.922852,4578.205078,4393.461426,4385.512695,4513.717773,4531.153809,4517.820313,4477.820313,4360.897461,4367.692383,4562.436035,4510.128418,4483.974121,4375.769043,4716.666504,4391.922852,4567.820313,4514.487305,4421.922852,4536.025879,4523.974121,2714,1,19,2576,65078,,,,0,4,4,4,4,4,4,4,4,4,4,4,4,4,4,4,4,4,4,4,4,4,4,4,4,4,4,4,4,4,4,4,4,100,,,,,,,,,,,,,,,,,,,,,,,,,,,,,,,,,,,,,,,,,,,,,,,,,,,,,,,,,,,,,,,,,,,,,,,,,,,,,,,,,,,,,,,,,,,,,,,,,,,,,,,,,,,,,,,,,,,,,,,,,,,,,,,,,,,,,,,,,,,,,,,,,,,,,,,,,,,,,,,,,,,,,,,,,,,,,,,,,,,,,,,,,,,,,,,,,,,,,,,,,,,,,,
1764666499.298906,41023,0,4401.794922,4422.563965,4527.692383,4553.589844,4431.794922,4547.436035,4553.077148,4385,4664.871582,4416.794922,4514.230957,4516.538574,4567.94873,4383.717773,4384.358887,4518.717773,4531.025879,4519.615234,4486.666504,4367.692383,4366.282227,4563.333496,4508.205078,4485.641113,4360.512695,4718.589844,4395,4570.384766,4512.307617,4422.94873,4534.358887,4517.692383,2851,1,19,2576,65078,,,,0,4,4,4,4,4,4,4,4,4,4,4,4,4,4,4,4,4,4,4,4,4,4,4,4,4,4,4,4,4,4,4,4,100,,,,,,,,,,,,,,,,,,,,,,,,,,,,,,,,,,,,,,,,,,,,,,,,,,,,,,,,,,,,,,,,,,,,,,,,,,,,,,,,,,,,,,,,,,,,,,,,,,,,,,,,,,,,,,,,,,,,,,,,,,,,,,,,,,,,,,,,,,,,,,,,,,,,,,,,,,,,,,,,,,,,,,,,,,,,,,,,,,,,,,,,,,,,,,,,,,,,,,,,,,,,,,
1764666499.302812,41024,0,4392.563965,4413.205078,4513.974121,4539.871582,4416.538574,4536.538574,4539.230957,4367.05127,4657.05127,4441.666504,4503.333496,4507.820313,4555.384766,4375.641113,4379.743652,4516.666504,4524.743652,4512.820313,4485.897461,4367.692383,4360,4561.153809,4501.538574,4484.487305,4369.230957,4713.846191,4389.230957,4562.179688,4504.487305,4415.128418,4522.179688,4505.897461,2778,1,19,2576,65086,,,,0,4,4,4,4,4,4,4,4,4,4,4,4,4,4,4,4,4,4,4,4,4,4,4,4,4,4,4,4,4,4,4,4,100,,,,,,,,,,,,,,,,,,,,,,,,,,,,,,,,,,,,,,,,,,,,,,,,,,,,,,,,,,,,,,,,,,,,,,,,,,,,,,,,,,,,,,,,,,,,,,,,,,,,,,,,,,,,,,,,,,,,,,,,,,,,,,,,,,,,,,,,,,,,,,,,,,,,,,,,,,,,,,,,,,,,,,,,,,,,,,,,,,,,,,,,,,,,,,,,,,,,,,,,,,,,,,
1764666499.306718,41025,0,4383.077148,4404.743652,4501.410156,4530.384766,4408.077148,4525.769043,4529.358887,4362.179688,4647.307617,4430.128418,4494.487305,4500.641113,4547.563965,4371.410156,4373.461426,4509.487305,4516.025879,4503.461426,4478.846191,4362.05127,4349.102539,4557.05127,4494.230957,4482.820313,4391.282227,4708.077148,4382.563965,4550.512695,4497.436035,4405.641113,4510.641113,4495.897461,2987,1,19,2576,65086,,,,0,4,4,4,4,4,4,4,4,4,4,4,4,4,4,4,4,4,4,4,4,4,4,4,4,4,4,4,4,4,4,4,4,100,,,,,,,,,,,,,,,,,,,,,,,,,,,,,,,,,,,43024,0,0.493768,-0.398132,-0.283203,0.71936,0.942986,-0.348187,-0.010743,3,42,-23,,,,,,,,,,,,,,,,,,,,,,,,,,,,,,,,,,,,,,,,,,,,,,,,,,,,,,,,,,,,,,,,,,,,,,,,,,,,,,,,,,,,,,,,,,,,,,,,,,,,,,,,,,,,,,,,,,,,,,,,,,,,,,,,,,,,,,,,,,,,,,,,,,,,,,,,,,,,,,,,
1764666499.310624,41026,0,4378.333496,4402.307617,4497.94873,4530.256348,4411.666504,4521.282227,4528.461426,4370.256348,4641.153809,4391.153809,4492.05127,4498.205078,4547.179688,4371.282227,4370,4502.307617,4509.615234,4500.256348,4475.641113,4355.641113,4337.692383,4551.282227,4489.743652,4481.025879,4407.179688,4706.922852,4379.743652,4542.307617,4495.128418,4400.256348,4507.94873,4492.692383,2639,1,19,2576,65094,,,,0,4,4,4,4,4,4,4,4,4,4,4,4,4,4,4,4,4,4,4,4,4,4,4,4,4,4,4,4,4,4,4,4,100,,,,,,,,,,,,,,,,,,,,,,,,,,,,,,,,,,,,,,,,,,,,,,,,,,,,,,,,,,,,,,,,,,,,,,,,,,,,,,,,,,,,,,,,,,,,,,,,,,,,,,,,,,,,,,,,,,,,,,,,,,,,,,,,,,,,,,,,,,,,,,,,,,,,,,,,,,,,,,,,,,,,,,,,,,,,,,,,,,,,,,,,,,,,,,,,,,,,,,,,,,,,,,
1764666499.314530,41027,0,4378.461426,4404.615234,4503.589844,4536.538574,4421.538574,4522.820313,4532.307617,4379.487305,4638.589844,4354.743652,4493.717773,4499.230957,4550.769043,4374.102539,4372.436035,4500.256348,4508.077148,4506.282227,4481.538574,4353.589844,4331.410156,4543.333496,4487.94873,4476.538574,4404.487305,4709.615234,4378.717773,4539.615234,4496.794922,4399.230957,4513.846191,4496.666504,2850,1,19,2576,65094,,,,0,4,4,4,4,4,4,4,4,4,4,4,4,4,4,4,4,4,4,4,4,4,4,4,4,4,4,4,4,4,4,4,4,100,,,,,,,,,,,,,,,,,,,,,,,,,,,,,,,,,,,,,,,,,,,,,,,,,,,,,,,,,,,,,,,,,,,,,,,,,,,,,,,,,,,,,,,,,,,,,,,,,,,,,,,,,,,,,,,,,,,,,,,,,,,,,,,,,,,,,,,,,,,,,,,,,,,,,,,,,,,,,,,,,,,,,,,,,,,,,,,,,,,,,,,,,,,,,,,,,,,,,,,,,,,,,,
1764666499.318436,41028,0,4378.846191,4405.256348,4510.512695,4540.769043,4425.384766,4524.230957,4531.538574,4377.179688,4635.512695,4344.871582,4492.179688,4498.717773,4551.282227,4377.94873,4379.871582,4503.846191,4509.102539,4516.282227,4491.282227,4356.025879,4334.487305,4532.94873,4485.897461,4465.512695,4385.897461,4708.461426,4373.717773,4537.563965,4497.563965,4397.692383,4519.615234,4502.820313,2721,1,19,2575,65102,,,,0,4,4,4,4,4,4,4,4,4,4,4,4,4,4,4,4,4,4,4,4,4,4,4,4,4,4,4,4,4,4,4,4,100,,,,,,,,,,,,,,,,,,,,,,,,,,,,,,,,,,,,,,,,,,,,,,,4.371605,1.052283,1.792792,1.373928,0.959891,7.142974,1.870267,1.788184,1.941794,1.088628,4.696212,3.198079,4.260196,2.099205,3.041697,3.436547,1.421599,2.73777,2.336319,1.549973,5.144386,1.98709,1.727362,2.345024,1.670198,4.511435,1.911081,1.666365,1.605324,0.923075,3.652068,2.435523,2.466905,1.814628,1.505035,3.735829,1.936802,1.909903,2.404366,1.997482,2.411201,1.66012,2.551818,1.718474,1.351539,1.769028,1.784227,2.564798,3.587836,7.57658,2.493557,2.553476,1.977793,0.819235,0.95441,3.322091,1.817369,1.908775,1.092088,1.152915,1.882435,1.45445,1.880202,1.015934,0.903961,2.139449,0.845775,1.436071,0.489869,0.533141,1.647018,1.68029,0.64411,0.552787,1.079274,0.247263,0.430712,0.094804,0.313552,0.225096,3.390357,1.749505,1.792561,1.536836,1.196105,2.070224,4.635902,1.896628,1.795507,2.35661,1.107876,3.624073,1.539373,1.402305,2.51539,2.012304,1.776017,1.447787,1.40613,1.291491,1.527768,2.696731,1.971943,2.558167,1.686493,2.894308,2.009917,2.029433,2.02817,1.569028,4.32402,1.777002,1.721127,1.41062,0.792574,3.776024,2.095845,1.995024,2.369398,1.418136,4.069922,5.854575,11.812396,9.217359,9.754717,3.710726,1.929666,2.312792,2.064131,1.045374,5.870817,1.520628,1.973273,3.317271,2.019639,4.798396,1.617902,1.831086,2.216632,1.37546,2.801069,0.801812,1.082579,0.914603,0.603337,6.84035,2.39203,2.510839,2.279284,1.211153,6.372789,1.575676,2.0669,2.92105,1.867946,4.929206,3.423269,8.3083,2.314564,2.325161
1764666499.322342,41029,0,4375,4399.358887,4509.743652,4535.897461,4415,4519.358887,4520.769043,4361.153809,4627.820313,4359.102539,4483.077148,4493.077148,4545,4381.025879,4386.794922,4508.974121,4508.205078,4520.769043,4495,4358.717773,4346.410156,4522.179688,4480.641113,4447.563965,4362.05127,4696.410156,4361.538574,4531.025879,4493.077148,4389.871582,4516.025879,4504.102539,2776,1,19,2575,65102,,,,0,4,4,4,4,4,4,4,4,4,4,4,4,4,4,4,4,4,4,4,4,4,4,4,4,4,4,4,4,4,4,4,4,100,,,,,,,,,,,,,,,,,,,,,,,,,,,,,,,,,,,43025,0,0.49355,-0.398376,-0.282776,0.719543,0.909779,-0.382371,-0.013185,1.333333,43.166668,-24.666666,,,,,,,,,,,,,,,,,,,,,,,,,,,,,,,,,,,,,,,,,,,,,,,,,,,,,,,,,,,,,,,,,,,,,,,,,,,,,,,,,,,,,,,,,,,,,,,,,,,,,,,,,,,,,,,,,,,,,,,,,,,,,,,,,,,,,,,,,,,,,,,,,,,,,,,,,,,,,,,,
1764666499.326248,41030,0,4366.794922,4388.205078,4499.358887,4521.666504,4393.846191,4508.846191,4503.846191,4341.282227,4616.794922,4374.871582,4468.717773,4483.461426,4534.615234,4382.563965,4386.794922,4510.641113,4503.589844,4515.128418,4488.589844,4357.307617,4362.307617,4514.487305,4472.563965,4427.820313,4340.641113,4675.897461,4346.153809,4520.128418,4484.230957,4375.897461,4501.025879,4497.563965,2799,1,19,2575,65110,,,,0,4,4,4,4,4,4,4,4,4,4,4,4,4,4,4,4,4,4,4,4,4,4,4,4,4,4,4,4,4,4,4,4,100,,,,,,,,,,,,,,,,,,,,,,,,,,,,,,,,,,,,,,,,,,,,,,,,,,,,,,,,,,,,,,,,,,,,,,,,,,,,,,,,,,,,,,,,,,,,,,,,,,,,,,,,,,,,,,,,,,,,,,,,,,,,,,,,,,,,,,,,,,,,,,,,,,,,,,,,,,,,,,,,,,,,,,,,,,,,,,,,,,,,,,,,,,,,,,,,,,,,,,,,,,,,,,
1764666499.330154,41031,0,4359.615234,4378.974121,4486.666504,4504.871582,4374.871582,4498.974121,4491.025879,4331.025879,4607.94873,4374.102539,4457.179688,4475.641113,4527.05127,4383.589844,4378.461426,4507.563965,4498.205078,4504.615234,4478.717773,4352.179688,4377.307617,4513.461426,4466.666504,4415.512695,4326.153809,4658.461426,4335.897461,4511.666504,4476.666504,4362.563965,4482.820313,4486.922852,2989,1,19,2575,65110,,,,0,4,4,4,4,4,4,4,4,4,4,4,4,4,4,4,4,4,4,4,4,4,4,4,4,4,4,4,4,4,4,4,4,100,,,,,,,,,,,,,,,,,,,,,,,,,,,,,,,,,,,,,,,,,,,,,,,,,,,,,,,,,,,,,,,,,,,,,,,,,,,,,,,,,,,,,,,,,,,,,,,,,,,,,,,,,,,,,,,,,,,,,,,,,,,,,,,,,,,,,,,,,,,,,,,,,,,,,,,,,,,,,,,,,,,,,,,,,,,,,,,,,,,,,,,,,,,,,,,,,,,,,,,,,,,,,,
1764666499.334060,41032,0,4359.230957,4378.589844,4482.179688,4495.128418,4370.769043,4497.307617,4490.769043,4336.538574,4607.307617,4358.717773,4455.769043,4475.769043,4528.077148,4386.410156,4367.179688,4502.820313,4497.692383,4500.897461,4477.563965,4348.077148,4389.487305,4519.871582,4468.461426,4418.205078,4326.666504,4656.922852,4337.436035,4512.436035,4476.666504,4358.717773,4474.102539,4480.128418,2911,1,19,2576,65117,,,,0,4,4,4,4,4,4,4,4,4,4,4,4,4,4,4,4,4,4,4,4,4,4,4,4,4,4,4,4,4,4,4,4,100,,,,,,,,,,,,,,,,,,,,,,,,,,,,,,,,,,,,,,,,,,,,,,,,,,,,,,,,,,,,,,,,,,,,,,,,,,,,,,,,,,,,,,,,,,,,,,,,,,,,,,,,,,,,,,,,,,,,,,,,,,,,,,,,,,,,,,,,,,,,,,,,,,,,,,,,,,,,,,,,,,,,,,,,,,,,,,,,,,,,,,,,,,,,,,,,,,,,,,,,,,,,,,
1764666499.337966,41033,0,4367.436035,4388.077148,4491.922852,4498.333496,4384.230957,4506.153809,4503.846191,4353.974121,4615.256348,4344.358887,4465.641113,4485.769043,4538.077148,4392.94873,4361.410156,4502.307617,4505.384766,4512.820313,4491.666504,4350.256348,4399.102539,4531.282227,4479.615234,4435.256348,4350.256348,4674.358887,4348.846191,4522.94873,4485.128418,4367.436035,4481.282227,4483.077148,2733,1,19,2576,65117,,,,0,4,4,4,4,4,4,4,4,4,4,4,4,4,4,4,4,4,4,4,4,4,4,4,4,4,4,4,4,4,4,4,4,100,,,,,,,,,,,,,,,,,,,,,,,,,,,,,,,,,,,43026,0,0.494026,-0.398621,-0.282532,0.719177,0.916616,-0.35307,-0.02344,3,42,-22.666666,,,,,,,,,,,,,,,,,,,,,,,,,,,,,,,,,,,,,,,,,,,,,,,,,,,,,,,,,,,,,,,,,,,,,,,,,,,,,,,,,,,,,,,,,,,,,,,,,,,,,,,,,,,,,,,,,,,,,,,,,,,,,,,,,,,,,,,,,,,,,,,,,,,,,,,,,,,,,,,,
1764666499.341872,41034,0,4379.230957,4401.153809,4510.641113,4511.794922,4405.384766,4520.256348,4522.563965,4371.410156,4624.743652,4343.461426,4480.128418,4500.897461,4551.153809,4402.307617,4366.282227,4508.589844,4518.333496,4536.410156,4514.743652,4358.974121,4406.153809,4541.922852,4494.615234,4456.794922,4391.153809,4699.743652,4359.743652,4535.897461,4496.153809,4382.820313,4498.205078,4494.230957,708,1,19,2576,65125,,,,0,4,4,4,4,4,4,4,4,4,4,4,4,4,4,4,4,4,4,4,4,4,4,4,4,4,4,4,4,4,4,4,4,100,,,,,,,,,,,,,,,,,,,,,,,,,,,,,,,,,,,,,,,,,,,,,,,,,,,,,,,,,,,,,,,,,,,,,,,,,,,,,,,,,,,,,,,,,,,,,,,,,,,,,,,,,,,,,,,,,,,,,,,,,,,,,,,,,,,,,,,,,,,,,,,,,,,,,,,,,,,,,,,,,,,,,,,,,,,,,,,,,,,,,,,,,,,,,,,,,,,,,,,,,,,,,,
1764666499.345778,41035,0,4386.025879,4408.589844,4526.153809,4526.153809,4419.743652,4530,4534.871582,4377.307617,4627.05127,4358.205078,4489.230957,4512.307617,4559.871582,4411.025879,4378.589844,4518.717773,4528.461426,4556.922852,4531.025879,4369.102539,4408.717773,4546.282227,4504.743652,4469.487305,4427.307617,4715.897461,4360.641113,4541.666504,4501.538574,4393.846191,4511.794922,4505.641113,2733,1,19,2576,65125,,,,0,4,4,4,4,4,4,4,4,4,4,4,4,4,4,4,4,4,4,4,4,4,4,4,4,4,4,4,4,4,4,4,4,100,,,,,,,,,,,,,,,,,,,,,,,,,,,,,,,,,,,,,,,,,,,,,,,,,,,,,,,,,,,,,,,,,,,,,,,,,,,,,,,,,,,,,,,,,,,,,,,,,,,,,,,,,,,,,,,,,,,,,,,,,,,,,,,,,,,,,,,,,,,,,,,,,,,,,,,,,,,,,,,,,,,,,,,,,,,,,,,,,,,,,,,,,,,,,,,,,,,,,,,,,,,,,,
1764666499.349684,41036,1,4383.741211,4407.366211,4521.888184,4523.542969,4417.144531,4527.94873,4531.946289,4374.650391,4626.352051,4361.806641,4487.71582,4510.128418,4558.717773,4411.223633,4377.983887,4517.494141,4526.59668,4552.132813,4526.282227,4367.226074,4406.888184,4546.398438,4503.834473,4468.939453,4422.704102,4714.860352,4361.165527,4540.967285,4500.58252,4394.801758,4512.61084,4503.578125,0,1,19,0,0,,,,0,4,4,4,4,4,4,4,4,4,4,4,4,4,4,4,4,4,4,4,4,4,4,4,4,4,4,4,4,4,4,4,4,100,,,,,,,,,,,,,,,,,,,,,,,,,,,,,,,,,,,,,,,,,,,,,,,,,,,,,,,,,,,,,,,,,,,,,,,,,,,,,,,,,,,,,,,,,,,,,,,,,,,,,,,,,,,,,,,,,,,,,,,,,,,,,,,,,,,,,,,,,,,,,,,,,,,,,,,,,,,,,,,,,,,,,,,,,,,,,,,,,,,,,,,,,,,,,,,,,,,,,,,,,,,,,,
1764666499.353590,41037,1,4381.457031,4406.14209,4517.622559,4520.932617,4414.54541,4525.897461,4529.020996,4371.993164,4625.652832,4365.407715,4486.200684,4507.94873,4557.563965,4411.421875,4377.377441,4516.270508,4524.731934,4547.342773,4521.538574,4365.349609,4405.058105,4546.515137,4502.925293,4468.391602,4418.100098,4713.822754,4361.689941,4540.268066,4499.626953,4395.757813,4513.426758,4501.515137,0,1,19,0,0,,,,0,4,4,4,4,4,4,4,4,4,4,4,4,4,4,4,4,4,4,4,4,4,4,4,4,4,4,4,4,4,4,4,4,100,,,,,,,,,,,,,,,,,,,,,,,,,,,,,,,,,,,,,,,,,,,,,,,,,,,,,,,,,,,,,,,,,,,,,,,,,,,,,,,,,,,,,,,,,,,,,,,,,,,,,,,,,,,,,,,,,,,,,,,,,,,,,,,,,,,,,,,,,,,,,,,,,,,,,,,,,,,,,,,,,,,,,,,,,,,,,,,,,,,,,,,,,,,,,,,,,,,,,,,,,,,,,,
1764666499.357496,41038,1,4379.172363,4404.918457,4513.356445,4518.321777,4411.946289,4523.846191,4526.095703,4369.335449,4624.953613,4369.009277,4484.685547,4505.769043,4556.410156,4411.620117,4376.771484,4515.046387,4522.867188,4542.552246,4516.794922,4363.473145,4403.228516,4546.631836,4502.016113,4467.84375,4413.496582,4712.785645,4362.214355,4539.568848,4498.671387,4396.713379,4514.242188,4499.452148,0,1,19,0,0,,,,0,4,4,4,4,4,4,4,4,4,4,4,4,4,4,4,4,4,4,4,4,4,4,4,4,4,4,4,4,4,4,4,4,100,,,,,,,,,,,,,,,,,,,,,,,,,,,,,,,,,,,,,,,,,,,,,,,,,,,,,,,,,,,,,,,,,,,,,,,,,,,,,,,,,,,,,,,,,,,,,,,,,,,,,,,,,,,,,,,,,,,,,,,,,,,,,,,,,,,,,,,,,,,,,,,,,,,,,,,,,,,,,,,,,,,,,,,,,,,,,,,,,,,,,,,,,,,,,,,,,,,,,,,,,,,,,,
1764666499.361402,41039,1,4376.888184,4403.694824,4509.09082,4515.710938,4409.347168,4521.794922,4523.169922,4366.678223,4624.253906,4372.61084,4483.169922,4503.589844,4555.256348,4411.818359,4376.165527,4513.822754,4521.002441,4537.762207,4512.05127,4361.59668,4401.398438,4546.748047,4501.107422,4467.295898,4408.892578,4711.748047,4362.73877,4538.869629,4497.71582,4397.668945,4515.058105,4497.38916,0,1,19,0,0,,,,0,4,4,4,4,4,4,4,4,4,4,4,4,4,4,4,4,4,4,4,4,4,4,4,4,4,4,4,4,4,4,4,4,100,,,,,,,,,,,,,,,,,,,,,,,,,,,,,,,,,,,,,,,,,,,,,,,,,,,,,,,,,,,,,,,,,,,,,,,,,,,,,,,,,,,,,,,,,,,,,,,,,,,,,,,,,,,,,,,,,,,,,,,,,,,,,,,,,,,,,,,,,,,,,,,,,,,,,,,,,,,,,,,,,,,,,,,,,,,,,,,,,,,,,,,,,,,,,,,,,,,,,,,,,,,,,,
1764666499.365308,41040,1,4374.603516,4402.470703,4504.825195,4513.100098,4406.748047,4519.743652,4520.244629,4364.020996,4623.554688,4376.211914,4481.654785,4501.410156,4554.102539,4412.016113,4375.55957,4512.599121,4519.137695,4532.972168,4507.307617,4359.720215,4399.568848,4546.864746,4500.198242,4466.748047,4404.289063,4710.710938,4363.263184,4538.169922,4496.759766,4398.624512,4515.874023,4495.326172,0,1,19,0,0,,,,0,4,4,4,4,4,4,4,4,4,4,4,4,4,4,4,4,4,4,4,4,4,4,4,4,4,4,4,4,4,4,4,4,100,,,,,,,,,,,,,,,,,,,,,,,,,,,,,,,,,,,,,,,,,,,,,,,,,,,,,,,,,,,,,,,,,,,,,,,,,,,,,,,,,,,,,,,,,,,,,,,,,,,,,,,,,,,,,,,,,,,,,,,,,,,,,,,,,,,,,,,,,,,,,,,,,,,,,,,,,,,,,,,,,,,,,,,,,,,,,,,,,,,,,,,,,,,,,,,,,,,,,,,,,,,,,,
1764666499.369214,41041,1,4372.319336,4401.24707,4500.55957,4510.489746,4404.149414,4517.692383,4517.319336,4361.36377,4622.855469,4379.813477,4480.139648,4499.230957,4552.94873,4412.214355,4374.953613,4511.375488,4517.272949,4528.181641,4502.563965,4357.84375,4397.73877,4546.981445,4499.289063,4466.200684,4399.685547,4709.673828,4363.788086,4537.470703,4495.804199,4399.580566,4516.689941,4493.263184,0,1,19,0,0,,,,0,4,4,4,4,4,4,4,4,4,4,4,4,4,4,4,4,4,4,4,4,4,4,4,4,4,4,4,4,4,4,4,4,100,,,,,,,,,,,,,,,,,,,,,,,,,,,,,,,,,,,,,,,,,,,,,,,,,,,,,,,,,,,,,,,,,,,,,,,,,,,,,,,,,,,,,,,,,,,,,,,,,,,,,,,,,,,,,,,,,,,,,,,,,,,,,,,,,,,,,,,,,,,,,,,,,,,,,,,,,,,,,,,,,,,,,,,,,,,,,,,,,,,,,,,,,,,,,,,,,,,,,,,,,,,,,,
1764666499.373120,41042,1,4370.035156,4400.023438,4496.293945,4507.878906,4401.550293,4515.641113,4514.394043,4358.706055,4622.15625,4383.415039,4478.624512,4497.05127,4551.794922,4412.412598,4374.347168,4510.151367,4515.407715,4523.391602,4497.820313,4355.967285,4395.90918,4547.098145,4498.379883,4465.652832,4395.081543,4708.63623,4364.3125,4536.771484,4494.848633,4400.536133,4517.505859,4491.200684,0,1,19,0,0,,,,0,4,4,4,4,4,4,4,4,4,4,4,4,4,4,4,4,4,4,4,4,4,4,4,4,4,4,4,4,4,4,4,4,100,,,,,,,,,,,,,,,,,,,,,,,,,,,,,,,,,,,,,,,,,,,,,,,,,,,,,,,,,,,,,,,,,,,,,,,,,,,,,,,,,,,,,,,,,,,,,,,,,,,,,,,,,,,,,,,,,,,,,,,,,,,,,,,,,,,,,,,,,,,,,,,,,,,,,,,,,,,,,,,,,,,,,,,,,,,,,,,,,,,,,,,,,,,,,,,,,,,,,,,,,,,,,,
