Timestamp,EEG.Counter,EEG.Interpolated,EEG.Cz,EEG.Fz,EEG.Fp1,EEG.F7,EEG.F3,EEG.FC1,EEG.C3,EEG.FC5,EEG.FT9,EEG.T7,EEG.CP5,EEG.CP1,EEG.P3,EEG.P7,EEG.PO9,EEG.O1,EEG.Pz,EEG.Oz,EEG.O2,EEG.PO10,EEG.P8,EEG.P4,EEG.CP2,EEG.CP6,EEG.T8,EEG.FT10,EEG.FC6,EEG.C4,EEG.FC2,EEG.F4,EEG.F8,EEG.Fp2,EEG.RawCq,EEG.Battery,EEG.BatteryPercent,EEG.FwBufferSize,EEG.FwClockTime,MarkerIndex,MarkerType,MarkerValueInt,EEG.MarkerHardware,CQ.Cz,CQ.Fz,CQ.Fp1,CQ.F7,CQ.F3,CQ.FC1,CQ.C3,CQ.FC5,CQ.FT9,CQ.T7,CQ.CP5,CQ.CP1,CQ.P3,CQ.P7,CQ.PO9,CQ.O1,CQ.Pz,CQ.Oz,CQ.O2,CQ.PO10,CQ.P8,CQ.P4,CQ.CP2,CQ.CP6,CQ.T8,CQ.FT10,CQ.FC6,CQ.C4,CQ.FC2,CQ.F4,CQ.F8,CQ.Fp2,CQ.Overall,EQ.SampleRateQuality,EQ.OVERALL,EQ.Cz,EQ.Fz,EQ.Fp1,EQ.F7,EQ.F3,EQ.FC1,EQ.C3,EQ.FC5,EQ.FT9,EQ.T7,EQ.CP5,EQ.CP1,EQ.P3,EQ.P7,EQ.PO9,EQ.O1,EQ.Pz,EQ.Oz,EQ.O2,EQ.PO10,EQ.P8,EQ.P4,EQ.CP2,EQ.CP6,EQ.T8,EQ.FT10,EQ.FC6,EQ.C4,EQ.FC2,EQ.F4,EQ.F8,EQ.Fp2,MOT.CounterMems,MOT.InterpolatedMems,MOT.Q0,MOT.Q1,MOT.Q2,MOT.Q3,MOT.AccX,MOT.AccY,MOT.AccZ,MOT.MagX,MOT.MagY,MOT.MagZ,POW.Cz.Theta,POW.Cz.Alpha,POW.Cz.BetaL,POW.Cz.BetaH,POW.Cz.Gamma,POW.Fz.Theta,POW.Fz.Alpha,POW.Fz.BetaL,POW.Fz.BetaH,POW.Fz.Gamma,POW.Fp1.Theta,POW.Fp1.Alpha,POW.Fp1.BetaL,POW.Fp1.BetaH,POW.Fp1.Gamma,POW.F7.Theta,POW.F7.Alpha,POW.F7.BetaL,POW.F7.BetaH,POW.F7.Gamma,POW.F3.Theta,POW.F3.Alpha,POW.F3.BetaL,POW.F3.BetaH,POW.F3.Gamma,POW.FC1.Theta,POW.FC1.Alpha,POW.FC1.BetaL,POW.FC1.BetaH,POW.FC1.Gamma,POW.C3.Theta,POW.C3.Alpha,POW.C3.BetaL,POW.C3.BetaH,POW.C3.Gamma,POW.FC5.Theta,POW.FC5.Alpha,POW.FC5.BetaL,POW.FC5.BetaH,POW.FC5.Gamma,POW.FT9.Theta,POW.FT9.Alpha,POW.FT9.BetaL,POW.FT9.BetaH,POW.FT9.Gamma,POW.T7.Theta,POW.T7.Alpha,POW.T7.BetaL,POW.T7.BetaH,POW.T7.Gamma,POW.CP5.Theta,POW.CP5.Alpha,POW.CP5.BetaL,POW.CP5.BetaH,POW.CP5.Gamma,POW.CP1.Theta,POW.CP1.Alpha,POW.CP1.BetaL,POW.CP1.BetaH,POW.CP1.Gamma,POW.P3.Theta,POW.P3.Alpha,POW.P3.BetaL,POW.P3.BetaH,POW.P3.Gamma,POW.P7.Theta,POW.P7.Alpha,POW.P7.BetaL,POW.P7.BetaH,POW.P7.Gamma,POW.PO9.Theta,POW.PO9.Alpha,POW.PO9.BetaL,POW.PO9.BetaH,POW.PO9.Gamma,POW.O1.Theta,POW.O1.Alpha,POW.O1.BetaL,POW.O1.BetaH,POW.O1.Gamma,POW.Pz.Theta,POW.Pz.Alpha,POW.Pz.BetaL,POW.Pz.BetaH,POW.Pz.Gamma,POW.Oz.Theta,POW.Oz.Alpha,POW.Oz.BetaL,POW.Oz.BetaH,POW.Oz.Gamma,POW.O2.Theta,POW.O2.Alpha,POW.O2.BetaL,POW.O2.BetaH,POW.O2.Gamma,POW.PO10.Theta,POW.PO10.Alpha,POW.PO10.BetaL,POW.PO10.BetaH,POW.PO10.Gamma,POW.P8.Theta,POW.P8.Alpha,POW.P8.BetaL,POW.P8.BetaH,POW.P8.Gamma,POW.P4.Theta,POW.P4.Alpha,POW.P4.BetaL,POW.P4.BetaH,POW.P4.Gamma,POW.CP2.Theta,POW.CP2.Alpha,POW.CP2.BetaL,POW.CP2.BetaH,POW.CP2.Gamma,POW.CP6.Theta,POW.CP6.Alpha,POW.CP6.BetaL,POW.CP6.BetaH,POW.CP6.Gamma,POW.T8.Theta,POW.T8.Alpha,POW.T8.BetaL,POW.T8.BetaH,POW.T8.Gamma,POW.FT10.Theta,POW.FT10.Alpha,POW.FT10.BetaL,POW.FT10.BetaH,POW.FT10.Gamma,POW.FC6.Theta,POW.FC6.Alpha,POW.FC6.BetaL,POW.FC6.BetaH,POW.FC6.Gamma,POW.C4.Theta,POW.C4.Alpha,POW.C4.BetaL,POW.C4.BetaH,POW.C4.Gamma,POW.FC2.Theta,POW.FC2.Alpha,POW.FC2.BetaL,POW.FC2.BetaH,POW.FC2.Gamma,POW.F4.Theta,POW.F4.Alpha,POW.F4.BetaL,POW.F4.BetaH,POW.F4.Gamma,POW.F8.Theta,POW.F8.Alpha,POW.F8.BetaL,POW.F8.BetaH,POW.F8.Gamma,POW.Fp2.Theta,POW.Fp2.Alpha,POW.Fp2.BetaL,POW.Fp2.BetaH,POW.Fp2.Gamma
1763974221.758473,22567.0,0.0,4367.05127,4370.897461,4480.256348,4507.820313,4385.256348,4505.256348,4519.487305,4374.487305,4559.230957,4380.128418,4473.974121,4496.025879,4553.077148,4372.692383,4375.384766,4490.0,4526.922852,4519.487305,4490.0,4381.922852,4382.179688,4545.0,4493.077148,4481.794922,4378.974121,4566.794922,4371.666504,4529.743652,4491.153809,4396.794922,4507.94873,4487.179688,2939.0,1.0,20.0,1536.0,7767.0,1.0,1.0,1.0,0.0,4.0,4.0,4.0,4.0,4.0,4.0,4.0,4.0,4.0,4.0,4.0,4.0,4.0,4.0,4.0,4.0,4.0,4.0,4.0,4.0,4.0,4.0,4.0,4.0,4.0,4.0,4.0,4.0,4.0,4.0,4.0,4.0,100.0,,,,,,,,,,,,,,,,,,,,,,,,,,,,,,,,,,,,,,,,,,,,,,,,,,,,,,,,,,,,,,,,,,,,,,,,,,,,,,,,,,,,,,,,,,,,,,,,,,,,,,,,,,,,,,,,,,,,,,,,,,,,,,,,,,,,,,,,,,,,,,,,,,,,,,,,,,,,,,,,,,,,,,,,,,,,,,,,,,,,,,,,,,,,,,,,,,,,,,,,,,,,,,
1763974221.762379,22568.0,0.0,4366.666504,4367.563965,4480.256348,4505.641113,4382.179688,4505.256348,4516.666504,4372.436035,4557.692383,4370.897461,4469.615234,4496.282227,4550.897461,4381.282227,4380.384766,4488.974121,4525.641113,4519.743652,4495.512695,4379.487305,4381.922852,4537.179688,4492.05127,4472.94873,4380.897461,4559.487305,4374.230957,4524.871582,4492.436035,4399.615234,4501.666504,4485.0,2672.0,1.0,20.0,1792.0,7775.0,,,,0.0,4.0,4.0,4.0,4.0,4.0,4.0,4.0,4.0,4.0,4.0,4.0,4.0,4.0,4.0,4.0,4.0,4.0,4.0,4.0,4.0,4.0,4.0,4.0,4.0,4.0,4.0,4.0,4.0,4.0,4.0,4.0,4.0,100.0,,,,,,,,,,,,,,,,,,,,,,,,,,,,,,,,,,,,,,,,,,,,,,,,,,,,,,,,,,,,,,,,,,,,,,,,,,,,,,,,,,,,,,,,,,,,,,,,,,,,,,,,,,,,,,,,,,,,,,,,,,,,,,,,,,,,,,,,,,,,,,,,,,,,,,,,,,,,,,,,,,,,,,,,,,,,,,,,,,,,,,,,,,,,,,,,,,,,,,,,,,,,,,
1763974221.766285,22569.0,0.0,4366.922852,4367.820313,4483.077148,4506.282227,4381.666504,4505.641113,4516.410156,4371.153809,4558.846191,4368.589844,4467.820313,4496.922852,4550.128418,4388.717773,4382.94873,4493.077148,4525.512695,4521.922852,4501.410156,4381.410156,4382.563965,4535.256348,4490.128418,4469.487305,4386.666504,4554.743652,4373.589844,4522.820313,4492.179688,4400.256348,4502.179688,4487.692383,2841.0,1.0,20.0,1792.0,7775.0,,,,0.0,4.0,4.0,4.0,4.0,4.0,4.0,4.0,4.0,4.0,4.0,4.0,4.0,4.0,4.0,4.0,4.0,4.0,4.0,4.0,4.0,4.0,4.0,4.0,4.0,4.0,4.0,4.0,4.0,4.0,4.0,4.0,4.0,100.0,,,,,,,,,,,,,,,,,,,,,,,,,,,,,,,,,,,22026.0,0.0,0.598932,0.32135,0.287781,0.674683,0.990355,-0.122574,0.00879,29.166666,-26.0,-23.5,,,,,,,,,,,,,,,,,,,,,,,,,,,,,,,,,,,,,,,,,,,,,,,,,,,,,,,,,,,,,,,,,,,,,,,,,,,,,,,,,,,,,,,,,,,,,,,,,,,,,,,,,,,,,,,,,,,,,,,,,,,,,,,,,,,,,,,,,,,,,,,,,,,,,,,,,,,,,,,,
1763974221.770191,22570.0,0.0,4366.794922,4371.538574,4487.94873,4508.717773,4383.333496,4505.769043,4517.179688,4370.128418,4561.410156,4375.0,4468.461426,4497.05127,4549.615234,4391.025879,4382.692383,4502.05127,4525.897461,4527.307617,4505.128418,4386.025879,4384.102539,4539.871582,4488.974121,4473.077148,4393.461426,4555.512695,4368.461426,4525.769043,4489.487305,4398.205078,4508.205078,4491.025879,2654.0,1.0,20.0,2048.0,7783.0,,,,0.0,4.0,4.0,4.0,4.0,4.0,4.0,4.0,4.0,4.0,4.0,4.0,4.0,4.0,4.0,4.0,4.0,4.0,4.0,4.0,4.0,4.0,4.0,4.0,4.0,4.0,4.0,4.0,4.0,4.0,4.0,4.0,4.0,100.0,,,,,,,,,,,,,,,,,,,,,,,,,,,,,,,,,,,,,,,,,,,,,,,,,,,,,,,,,,,,,,,,,,,,,,,,,,,,,,,,,,,,,,,,,,,,,,,,,,,,,,,,,,,,,,,,,,,,,,,,,,,,,,,,,,,,,,,,,,,,,,,,,,,,,,,,,,,,,,,,,,,,,,,,,,,,,,,,,,,,,,,,,,,,,,,,,,,,,,,,,,,,,,
1763974221.774097,22571.0,0.0,4366.794922,4376.922852,4493.974121,4512.563965,4386.410156,4506.538574,4518.205078,4369.743652,4564.102539,4385.641113,4471.410156,4497.94873,4550.512695,4388.589844,4381.666504,4512.179688,4527.563965,4536.153809,4509.487305,4391.153809,4387.436035,4549.358887,4490.769043,4482.179688,4399.102539,4562.94873,4362.179688,4533.461426,4487.05127,4394.487305,4516.538574,4492.436035,2983.0,1.0,20.0,2048.0,7783.0,,,,0.0,4.0,4.0,4.0,4.0,4.0,4.0,4.0,4.0,4.0,4.0,4.0,4.0,4.0,4.0,4.0,4.0,4.0,4.0,4.0,4.0,4.0,4.0,4.0,4.0,4.0,4.0,4.0,4.0,4.0,4.0,4.0,4.0,100.0,,,,,,,,,,,,,,,,,,,,,,,,,,,,,,,,,,,,,,,,,,,,,,,,,,,,,,,,,,,,,,,,,,,,,,,,,,,,,,,,,,,,,,,,,,,,,,,,,,,,,,,,,,,,,,,,,,,,,,,,,,,,,,,,,,,,,,,,,,,,,,,,,,,,,,,,,,,,,,,,,,,,,,,,,,,,,,,,,,,,,,,,,,,,,,,,,,,,,,,,,,,,,,
1763974221.778002,22572.0,0.0,4369.230957,4381.922852,4501.410156,4518.974121,4390.897461,4509.230957,4520.897461,4372.179688,4567.692383,4394.871582,4477.563965,4501.538574,4555.641113,4385.897461,4382.94873,4519.358887,4532.179688,4546.153809,4517.307617,4396.410156,4394.102539,4561.025879,4497.436035,4494.743652,4404.615234,4575.897461,4362.563965,4543.846191,4488.589844,4392.179688,4525.384766,4493.974121,2939.0,1.0,20.0,2304.0,7791.0,,,,0.0,4.0,4.0,4.0,4.0,4.0,4.0,4.0,4.0,4.0,4.0,4.0,4.0,4.0,4.0,4.0,4.0,4.0,4.0,4.0,4.0,4.0,4.0,4.0,4.0,4.0,4.0,4.0,4.0,4.0,4.0,4.0,4.0,100.0,,,,,,,,,,,,,,,,,,,,,,,,,,,,,,,,,,,,,,,,,,,,,,,,,,,,,,,,,,,,,,,,,,,,,,,,,,,,,,,,,,,,,,,,,,,,,,,,,,,,,,,,,,,,,,,,,,,,,,,,,,,,,,,,,,,,,,,,,,,,,,,,,,,,,,,,,,,,,,,,,,,,,,,,,,,,,,,,,,,,,,,,,,,,,,,,,,,,,,,,,,,,,,
1763974221.781908,22573.0,0.0,4375.0,4385.769043,4509.615234,4527.820313,4396.410156,4513.717773,4526.410156,4378.589844,4573.461426,4399.871582,4486.410156,4508.077148,4565.897461,4387.179688,4387.436035,4521.025879,4539.743652,4553.717773,4527.692383,4403.333496,4403.589844,4572.05127,4507.820313,4508.461426,4412.563965,4591.282227,4374.743652,4553.717773,4495.0,4394.743652,4534.487305,4500.641113,2769.0,1.0,20.0,2304.0,7791.0,,,,0.0,4.0,4.0,4.0,4.0,4.0,4.0,4.0,4.0,4.0,4.0,4.0,4.0,4.0,4.0,4.0,4.0,4.0,4.0,4.0,4.0,4.0,4.0,4.0,4.0,4.0,4.0,4.0,4.0,4.0,4.0,4.0,4.0,100.0,,,,,,,,,,,,,,,,,,,,,,,,,,,,,,,,,,,22027.0,0.0,0.598877,0.321472,0.287903,0.674622,1.001587,-0.120132,-0.013185,29.333334,-27.0,-21.666666,,,,,,,,,,,,,,,,,,,,,,,,,,,,,,,,,,,,,,,,,,,,,,,,,,,,,,,,,,,,,,,,,,,,,,,,,,,,,,,,,,,,,,,,,,,,,,,,,,,,,,,,,,,,,,,,,,,,,,,,,,,,,,,,,,,,,,,,,,,,,,,,,,,,,,,,,,,,,,,,
1763974221.785814,22574.0,0.0,4382.05127,4388.589844,4517.563965,4537.179688,4401.410156,4518.333496,4533.717773,4387.563965,4580.256348,4402.436035,4495.512695,4515.641113,4577.563965,4393.461426,4393.589844,4518.589844,4547.307617,4556.153809,4535.512695,4412.307617,4412.94873,4580.641113,4517.179688,4520.512695,4423.717773,4604.487305,4396.025879,4560.0,4502.820313,4403.077148,4543.205078,4514.358887,2739.0,1.0,20.0,2560.0,7798.0,,,,0.0,4.0,4.0,4.0,4.0,4.0,4.0,4.0,4.0,4.0,4.0,4.0,4.0,4.0,4.0,4.0,4.0,4.0,4.0,4.0,4.0,4.0,4.0,4.0,4.0,4.0,4.0,4.0,4.0,4.0,4.0,4.0,4.0,100.0,,,,,,,,,,,,,,,,,,,,,,,,,,,,,,,,,,,,,,,,,,,,,,,1.712424,2.189424,1.321169,0.763968,0.795018,1.057204,3.179221,2.459437,0.796004,0.798248,0.87701,3.792598,2.339288,1.236937,1.555673,0.814859,2.763986,1.826839,0.853267,1.027958,1.021149,1.61506,0.844813,0.592923,0.483903,0.731594,1.666985,0.797407,0.459241,0.362594,1.285975,2.54566,1.279964,0.793457,0.605198,0.721984,2.870583,1.362593,1.057294,0.815045,0.851773,1.581518,1.230555,0.461816,0.688633,1.116787,3.48653,0.971377,4.933137,2.805568,0.831315,2.615573,0.878327,0.772829,0.742842,0.941388,1.857309,1.164476,0.620394,0.72785,1.126775,1.673208,1.433171,0.69081,0.708793,0.467383,1.05076,1.148109,1.131599,0.877501,0.515879,1.461702,1.111725,0.540366,0.523236,0.172314,0.919736,1.978237,1.207011,0.855222,1.070459,2.285296,1.263002,0.544896,0.649972,0.497844,2.051759,3.153036,1.344051,1.59654,1.145055,3.811363,5.126899,1.888326,2.888877,0.785548,3.023834,1.322202,0.975616,1.34493,1.345814,3.876072,2.666458,1.545288,1.162737,1.862692,2.386987,1.813707,1.039734,1.391266,1.424815,2.250471,1.60354,0.807218,0.945595,1.15486,1.997718,1.014071,1.012847,1.207707,1.59282,2.323828,1.854735,2.650924,1.72287,1.220772,3.293901,1.170543,0.976137,0.803059,1.68506,2.576469,1.989212,1.176243,1.955669,1.495319,2.674802,1.231421,0.709828,1.264117,1.543698,2.84727,2.039315,1.036726,0.998069,1.388136,2.905971,2.414764,1.30444,1.250965,1.233689,4.294844,2.00783,1.026535,1.406223,0.976392,5.140438,4.063034,1.825536,1.552276
1763974221.78972,22575.0,0.0,4386.282227,4390.128418,4522.692383,4542.94873,4404.230957,4520.769043,4539.358887,4395.0,4585.0,4405.128418,4501.282227,4520.384766,4584.102539,4400.897461,4397.94873,4515.769043,4551.922852,4553.846191,4536.538574,4419.871582,4418.846191,4585.512695,4520.641113,4527.820313,4434.487305,4610.256348,4415.128418,4561.538574,4507.307617,4413.589844,4549.615234,4529.743652,2809.0,1.0,20.0,2560.0,7798.0,,,,0.0,4.0,4.0,4.0,4.0,4.0,4.0,4.0,4.0,4.0,4.0,4.0,4.0,4.0,4.0,4.0,4.0,4.0,4.0,4.0,4.0,4.0,4.0,4.0,4.0,4.0,4.0,4.0,4.0,4.0,4.0,4.0,4.0,100.0,,,,,,,,,,,,,,,,,,,,,,,,,,,,,,,,,,,,,,,,,,,,,,,,,,,,,,,,,,,,,,,,,,,,,,,,,,,,,,,,,,,,,,,,,,,,,,,,,,,,,,,,,,,,,,,,,,,,,,,,,,,,,,,,,,,,,,,,,,,,,,,,,,,,,,,,,,,,,,,,,,,,,,,,,,,,,,,,,,,,,,,,,,,,,,,,,,,,,,,,,,,,,,
1763974221.793625,22576.0,0.0,4384.743652,4389.102539,4522.563965,4542.05127,4402.94873,4519.358887,4539.743652,4396.282227,4584.230957,4406.794922,4500.256348,4520.0,4581.666504,4404.487305,4398.333496,4516.025879,4551.410156,4549.615234,4530.641113,4420.897461,4419.230957,4586.282227,4516.922852,4527.94873,4437.94873,4606.410156,4421.025879,4558.589844,4505.897461,4420.256348,4551.153809,4536.922852,2936.0,1.0,20.0,2560.0,7806.0,,,,0.0,4.0,4.0,4.0,4.0,4.0,4.0,4.0,4.0,4.0,4.0,4.0,4.0,4.0,4.0,4.0,4.0,4.0,4.0,4.0,4.0,4.0,4.0,4.0,4.0,4.0,4.0,4.0,4.0,4.0,4.0,4.0,4.0,100.0,,,,,,,,,,,,,,,,,,,,,,,,,,,,,,,,,,,,,,,,,,,,,,,,,,,,,,,,,,,,,,,,,,,,,,,,,,,,,,,,,,,,,,,,,,,,,,,,,,,,,,,,,,,,,,,,,,,,,,,,,,,,,,,,,,,,,,,,,,,,,,,,,,,,,,,,,,,,,,,,,,,,,,,,,,,,,,,,,,,,,,,,,,,,,,,,,,,,,,,,,,,,,,
1763974221.797531,22577.0,0.0,4376.666504,4383.717773,4515.512695,4533.846191,4396.666504,4513.846191,4533.205078,4389.102539,4576.922852,4403.205078,4491.922852,4513.974121,4571.794922,4401.538574,4395.256348,4519.743652,4546.410156,4545.128418,4521.282227,4413.077148,4414.230957,4582.179688,4507.820313,4519.615234,4427.692383,4594.743652,4410.641113,4551.666504,4498.846191,4417.436035,4545.897461,4527.436035,3039.0,1.0,20.0,2560.0,7806.0,,,,0.0,4.0,4.0,4.0,4.0,4.0,4.0,4.0,4.0,4.0,4.0,4.0,4.0,4.0,4.0,4.0,4.0,4.0,4.0,4.0,4.0,4.0,4.0,4.0,4.0,4.0,4.0,4.0,4.0,4.0,4.0,4.0,4.0,100.0,,,,,,,,,,,,,,,,,,,,,,,,,,,,,,,,,,,22028.0,0.0,0.599046,0.321228,0.287537,0.674744,1.001587,-0.120132,-0.013185,30.0,-24.833334,-25.166666,,,,,,,,,,,,,,,,,,,,,,,,,,,,,,,,,,,,,,,,,,,,,,,,,,,,,,,,,,,,,,,,,,,,,,,,,,,,,,,,,,,,,,,,,,,,,,,,,,,,,,,,,,,,,,,,,,,,,,,,,,,,,,,,,,,,,,,,,,,,,,,,,,,,,,,,,,,,,,,,
1763974221.801437,22578.0,0.0,4364.487305,4372.692383,4501.922852,4520.641113,4386.025879,4505.384766,4520.897461,4375.128418,4564.871582,4391.025879,4478.846191,4503.846191,4559.871582,4393.461426,4390.256348,4523.461426,4538.205078,4540.0,4512.05127,4398.974121,4404.871582,4572.05127,4496.666504,4504.102539,4403.974121,4580.128418,4390.641113,4541.538574,4487.692383,4403.846191,4534.358887,4502.179688,2843.0,1.0,20.0,2560.0,7814.0,,,,0.0,4.0,4.0,4.0,4.0,4.0,4.0,4.0,4.0,4.0,4.0,4.0,4.0,4.0,4.0,4.0,4.0,4.0,4.0,4.0,4.0,4.0,4.0,4.0,4.0,4.0,4.0,4.0,4.0,4.0,4.0,4.0,4.0,100.0,,,,,,,,,,,,,,,,,,,,,,,,,,,,,,,,,,,,,,,,,,,,,,,,,,,,,,,,,,,,,,,,,,,,,,,,,,,,,,,,,,,,,,,,,,,,,,,,,,,,,,,,,,,,,,,,,,,,,,,,,,,,,,,,,,,,,,,,,,,,,,,,,,,,,,,,,,,,,,,,,,,,,,,,,,,,,,,,,,,,,,,,,,,,,,,,,,,,,,,,,,,,,,
1763974221.805343,22579.0,0.0,4352.436035,4359.230957,4485.256348,4507.436035,4373.974121,4496.282227,4507.94873,4360.512695,4551.922852,4373.077148,4465.897461,4492.692383,4550.769043,4383.589844,4385.128418,4522.307617,4528.333496,4532.94873,4505.384766,4384.230957,4393.846191,4557.692383,4486.153809,4485.769043,4376.153809,4567.94873,4370.769043,4530.256348,4475.769043,4385.0,4519.358887,4473.717773,2997.0,1.0,20.0,2560.0,7814.0,,,,0.0,4.0,4.0,4.0,4.0,4.0,4.0,4.0,4.0,4.0,4.0,4.0,4.0,4.0,4.0,4.0,4.0,4.0,4.0,4.0,4.0,4.0,4.0,4.0,4.0,4.0,4.0,4.0,4.0,4.0,4.0,4.0,4.0,100.0,,,,,,,,,,,,,,,,,,,,,,,,,,,,,,,,,,,,,,,,,,,,,,,,,,,,,,,,,,,,,,,,,,,,,,,,,,,,,,,,,,,,,,,,,,,,,,,,,,,,,,,,,,,,,,,,,,,,,,,,,,,,,,,,,,,,,,,,,,,,,,,,,,,,,,,,,,,,,,,,,,,,,,,,,,,,,,,,,,,,,,,,,,,,,,,,,,,,,,,,,,,,,,
1763974221.809249,22580.0,0.0,4345.512695,4349.358887,4472.436035,4499.615234,4365.769043,4490.128418,4500.256348,4351.794922,4542.94873,4357.692383,4458.461426,4483.974121,4546.794922,4375.769043,4380.256348,4513.974121,4520.128418,4525.128418,4502.563965,4374.871582,4384.743652,4543.974121,4479.487305,4471.666504,4358.461426,4561.666504,4358.333496,4521.153809,4467.820313,4370.769043,4505.641113,4457.94873,2968.0,1.0,20.0,2560.0,7822.0,,,,0.0,4.0,4.0,4.0,4.0,4.0,4.0,4.0,4.0,4.0,4.0,4.0,4.0,4.0,4.0,4.0,4.0,4.0,4.0,4.0,4.0,4.0,4.0,4.0,4.0,4.0,4.0,4.0,4.0,4.0,4.0,4.0,4.0,100.0,,,,,,,,,,,,,,,,,,,,,,,,,,,,,,,,,,,,,,,,,,,,,,,,,,,,,,,,,,,,,,,,,,,,,,,,,,,,,,,,,,,,,,,,,,,,,,,,,,,,,,,,,,,,,,,,,,,,,,,,,,,,,,,,,,,,,,,,,,,,,,,,,,,,,,,,,,,,,,,,,,,,,,,,,,,,,,,,,,,,,,,,,,,,,,,,,,,,,,,,,,,,,,
1763974221.813154,22581.0,0.0,4347.307617,4348.589844,4469.102539,4499.615234,4365.512695,4490.0,4501.538574,4353.077148,4541.282227,4352.692383,4459.615234,4481.666504,4548.205078,4372.05127,4375.641113,4502.179688,4517.307617,4520.128418,4503.717773,4373.461426,4381.282227,4536.922852,4479.230957,4467.563965,4360.769043,4561.666504,4354.743652,4518.205078,4468.205078,4369.358887,4498.461426,4463.077148,2858.0,1.0,20.0,2560.0,7822.0,,,,0.0,4.0,4.0,4.0,4.0,4.0,4.0,4.0,4.0,4.0,4.0,4.0,4.0,4.0,4.0,4.0,4.0,4.0,4.0,4.0,4.0,4.0,4.0,4.0,4.0,4.0,4.0,4.0,4.0,4.0,4.0,4.0,4.0,100.0,,,,,,,,,,,,,,,,,,,,,,,,,,,,,,,,,,,22029.0,0.0,0.599062,0.321106,0.287354,0.674866,0.976193,-0.124527,-0.019045,29.166666,-25.666666,-22.166666,,,,,,,,,,,,,,,,,,,,,,,,,,,,,,,,,,,,,,,,,,,,,,,,,,,,,,,,,,,,,,,,,,,,,,,,,,,,,,,,,,,,,,,,,,,,,,,,,,,,,,,,,,,,,,,,,,,,,,,,,,,,,,,,,,,,,,,,,,,,,,,,,,,,,,,,,,,,,,,,
1763974221.81706,22582.0,0.0,4357.692383,4357.820313,4475.0,4505.641113,4373.333496,4495.897461,4510.641113,4362.94873,4546.794922,4359.871582,4468.589844,4487.179688,4553.461426,4373.461426,4372.307617,4493.461426,4521.282227,4520.897461,4507.563965,4379.358887,4385.128418,4539.743652,4486.025879,4474.615234,4381.410156,4565.897461,4358.461426,4523.205078,4478.077148,4381.025879,4501.025879,4483.974121,2956.0,1.0,20.0,2560.0,7830.0,,,,0.0,4.0,4.0,4.0,4.0,4.0,4.0,4.0,4.0,4.0,4.0,4.0,4.0,4.0,4.0,4.0,4.0,4.0,4.0,4.0,4.0,4.0,4.0,4.0,4.0,4.0,4.0,4.0,4.0,4.0,4.0,4.0,4.0,100.0,,,,,,,,,,,,,,,,,,,,,,,,,,,,,,,,,,,,,,,,,,,,,,,,,,,,,,,,,,,,,,,,,,,,,,,,,,,,,,,,,,,,,,,,,,,,,,,,,,,,,,,,,,,,,,,,,,,,,,,,,,,,,,,,,,,,,,,,,,,,,,,,,,,,,,,,,,,,,,,,,,,,,,,,,,,,,,,,,,,,,,,,,,,,,,,,,,,,,,,,,,,,,,
1763974221.820966,22583.0,0.0,4371.922852,4371.922852,4483.846191,4512.307617,4384.743652,4504.615234,4522.307617,4375.641113,4555.512695,4374.230957,4480.641113,4497.05127,4560.256348,4379.871582,4371.922852,4492.563965,4529.871582,4526.666504,4510.897461,4388.333496,4393.589844,4549.358887,4497.179688,4487.05127,4406.410156,4571.538574,4365.897461,4533.717773,4493.333496,4397.820313,4512.436035,4506.410156,2919.0,1.0,20.0,2560.0,7830.0,,,,0.0,4.0,4.0,4.0,4.0,4.0,4.0,4.0,4.0,4.0,4.0,4.0,4.0,4.0,4.0,4.0,4.0,4.0,4.0,4.0,4.0,4.0,4.0,4.0,4.0,4.0,4.0,4.0,4.0,4.0,4.0,4.0,4.0,100.0,,,,,,,,,,,,,,,,,,,,,,,,,,,,,,,,,,,,,,,,,,,,,,,,,,,,,,,,,,,,,,,,,,,,,,,,,,,,,,,,,,,,,,,,,,,,,,,,,,,,,,,,,,,,,,,,,,,,,,,,,,,,,,,,,,,,,,,,,,,,,,,,,,,,,,,,,,,,,,,,,,,,,,,,,,,,,,,,,,,,,,,,,,,,,,,,,,,,,,,,,,,,,,
1763974221.824872,22584.0,0.0,4383.333496,4383.077148,4488.461426,4515.0,4393.589844,4511.153809,4530.128418,4384.743652,4562.05127,4387.179688,4489.102539,4505.0,4565.128418,4388.461426,4374.871582,4497.692383,4537.563965,4532.179688,4510.256348,4394.487305,4399.871582,4558.333496,4506.153809,4496.282227,4418.974121,4575.769043,4373.461426,4543.846191,4506.666504,4408.974121,4526.410156,4516.794922,2903.0,1.0,20.0,2560.0,7837.0,,,,0.0,4.0,4.0,4.0,4.0,4.0,4.0,4.0,4.0,4.0,4.0,4.0,4.0,4.0,4.0,4.0,4.0,4.0,4.0,4.0,4.0,4.0,4.0,4.0,4.0,4.0,4.0,4.0,4.0,4.0,4.0,4.0,4.0,100.0,,,,,,,,,,,,,,,,,,,,,,,,,,,,,,,,,,,,,,,,,,,,,,,,,,,,,,,,,,,,,,,,,,,,,,,,,,,,,,,,,,,,,,,,,,,,,,,,,,,,,,,,,,,,,,,,,,,,,,,,,,,,,,,,,,,,,,,,,,,,,,,,,,,,,,,,,,,,,,,,,,,,,,,,,,,,,,,,,,,,,,,,,,,,,,,,,,,,,,,,,,,,,,
1763974221.828777,22585.0,0.0,4386.025879,4385.256348,4486.538574,4512.692383,4395.769043,4511.666504,4530.0,4386.538574,4562.307617,4392.179688,4489.615234,4505.128418,4564.871582,4393.717773,4378.846191,4501.666504,4538.717773,4530.641113,4503.717773,4392.436035,4397.563965,4559.615234,4507.307617,4496.410156,4411.410156,4576.538574,4378.333496,4547.94873,4511.666504,4409.358887,4534.102539,4510.384766,2841.0,1.0,20.0,2560.0,7837.0,,,,0.0,4.0,4.0,4.0,4.0,4.0,4.0,4.0,4.0,4.0,4.0,4.0,4.0,4.0,4.0,4.0,4.0,4.0,4.0,4.0,4.0,4.0,4.0,4.0,4.0,4.0,4.0,4.0,4.0,4.0,4.0,4.0,4.0,100.0,,,,,,,,,,,,,,,,,,,,,,,,,,,,,,,,,,,22030.0,0.0,0.599111,0.321289,0.287476,0.674683,0.993774,-0.124527,-0.006837,29.166666,-25.666666,-22.166666,,,,,,,,,,,,,,,,,,,,,,,,,,,,,,,,,,,,,,,,,,,,,,,,,,,,,,,,,,,,,,,,,,,,,,,,,,,,,,,,,,,,,,,,,,,,,,,,,,,,,,,,,,,,,,,,,,,,,,,,,,,,,,,,,,,,,,,,,,,,,,,,,,,,,,,,,,,,,,,,
1763974221.832683,22586.0,0.0,4379.102539,4378.333496,4481.666504,4507.94873,4391.153809,4506.410156,4522.179688,4381.794922,4555.897461,4387.94873,4482.563965,4496.922852,4558.077148,4391.025879,4379.743652,4498.077148,4531.538574,4520.256348,4491.922852,4381.666504,4385.512695,4551.538574,4499.358887,4487.692383,4390.512695,4573.461426,4379.230957,4543.846191,4506.153809,4402.179688,4530.512695,4492.94873,2778.0,1.0,20.0,2560.0,7845.0,,,,0.0,4.0,4.0,4.0,4.0,4.0,4.0,4.0,4.0,4.0,4.0,4.0,4.0,4.0,4.0,4.0,4.0,4.0,4.0,4.0,4.0,4.0,4.0,4.0,4.0,4.0,4.0,4.0,4.0,4.0,4.0,4.0,4.0,100.0,,,,,,,,,,,,,,,,,,,,,,,,,,,,,,,,,,,,,,,,,,,,,,,,,,,,,,,,,,,,,,,,,,,,,,,,,,,,,,,,,,,,,,,,,,,,,,,,,,,,,,,,,,,,,,,,,,,,,,,,,,,,,,,,,,,,,,,,,,,,,,,,,,,,,,,,,,,,,,,,,,,,,,,,,,,,,,,,,,,,,,,,,,,,,,,,,,,,,,,,,,,,,,
1763974221.836589,22587.0,0.0,4367.436035,4367.820313,4480.0,4505.128418,4383.717773,4499.358887,4511.410156,4374.487305,4547.179688,4378.974121,4472.436035,4485.512695,4547.179688,4381.666504,4375.897461,4487.436035,4518.974121,4505.384766,4478.461426,4367.820313,4370.512695,4538.461426,4486.922852,4476.410156,4372.307617,4568.077148,4376.922852,4534.358887,4493.974121,4394.230957,4518.333496,4476.410156,3012.0,1.0,20.0,2560.0,7845.0,,,,0.0,4.0,4.0,4.0,4.0,4.0,4.0,4.0,4.0,4.0,4.0,4.0,4.0,4.0,4.0,4.0,4.0,4.0,4.0,4.0,4.0,4.0,4.0,4.0,4.0,4.0,4.0,4.0,4.0,4.0,4.0,4.0,4.0,100.0,,,,,,,,,,,,,,,,,,,,,,,,,,,,,,,,,,,,,,,,,,,,,,,,,,,,,,,,,,,,,,,,,,,,,,,,,,,,,,,,,,,,,,,,,,,,,,,,,,,,,,,,,,,,,,,,,,,,,,,,,,,,,,,,,,,,,,,,,,,,,,,,,,,,,,,,,,,,,,,,,,,,,,,,,,,,,,,,,,,,,,,,,,,,,,,,,,,,,,,,,,,,,,
1763974221.840495,22588.0,0.0,4358.205078,4361.025879,4484.487305,4507.436035,4378.846191,4495.512695,4503.589844,4369.615234,4542.94873,4373.461426,4465.0,4477.94873,4537.05127,4373.205078,4370.128418,4477.436035,4507.820313,4495.384766,4470.384766,4359.358887,4362.563965,4528.077148,4477.563965,4469.230957,4368.846191,4563.717773,4373.205078,4525.128418,4482.563965,4391.025879,4506.538574,4470.897461,2959.0,1.0,20.0,2561.0,7853.0,,,,0.0,4.0,4.0,4.0,4.0,4.0,4.0,4.0,4.0,4.0,4.0,4.0,4.0,4.0,4.0,4.0,4.0,4.0,4.0,4.0,4.0,4.0,4.0,4.0,4.0,4.0,4.0,4.0,4.0,4.0,4.0,4.0,4.0,100.0,,,,,,,,,,,,,,,,,,,,,,,,,,,,,,,,,,,,,,,,,,,,,,,,,,,,,,,,,,,,,,,,,,,,,,,,,,,,,,,,,,,,,,,,,,,,,,,,,,,,,,,,,,,,,,,,,,,,,,,,,,,,,,,,,,,,,,,,,,,,,,,,,,,,,,,,,,,,,,,,,,,,,,,,,,,,,,,,,,,,,,,,,,,,,,,,,,,,,,,,,,,,,,
1763974221.8444,22589.0,0.0,4357.179688,4362.820313,4494.102539,4514.871582,4380.0,4498.077148,4502.94873,4369.743652,4546.794922,4376.922852,4464.102539,4478.717773,4533.589844,4373.205078,4368.077148,4476.282227,4504.358887,4496.922852,4474.743652,4361.666504,4368.461426,4526.153809,4476.922852,4469.871582,4380.128418,4564.230957,4371.410156,4521.025879,4479.102539,4393.589844,4503.846191,4478.974121,2801.0,1.0,20.0,2561.0,7853.0,,,,0.0,4.0,4.0,4.0,4.0,4.0,4.0,4.0,4.0,4.0,4.0,4.0,4.0,4.0,4.0,4.0,4.0,4.0,4.0,4.0,4.0,4.0,4.0,4.0,4.0,4.0,4.0,4.0,4.0,4.0,4.0,4.0,4.0,100.0,,,,,,,,,,,,,,,,,,,,,,,,,,,,,,,,,,,22031.0,0.0,0.598955,0.321472,0.287598,0.674683,1.00061,-0.125504,-0.00293,30.0,-27.666666,-23.833334,,,,,,,,,,,,,,,,,,,,,,,,,,,,,,,,,,,,,,,,,,,,,,,,,,,,,,,,,,,,,,,,,,,,,,,,,,,,,,,,,,,,,,,,,,,,,,,,,,,,,,,,,,,,,,,,,,,,,,,,,,,,,,,,,,,,,,,,,,,,,,,,,,,,,,,,,,,,,,,,
1763974221.848306,22590.0,0.0,4364.743652,4372.820313,4504.871582,4525.256348,4387.307617,4506.666504,4510.128418,4375.256348,4556.922852,4388.205078,4470.384766,4487.436035,4539.615234,4381.794922,4372.563965,4485.256348,4511.153809,4509.230957,4492.307617,4372.436035,4385.256348,4534.358887,4486.025879,4478.333496,4397.436035,4570.512695,4375.128418,4524.743652,4486.666504,4400.641113,4512.563965,4495.769043,3011.0,1.0,20.0,2562.0,7861.0,,,,0.0,4.0,4.0,4.0,4.0,4.0,4.0,4.0,4.0,4.0,4.0,4.0,4.0,4.0,4.0,4.0,4.0,4.0,4.0,4.0,4.0,4.0,4.0,4.0,4.0,4.0,4.0,4.0,4.0,4.0,4.0,4.0,4.0,100.0,,,,,,,,,,,,,,,,,,,,,,,,,,,,,,,,,,,,,,,,,,,,,,,,,,,,,,,,,,,,,,,,,,,,,,,,,,,,,,,,,,,,,,,,,,,,,,,,,,,,,,,,,,,,,,,,,,,,,,,,,,,,,,,,,,,,,,,,,,,,,,,,,,,,,,,,,,,,,,,,,,,,,,,,,,,,,,,,,,,,,,,,,,,,,,,,,,,,,,,,,,,,,,
1763974221.852212,22591.0,0.0,4376.922852,4386.922852,4513.974121,4535.256348,4397.307617,4517.820313,4522.307617,4383.717773,4568.077148,4400.897461,4482.436035,4500.256348,4553.333496,4391.538574,4381.025879,4497.563965,4525.0,4524.102539,4513.974121,4384.102539,4402.179688,4549.102539,4500.641113,4491.666504,4411.794922,4580.256348,4385.512695,4535.128418,4502.307617,4409.358887,4528.077148,4512.820313,2910.0,1.0,20.0,2562.0,7861.0,,,,0.0,4.0,4.0,4.0,4.0,4.0,4.0,4.0,4.0,4.0,4.0,4.0,4.0,4.0,4.0,4.0,4.0,4.0,4.0,4.0,4.0,4.0,4.0,4.0,4.0,4.0,4.0,4.0,4.0,4.0,4.0,4.0,4.0,100.0,,,,,,,,,,,,,,,,,,,,,,,,,,,,,,,,,,,,,,,,,,,,,,,,,,,,,,,,,,,,,,,,,,,,,,,,,,,,,,,,,,,,,,,,,,,,,,,,,,,,,,,,,,,,,,,,,,,,,,,,,,,,,,,,,,,,,,,,,,,,,,,,,,,,,,,,,,,,,,,,,,,,,,,,,,,,,,,,,,,,,,,,,,,,,,,,,,,,,,,,,,,,,,
1763974221.856118,22592.0,0.0,4387.307617,4398.974121,4520.641113,4542.307617,4405.384766,4526.538574,4534.743652,4392.436035,4575.512695,4407.05127,4496.794922,4511.794922,4568.589844,4392.692383,4387.820313,4503.846191,4539.230957,4532.820313,4525.897461,4389.871582,4407.94873,4563.077148,4513.974121,4504.871582,4418.974121,4588.846191,4399.102539,4548.461426,4517.94873,4416.282227,4541.922852,4524.230957,2811.0,1.0,20.0,2563.0,7869.0,,,,0.0,4.0,4.0,4.0,4.0,4.0,4.0,4.0,4.0,4.0,4.0,4.0,4.0,4.0,4.0,4.0,4.0,4.0,4.0,4.0,4.0,4.0,4.0,4.0,4.0,4.0,4.0,4.0,4.0,4.0,4.0,4.0,4.0,100.0,,,,,,,,,,,,,,,,,,,,,,,,,,,,,,,,,,,,,,,,,,,,,,,,,,,,,,,,,,,,,,,,,,,,,,,,,,,,,,,,,,,,,,,,,,,,,,,,,,,,,,,,,,,,,,,,,,,,,,,,,,,,,,,,,,,,,,,,,,,,,,,,,,,,,,,,,,,,,,,,,,,,,,,,,,,,,,,,,,,,,,,,,,,,,,,,,,,,,,,,,,,,,,
1763974221.860024,22593.0,0.0,4391.282227,4403.974121,4524.871582,4545.384766,4408.717773,4529.358887,4543.205078,4398.717773,4577.436035,4403.846191,4508.589844,4518.333496,4578.589844,4381.922852,4388.846191,4500.384766,4547.563965,4531.538574,4520.384766,4387.563965,4398.589844,4569.230957,4519.871582,4512.692383,4418.589844,4592.05127,4408.461426,4558.205078,4525.384766,4417.94873,4547.692383,4528.333496,2898.0,1.0,20.0,2563.0,7869.0,,,,0.0,4.0,4.0,4.0,4.0,4.0,4.0,4.0,4.0,4.0,4.0,4.0,4.0,4.0,4.0,4.0,4.0,4.0,4.0,4.0,4.0,4.0,4.0,4.0,4.0,4.0,4.0,4.0,4.0,4.0,4.0,4.0,4.0,100.0,,,,,,,,,,,,,,,,,,,,,,,,,,,,,,,,,,,22032.0,0.0,0.598736,0.321533,0.287842,0.674744,0.990355,-0.131852,0.018557,30.0,-25.166666,-22.666666,,,,,,,,,,,,,,,,,,,,,,,,,,,,,,,,,,,,,,,,,,,,,,,,,,,,,,,,,,,,,,,,,,,,,,,,,,,,,,,,,,,,,,,,,,,,,,,,,,,,,,,,,,,,,,,,,,,,,,,,,,,,,,,,,,,,,,,,,,,,,,,,,,,,,,,,,,,,,,,,
1763974221.863929,22594.0,0.0,4387.563965,4400.641113,4526.410156,4544.230957,4406.922852,4525.128418,4544.615234,4400.256348,4574.102539,4394.230957,4513.333496,4518.077148,4579.615234,4364.871582,4384.230957,4491.410156,4547.05127,4523.974121,4501.538574,4379.615234,4380.641113,4565.512695,4516.282227,4511.282227,4411.153809,4587.692383,4407.94873,4559.487305,4520.384766,4413.077148,4542.94873,4525.384766,2247.0,1.0,20.0,2564.0,7877.0,,,,0.0,4.0,4.0,4.0,4.0,4.0,4.0,4.0,4.0,4.0,4.0,4.0,4.0,4.0,4.0,4.0,4.0,4.0,4.0,4.0,4.0,4.0,4.0,4.0,4.0,4.0,4.0,4.0,4.0,4.0,4.0,4.0,4.0,100.0,,,,,,,,,,,,,,,,,,,,,,,,,,,,,,,,,,,,,,,,,,,,,,,,,,,,,,,,,,,,,,,,,,,,,,,,,,,,,,,,,,,,,,,,,,,,,,,,,,,,,,,,,,,,,,,,,,,,,,,,,,,,,,,,,,,,,,,,,,,,,,,,,,,,,,,,,,,,,,,,,,,,,,,,,,,,,,,,,,,,,,,,,,,,,,,,,,,,,,,,,,,,,,
1763974221.867835,22595.0,0.0,4378.333496,4391.282227,4523.461426,4539.102539,4401.666504,4516.025879,4538.717773,4395.641113,4567.436035,4384.102539,4509.102539,4511.922852,4572.692383,4352.563965,4377.436035,4484.871582,4539.743652,4516.282227,4482.692383,4370.897461,4365.384766,4555.0,4506.153809,4501.282227,4397.692383,4577.179688,4396.666504,4551.282227,4506.025879,4403.461426,4530.897461,4515.897461,2934.0,1.0,20.0,2564.0,7877.0,,,,0.0,4.0,4.0,4.0,4.0,4.0,4.0,4.0,4.0,4.0,4.0,4.0,4.0,4.0,4.0,4.0,4.0,4.0,4.0,4.0,4.0,4.0,4.0,4.0,4.0,4.0,4.0,4.0,4.0,4.0,4.0,4.0,4.0,100.0,,,,,,,,,,,,,,,,,,,,,,,,,,,,,,,,,,,,,,,,,,,,,,,,,,,,,,,,,,,,,,,,,,,,,,,,,,,,,,,,,,,,,,,,,,,,,,,,,,,,,,,,,,,,,,,,,,,,,,,,,,,,,,,,,,,,,,,,,,,,,,,,,,,,,,,,,,,,,,,,,,,,,,,,,,,,,,,,,,,,,,,,,,,,,,,,,,,,,,,,,,,,,,
1763974221.871741,22596.0,0.0,4367.563965,4380.256348,4515.0,4530.641113,4394.871582,4505.769043,4528.077148,4386.153809,4559.358887,4377.179688,4498.077148,4502.436035,4562.179688,4353.461426,4372.05127,4485.512695,4530.256348,4512.94873,4475.641113,4365.641113,4361.666504,4543.846191,4495.128418,4487.307617,4382.436035,4564.743652,4379.487305,4537.94873,4489.615234,4393.333496,4518.333496,4500.769043,2836.0,1.0,20.0,2565.0,7884.0,,,,0.0,4.0,4.0,4.0,4.0,4.0,4.0,4.0,4.0,4.0,4.0,4.0,4.0,4.0,4.0,4.0,4.0,4.0,4.0,4.0,4.0,4.0,4.0,4.0,4.0,4.0,4.0,4.0,4.0,4.0,4.0,4.0,4.0,100.0,,,,,,,,,,,,,,,,,,,,,,,,,,,,,,,,,,,,,,,,,,,,,,,,,,,,,,,,,,,,,,,,,,,,,,,,,,,,,,,,,,,,,,,,,,,,,,,,,,,,,,,,,,,,,,,,,,,,,,,,,,,,,,,,,,,,,,,,,,,,,,,,,,,,,,,,,,,,,,,,,,,,,,,,,,,,,,,,,,,,,,,,,,,,,,,,,,,,,,,,,,,,,,
1763974221.875647,22597.0,0.0,4359.230957,4372.05127,4502.820313,4520.512695,4388.205078,4497.692383,4517.307617,4375.128418,4551.666504,4374.487305,4485.641113,4492.94873,4553.205078,4367.307617,4370.256348,4492.692383,4523.077148,4514.358887,4482.179688,4366.153809,4369.871582,4537.563965,4488.461426,4476.282227,4372.179688,4555.641113,4363.077148,4526.922852,4478.461426,4386.538574,4510.769043,4484.487305,2361.0,1.0,20.0,2565.0,7884.0,,,,0.0,4.0,4.0,4.0,4.0,4.0,4.0,4.0,4.0,4.0,4.0,4.0,4.0,4.0,4.0,4.0,4.0,4.0,4.0,4.0,4.0,4.0,4.0,4.0,4.0,4.0,4.0,4.0,4.0,4.0,4.0,4.0,4.0,100.0,,,,,,,,,,,,,,,,,,,,,,,,,,,,,,,,,,,22033.0,0.0,0.598739,0.321472,0.287903,0.674744,1.000122,-0.119155,0.012209,28.0,-26.0,-23.0,,,,,,,,,,,,,,,,,,,,,,,,,,,,,,,,,,,,,,,,,,,,,,,,,,,,,,,,,,,,,,,,,,,,,,,,,,,,,,,,,,,,,,,,,,,,,,,,,,,,,,,,,,,,,,,,,,,,,,,,,,,,,,,,,,,,,,,,,,,,,,,,,,,,,,,,,,,,,,,,
1763974221.879552,22598.0,0.0,4356.282227,4369.102539,4492.307617,4511.410156,4383.717773,4494.743652,4510.897461,4367.436035,4545.641113,4375.256348,4477.692383,4487.307617,4548.717773,4385.256348,4371.666504,4501.794922,4521.410156,4519.230957,4495.897461,4372.307617,4383.974121,4538.589844,4488.461426,4473.205078,4372.692383,4552.563965,4353.205078,4523.846191,4476.410156,4385.512695,4509.487305,4475.0,2930.0,1.0,20.0,2566.0,7892.0,,,,0.0,4.0,4.0,4.0,4.0,4.0,4.0,4.0,4.0,4.0,4.0,4.0,4.0,4.0,4.0,4.0,4.0,4.0,4.0,4.0,4.0,4.0,4.0,4.0,4.0,4.0,4.0,4.0,4.0,4.0,4.0,4.0,4.0,100.0,,,,,,,,,,,,,,,,,,,,,,,,,,,,,,,,,,,,,,,,,,,,,,,,,,,,,,,,,,,,,,,,,,,,,,,,,,,,,,,,,,,,,,,,,,,,,,,,,,,,,,,,,,,,,,,,,,,,,,,,,,,,,,,,,,,,,,,,,,,,,,,,,,,,,,,,,,,,,,,,,,,,,,,,,,,,,,,,,,,,,,,,,,,,,,,,,,,,,,,,,,,,,,
1763974221.883458,22599.0,0.0,4359.615234,4371.538574,4489.230957,4506.794922,4383.589844,4497.05127,4511.282227,4366.282227,4542.94873,4377.820313,4476.794922,4487.692383,4549.615234,4397.436035,4374.743652,4509.230957,4525.769043,4525.641113,4508.717773,4381.025879,4396.410156,4546.282227,4494.487305,4478.717773,4384.487305,4555.512695,4352.436035,4529.230957,4482.179688,4390.0,4512.179688,4479.230957,2942.0,1.0,20.0,2566.0,7892.0,,,,0.0,4.0,4.0,4.0,4.0,4.0,4.0,4.0,4.0,4.0,4.0,4.0,4.0,4.0,4.0,4.0,4.0,4.0,4.0,4.0,4.0,4.0,4.0,4.0,4.0,4.0,4.0,4.0,4.0,4.0,4.0,4.0,4.0,100.0,,,,,,,,,,,,,,,,,,,,,,,,,,,,,,,,,,,,,,,,,,,,,,,,,,,,,,,,,,,,,,,,,,,,,,,,,,,,,,,,,,,,,,,,,,,,,,,,,,,,,,,,,,,,,,,,,,,,,,,,,,,,,,,,,,,,,,,,,,,,,,,,,,,,,,,,,,,,,,,,,,,,,,,,,,,,,,,,,,,,,,,,,,,,,,,,,,,,,,,,,,,,,,
1763974221.887364,22600.0,0.0,4367.179688,4377.307617,4495.128418,4508.333496,4387.563965,4502.94873,4517.05127,4370.769043,4544.615234,4381.025879,4481.666504,4493.846191,4555.0,4399.871582,4377.563965,4513.717773,4533.717773,4532.692383,4517.05127,4388.333496,4403.077148,4557.05127,4502.94873,4488.974121,4400.512695,4562.05127,4359.743652,4538.077148,4491.153809,4396.538574,4516.538574,4496.538574,2672.0,1.0,20.0,2567.0,7900.0,,,,0.0,4.0,4.0,4.0,4.0,4.0,4.0,4.0,4.0,4.0,4.0,4.0,4.0,4.0,4.0,4.0,4.0,4.0,4.0,4.0,4.0,4.0,4.0,4.0,4.0,4.0,4.0,4.0,4.0,4.0,4.0,4.0,4.0,100.0,,,,,,,,,,,,,,,,,,,,,,,,,,,,,,,,,,,,,,,,,,,,,,,,,,,,,,,,,,,,,,,,,,,,,,,,,,,,,,,,,,,,,,,,,,,,,,,,,,,,,,,,,,,,,,,,,,,,,,,,,,,,,,,,,,,,,,,,,,,,,,,,,,,,,,,,,,,,,,,,,,,,,,,,,,,,,,,,,,,,,,,,,,,,,,,,,,,,,,,,,,,,,,
1763974221.89127,22601.0,0.0,4375.256348,4383.077148,4505.897461,4515.0,4393.717773,4509.102539,4524.102539,4377.692383,4550.384766,4384.743652,4488.077148,4502.692383,4562.307617,4396.025879,4379.487305,4515.512695,4541.794922,4539.102539,4521.922852,4390.0,4403.846191,4566.282227,4509.743652,4497.94873,4411.025879,4569.230957,4372.05127,4544.615234,4497.820313,4401.538574,4521.153809,4517.820313,2838.0,1.0,20.0,2567.0,7900.0,,,,0.0,4.0,4.0,4.0,4.0,4.0,4.0,4.0,4.0,4.0,4.0,4.0,4.0,4.0,4.0,4.0,4.0,4.0,4.0,4.0,4.0,4.0,4.0,4.0,4.0,4.0,4.0,4.0,4.0,4.0,4.0,4.0,4.0,100.0,,,,,,,,,,,,,,,,,,,,,,,,,,,,,,,,,,,22034.0,0.0,0.598867,0.321289,0.287842,0.674744,1.003541,-0.109877,0.004883,29.833334,-25.0,-22.833334,,,,,,,,,,,,,,,,,,,,,,,,,,,,,,,,,,,,,,,,,,,,,,,,,,,,,,,,,,,,,,,,,,,,,,,,,,,,,,,,,,,,,,,,,,,,,,,,,,,,,,,,,,,,,,,,,,,,,,,,,,,,,,,,,,,,,,,,,,,,,,,,,,,,,,,,,,,,,,,,
1763974221.895176,22602.0,0.0,4380.0,4386.538574,4513.717773,4522.436035,4398.461426,4512.692383,4528.846191,4382.94873,4557.820313,4389.358887,4492.05127,4509.743652,4568.077148,4391.666504,4380.769043,4514.615234,4546.282227,4542.692383,4525.128418,4385.256348,4401.282227,4571.025879,4512.563965,4501.153809,4409.871582,4573.846191,4383.589844,4546.025879,4499.871582,4403.205078,4526.025879,4531.410156,2656.0,1.0,20.0,2565.0,7908.0,,,,0.0,4.0,4.0,4.0,4.0,4.0,4.0,4.0,4.0,4.0,4.0,4.0,4.0,4.0,4.0,4.0,4.0,4.0,4.0,4.0,4.0,4.0,4.0,4.0,4.0,4.0,4.0,4.0,4.0,4.0,4.0,4.0,4.0,100.0,,,,,,,,,,,,,,,,,,,,,,,,,,,,,,,,,,,,,,,,,,,,,,,,,,,,,,,,,,,,,,,,,,,,,,,,,,,,,,,,,,,,,,,,,,,,,,,,,,,,,,,,,,,,,,,,,,,,,,,,,,,,,,,,,,,,,,,,,,,,,,,,,,,,,,,,,,,,,,,,,,,,,,,,,,,,,,,,,,,,,,,,,,,,,,,,,,,,,,,,,,,,,,
1763974221.899081,22603.0,0.0,4379.871582,4387.436035,4513.589844,4526.025879,4399.487305,4512.820313,4530.512695,4383.717773,4563.589844,4394.743652,4492.436035,4511.410156,4570.384766,4389.358887,4381.282227,4510.769043,4546.282227,4542.05127,4526.025879,4377.563965,4398.974121,4571.025879,4511.282227,4497.820313,4399.102539,4574.487305,4388.589844,4543.461426,4499.102539,4403.077148,4529.871582,4531.025879,2978.0,1.0,20.0,2565.0,7908.0,,,,0.0,4.0,4.0,4.0,4.0,4.0,4.0,4.0,4.0,4.0,4.0,4.0,4.0,4.0,4.0,4.0,4.0,4.0,4.0,4.0,4.0,4.0,4.0,4.0,4.0,4.0,4.0,4.0,4.0,4.0,4.0,4.0,4.0,100.0,,,,,,,,,,,,,,,,,,,,,,,,,,,,,,,,,,,,,,,,,,,,,,,,,,,,,,,,,,,,,,,,,,,,,,,,,,,,,,,,,,,,,,,,,,,,,,,,,,,,,,,,,,,,,,,,,,,,,,,,,,,,,,,,,,,,,,,,,,,,,,,,,,,,,,,,,,,,,,,,,,,,,,,,,,,,,,,,,,,,,,,,,,,,,,,,,,,,,,,,,,,,,,
1763974221.902987,22604.0,0.0,4377.179688,4387.436035,4507.692383,4524.358887,4397.563965,4511.538574,4531.025879,4380.384766,4565.641113,4398.077148,4491.666504,4508.333496,4569.871582,4387.307617,4380.641113,4505.641113,4543.333496,4537.94873,4522.05127,4372.563965,4398.077148,4568.333496,4509.102539,4491.153809,4386.666504,4571.666504,4384.871582,4540.512695,4499.230957,4403.589844,4531.282227,4519.615234,2935.0,1.0,20.0,2565.0,7916.0,,,,0.0,4.0,4.0,4.0,4.0,4.0,4.0,4.0,4.0,4.0,4.0,4.0,4.0,4.0,4.0,4.0,4.0,4.0,4.0,4.0,4.0,4.0,4.0,4.0,4.0,4.0,4.0,4.0,4.0,4.0,4.0,4.0,4.0,100.0,,,,,,,,,,,,,,,,,,,,,,,,,,,,,,,,,,,,,,,,,,,,,,,,,,,,,,,,,,,,,,,,,,,,,,,,,,,,,,,,,,,,,,,,,,,,,,,,,,,,,,,,,,,,,,,,,,,,,,,,,,,,,,,,,,,,,,,,,,,,,,,,,,,,,,,,,,,,,,,,,,,,,,,,,,,,,,,,,,,,,,,,,,,,,,,,,,,,,,,,,,,,,,
1763974221.906893,22605.0,0.0,4375.897461,4388.205078,4502.692383,4520.0,4395.512695,4511.282227,4533.205078,4376.282227,4564.102539,4395.897461,4492.563965,4504.230957,4568.333496,4382.94873,4378.846191,4502.307617,4540.897461,4532.94873,4512.692383,4374.358887,4398.205078,4565.384766,4509.358887,4486.922852,4381.153809,4568.077148,4375.769043,4540.897461,4502.563965,4406.025879,4529.871582,4506.666504,2775.0,1.0,20.0,2565.0,7916.0,,,,0.0,4.0,4.0,4.0,4.0,4.0,4.0,4.0,4.0,4.0,4.0,4.0,4.0,4.0,4.0,4.0,4.0,4.0,4.0,4.0,4.0,4.0,4.0,4.0,4.0,4.0,4.0,4.0,4.0,4.0,4.0,4.0,4.0,100.0,,,,,,,,,,,,,,,,,,,,,,,,,,,,,,,,,,,22035.0,0.0,0.598951,0.321167,0.287659,0.674805,0.997192,-0.117202,0.006348,30.166666,-27.833334,-22.5,,,,,,,,,,,,,,,,,,,,,,,,,,,,,,,,,,,,,,,,,,,,,,,,,,,,,,,,,,,,,,,,,,,,,,,,,,,,,,,,,,,,,,,,,,,,,,,,,,,,,,,,,,,,,,,,,,,,,,,,,,,,,,,,,,,,,,,,,,,,,,,,,,,,,,,,,,,,,,,,
1763974221.910799,22606.0,0.0,4379.230957,4390.641113,4503.846191,4517.563965,4396.153809,4513.974121,4537.436035,4375.641113,4561.410156,4387.563965,4496.025879,4503.205078,4568.077148,4377.94873,4376.410156,4502.820313,4540.897461,4529.102539,4500.897461,4382.179688,4397.179688,4563.717773,4513.974121,4488.589844,4386.922852,4566.922852,4368.589844,4546.153809,4507.94873,4409.230957,4527.05127,4500.897461,2736.0,1.0,20.0,2566.0,7923.0,,,,0.0,4.0,4.0,4.0,4.0,4.0,4.0,4.0,4.0,4.0,4.0,4.0,4.0,4.0,4.0,4.0,4.0,4.0,4.0,4.0,4.0,4.0,4.0,4.0,4.0,4.0,4.0,4.0,4.0,4.0,4.0,4.0,4.0,100.0,,,,,,,,,,,,,,,,,,,,,,,,,,,,,,,,,,,,,,,,,,,,,,,1.773114,2.154964,1.251528,0.771389,0.828754,1.108478,3.146987,2.235839,0.727583,0.788615,0.603666,3.553824,1.823885,1.120663,1.375251,0.546951,2.543842,1.473014,0.784538,1.023289,0.713775,1.462772,0.685546,0.552036,0.478993,0.708584,1.582932,0.668743,0.442232,0.3611,1.34432,2.648681,1.0626,0.726385,0.585177,0.622041,2.649413,1.132409,0.926953,0.787638,0.783384,1.467606,1.082319,0.467569,0.689562,1.062853,3.029134,1.246235,5.008556,3.089895,0.769474,2.715898,0.787928,0.88531,0.763914,1.102147,1.877955,1.027465,0.609149,0.760761,0.943714,1.662682,1.126842,0.736796,0.689531,0.420019,1.014608,0.983166,1.194747,1.005453,0.443765,1.35014,0.854304,0.576116,0.539854,0.18182,0.949578,1.568205,1.092427,0.954179,1.051171,2.350868,1.052165,0.559422,0.646774,0.460399,2.015649,2.471695,1.202952,1.677957,1.047985,3.45726,4.357939,1.581343,2.958155,0.700467,2.832361,1.181017,0.883105,1.31495,1.238425,3.66566,2.236123,1.395116,1.216781,1.572752,2.426323,1.633798,1.010077,1.412479,1.32989,2.210572,1.39034,0.795954,0.939813,0.952115,2.137306,1.000902,0.970303,1.170453,1.298364,2.061177,1.742123,2.502021,1.771071,0.94624,3.310275,0.979791,0.831886,0.754499,1.356236,2.61699,2.04328,1.188726,1.904849,1.272881,2.750668,1.276978,0.749825,1.330626,1.523665,2.775874,1.912239,1.005703,1.022869,1.161711,2.907368,2.514298,1.099972,1.274515,1.096947,4.127957,1.672097,0.858304,1.410942,0.760652,4.866518,3.790903,1.756678,1.505373
1763974221.914704,22607.0,0.0,4386.922852,4394.615234,4510.0,4520.128418,4400.0,4518.846191,4541.666504,4380.256348,4560.256348,4376.538574,4499.743652,4506.538574,4569.487305,4376.794922,4374.358887,4506.922852,4543.333496,4526.666504,4491.922852,4390.897461,4392.820313,4562.692383,4520.897461,4495.256348,4399.871582,4569.871582,4369.102539,4553.974121,4512.563965,4411.794922,4524.871582,4504.102539,2807.0,1.0,20.0,2566.0,7923.0,,,,0.0,4.0,4.0,4.0,4.0,4.0,4.0,4.0,4.0,4.0,4.0,4.0,4.0,4.0,4.0,4.0,4.0,4.0,4.0,4.0,4.0,4.0,4.0,4.0,4.0,4.0,4.0,4.0,4.0,4.0,4.0,4.0,4.0,100.0,,,,,,,,,,,,,,,,,,,,,,,,,,,,,,,,,,,,,,,,,,,,,,,,,,,,,,,,,,,,,,,,,,,,,,,,,,,,,,,,,,,,,,,,,,,,,,,,,,,,,,,,,,,,,,,,,,,,,,,,,,,,,,,,,,,,,,,,,,,,,,,,,,,,,,,,,,,,,,,,,,,,,,,,,,,,,,,,,,,,,,,,,,,,,,,,,,,,,,,,,,,,,,
1763974221.91861,22608.0,0.0,4395.256348,4398.461426,4515.769043,4527.05127,4404.871582,4523.717773,4543.205078,4387.820313,4561.538574,4368.846191,4500.641113,4511.538574,4571.282227,4381.794922,4372.94873,4511.025879,4546.282227,4524.615234,4489.615234,4394.871582,4385.0,4560.384766,4525.769043,4502.05127,4411.025879,4575.0,4377.307617,4559.743652,4514.487305,4413.589844,4524.230957,4511.282227,2926.0,1.0,20.0,2561.0,7931.0,,,,0.0,4.0,4.0,4.0,4.0,4.0,4.0,4.0,4.0,4.0,4.0,4.0,4.0,4.0,4.0,4.0,4.0,4.0,4.0,4.0,4.0,4.0,4.0,4.0,4.0,4.0,4.0,4.0,4.0,4.0,4.0,4.0,4.0,100.0,,,,,,,,,,,,,,,,,,,,,,,,,,,,,,,,,,,,,,,,,,,,,,,,,,,,,,,,,,,,,,,,,,,,,,,,,,,,,,,,,,,,,,,,,,,,,,,,,,,,,,,,,,,,,,,,,,,,,,,,,,,,,,,,,,,,,,,,,,,,,,,,,,,,,,,,,,,,,,,,,,,,,,,,,,,,,,,,,,,,,,,,,,,,,,,,,,,,,,,,,,,,,,
1763974221.922516,22609.0,0.0,4399.871582,4400.512695,4516.410156,4534.358887,4407.692383,4526.153809,4541.153809,4393.717773,4564.230957,4368.846191,4497.307617,4514.871582,4570.897461,4390.256348,4371.794922,4511.025879,4547.692383,4522.436035,4494.102539,4391.282227,4376.025879,4555.897461,4525.641113,4504.743652,4413.461426,4578.589844,4388.461426,4560.0,4513.846191,4415.256348,4524.615234,4515.641113,3054.0,1.0,20.0,2561.0,7931.0,,,,0.0,4.0,4.0,4.0,4.0,4.0,4.0,4.0,4.0,4.0,4.0,4.0,4.0,4.0,4.0,4.0,4.0,4.0,4.0,4.0,4.0,4.0,4.0,4.0,4.0,4.0,4.0,4.0,4.0,4.0,4.0,4.0,4.0,100.0,,,,,,,,,,,,,,,,,,,,,,,,,,,,,,,,,,,22036.0,0.0,0.598831,0.321411,0.287781,0.674744,0.997192,-0.117202,0.006348,30.5,-25.833334,-24.166666,,,,,,,,,,,,,,,,,,,,,,,,,,,,,,,,,,,,,,,,,,,,,,,,,,,,,,,,,,,,,,,,,,,,,,,,,,,,,,,,,,,,,,,,,,,,,,,,,,,,,,,,,,,,,,,,,,,,,,,,,,,,,,,,,,,,,,,,,,,,,,,,,,,,,,,,,,,,,,,,
1763974221.926422,22610.0,0.0,4398.717773,4399.358887,4512.307617,4537.692383,4406.410156,4525.384766,4536.666504,4394.615234,4566.153809,4377.692383,4491.922852,4515.0,4568.333496,4396.025879,4370.769043,4505.897461,4546.922852,4521.153809,4502.179688,4382.820313,4370.128418,4551.282227,4521.025879,4502.436035,4407.307617,4577.692383,4397.179688,4555.0,4511.538574,4416.794922,4525.512695,4513.717773,2830.0,1.0,20.0,2561.0,7939.0,,,,0.0,4.0,4.0,4.0,4.0,4.0,4.0,4.0,4.0,4.0,4.0,4.0,4.0,4.0,4.0,4.0,4.0,4.0,4.0,4.0,4.0,4.0,4.0,4.0,4.0,4.0,4.0,4.0,4.0,4.0,4.0,4.0,4.0,100.0,,,,,,,,,,,,,,,,,,,,,,,,,,,,,,,,,,,,,,,,,,,,,,,,,,,,,,,,,,,,,,,,,,,,,,,,,,,,,,,,,,,,,,,,,,,,,,,,,,,,,,,,,,,,,,,,,,,,,,,,,,,,,,,,,,,,,,,,,,,,,,,,,,,,,,,,,,,,,,,,,,,,,,,,,,,,,,,,,,,,,,,,,,,,,,,,,,,,,,,,,,,,,,
1763974221.930327,22611.0,0.0,4393.205078,4395.512695,4507.94873,4535.0,4402.05127,4522.307617,4532.179688,4390.256348,4566.538574,4392.692383,4488.974121,4512.94873,4565.641113,4394.871582,4370.0,4498.974121,4545.512695,4523.077148,4509.358887,4375.512695,4370.384766,4550.769043,4515.769043,4497.94873,4399.102539,4573.077148,4400.384766,4548.205078,4508.974121,4416.922852,4526.153809,4507.94873,3021.0,1.0,20.0,2561.0,7939.0,,,,0.0,4.0,4.0,4.0,4.0,4.0,4.0,4.0,4.0,4.0,4.0,4.0,4.0,4.0,4.0,4.0,4.0,4.0,4.0,4.0,4.0,4.0,4.0,4.0,4.0,4.0,4.0,4.0,4.0,4.0,4.0,4.0,4.0,100.0,,,,,,,,,,,,,,,,,,,,,,,,,,,,,,,,,,,,,,,,,,,,,,,,,,,,,,,,,,,,,,,,,,,,,,,,,,,,,,,,,,,,,,,,,,,,,,,,,,,,,,,,,,,,,,,,,,,,,,,,,,,,,,,,,,,,,,,,,,,,,,,,,,,,,,,,,,,,,,,,,,,,,,,,,,,,,,,,,,,,,,,,,,,,,,,,,,,,,,,,,,,,,,
1763974221.934233,22612.0,0.0,4386.922852,4391.153809,4508.461426,4528.461426,4397.179688,4518.974121,4529.615234,4383.589844,4565.512695,4408.846191,4491.025879,4511.282227,4565.769043,4388.461426,4369.615234,4495.641113,4545.512695,4529.102539,4514.230957,4374.230957,4376.922852,4556.666504,4513.077148,4495.512695,4395.512695,4568.205078,4398.461426,4543.589844,4506.538574,4414.615234,4526.794922,4503.717773,2985.0,1.0,20.0,2560.0,7947.0,,,,0.0,4.0,4.0,4.0,4.0,4.0,4.0,4.0,4.0,4.0,4.0,4.0,4.0,4.0,4.0,4.0,4.0,4.0,4.0,4.0,4.0,4.0,4.0,4.0,4.0,4.0,4.0,4.0,4.0,4.0,4.0,4.0,4.0,100.0,,,,,,,,,,,,,,,,,,,,,,,,,,,,,,,,,,,,,,,,,,,,,,,,,,,,,,,,,,,,,,,,,,,,,,,,,,,,,,,,,,,,,,,,,,,,,,,,,,,,,,,,,,,,,,,,,,,,,,,,,,,,,,,,,,,,,,,,,,,,,,,,,,,,,,,,,,,,,,,,,,,,,,,,,,,,,,,,,,,,,,,,,,,,,,,,,,,,,,,,,,,,,,
1763974221.938139,22613.0,0.0,4383.077148,4388.461426,4514.871582,4522.94873,4395.128418,4517.05127,4529.358887,4377.820313,4563.717773,4419.615234,4497.692383,4511.922852,4569.615234,4381.794922,4369.358887,4499.487305,4548.333496,4537.307617,4517.692383,4378.846191,4386.794922,4567.563965,4514.230957,4498.077148,4397.436035,4566.538574,4394.871582,4543.077148,4504.871582,4411.538574,4526.666504,4504.358887,2837.0,1.0,20.0,2560.0,7947.0,,,,0.0,4.0,4.0,4.0,4.0,4.0,4.0,4.0,4.0,4.0,4.0,4.0,4.0,4.0,4.0,4.0,4.0,4.0,4.0,4.0,4.0,4.0,4.0,4.0,4.0,4.0,4.0,4.0,4.0,4.0,4.0,4.0,4.0,100.0,,,,,,,,,,,,,,,,,,,,,,,,,,,,,,,,,,,22037.0,0.0,0.598922,0.32135,0.287659,0.674744,0.979612,-0.115248,0.00293,29.5,-25.666666,-24.333334,,,,,,,,,,,,,,,,,,,,,,,,,,,,,,,,,,,,,,,,,,,,,,,,,,,,,,,,,,,,,,,,,,,,,,,,,,,,,,,,,,,,,,,,,,,,,,,,,,,,,,,,,,,,,,,,,,,,,,,,,,,,,,,,,,,,,,,,,,,,,,,,,,,,,,,,,,,,,,,,
1763974221.942045,22614.0,0.0,4383.461426,4389.230957,4524.102539,4521.794922,4397.05127,4517.820313,4531.538574,4375.128418,4562.05127,4418.974121,4505.0,4515.384766,4575.0,4379.743652,4368.974121,4508.846191,4553.461426,4543.846191,4521.153809,4386.025879,4396.153809,4578.717773,4518.589844,4504.743652,4401.153809,4567.94873,4393.846191,4546.410156,4504.871582,4410.769043,4525.641113,4508.589844,2991.0,1.0,20.0,2048.0,7955.0,,,,0.0,4.0,4.0,4.0,4.0,4.0,4.0,4.0,4.0,4.0,4.0,4.0,4.0,4.0,4.0,4.0,4.0,4.0,4.0,4.0,4.0,4.0,4.0,4.0,4.0,4.0,4.0,4.0,4.0,4.0,4.0,4.0,4.0,100.0,,,,,,,,,,,,,,,,,,,,,,,,,,,,,,,,,,,,,,,,,,,,,,,,,,,,,,,,,,,,,,,,,,,,,,,,,,,,,,,,,,,,,,,,,,,,,,,,,,,,,,,,,,,,,,,,,,,,,,,,,,,,,,,,,,,,,,,,,,,,,,,,,,,,,,,,,,,,,,,,,,,,,,,,,,,,,,,,,,,,,,,,,,,,,,,,,,,,,,,,,,,,,,
1763974221.945951,22615.0,0.0,4386.922852,4392.94873,4530.769043,4524.230957,4401.282227,4521.025879,4535.384766,4376.153809,4561.025879,4404.615234,4509.102539,4520.0,4578.589844,4383.333496,4368.077148,4518.333496,4558.333496,4545.641113,4524.102539,4392.05127,4402.563965,4584.615234,4523.717773,4511.282227,4402.179688,4570.128418,4396.153809,4551.025879,4506.922852,4413.461426,4524.487305,4511.666504,2919.0,1.0,20.0,2048.0,7955.0,,,,0.0,4.0,4.0,4.0,4.0,4.0,4.0,4.0,4.0,4.0,4.0,4.0,4.0,4.0,4.0,4.0,4.0,4.0,4.0,4.0,4.0,4.0,4.0,4.0,4.0,4.0,4.0,4.0,4.0,4.0,4.0,4.0,4.0,100.0,,,,,,,,,,,,,,,,,,,,,,,,,,,,,,,,,,,,,,,,,,,,,,,,,,,,,,,,,,,,,,,,,,,,,,,,,,,,,,,,,,,,,,,,,,,,,,,,,,,,,,,,,,,,,,,,,,,,,,,,,,,,,,,,,,,,,,,,,,,,,,,,,,,,,,,,,,,,,,,,,,,,,,,,,,,,,,,,,,,,,,,,,,,,,,,,,,,,,,,,,,,,,,
1763974221.949856,22616.0,0.0,4390.897461,4397.436035,4531.153809,4527.179688,4405.384766,4524.615234,4539.743652,4379.487305,4561.025879,4382.05127,4508.333496,4522.692383,4578.717773,4389.743652,4367.307617,4521.922852,4560.384766,4542.692383,4524.871582,4395.769043,4406.025879,4583.333496,4527.05127,4513.205078,4399.102539,4570.769043,4398.846191,4554.102539,4510.0,4417.436035,4524.102539,4511.025879,2907.0,1.0,20.0,2304.0,7962.0,,,,0.0,4.0,4.0,4.0,4.0,4.0,4.0,4.0,4.0,4.0,4.0,4.0,4.0,4.0,4.0,4.0,4.0,4.0,4.0,4.0,4.0,4.0,4.0,4.0,4.0,4.0,4.0,4.0,4.0,4.0,4.0,4.0,4.0,100.0,,,,,,,,,,,,,,,,,,,,,,,,,,,,,,,,,,,,,,,,,,,,,,,,,,,,,,,,,,,,,,,,,,,,,,,,,,,,,,,,,,,,,,,,,,,,,,,,,,,,,,,,,,,,,,,,,,,,,,,,,,,,,,,,,,,,,,,,,,,,,,,,,,,,,,,,,,,,,,,,,,,,,,,,,,,,,,,,,,,,,,,,,,,,,,,,,,,,,,,,,,,,,,
1763974221.953762,22617.0,0.0,4392.820313,4399.615234,4524.871582,4527.94873,4407.94873,4526.410156,4542.94873,4382.692383,4561.794922,4364.871582,4503.846191,4521.538574,4576.794922,4395.0,4367.94873,4517.692383,4558.461426,4538.205078,4523.461426,4398.717773,4408.717773,4577.307617,4526.794922,4509.871582,4394.615234,4569.871582,4398.333496,4554.358887,4511.922852,4419.358887,4524.615234,4508.589844,2833.0,1.0,20.0,2304.0,7962.0,,,,0.0,4.0,4.0,4.0,4.0,4.0,4.0,4.0,4.0,4.0,4.0,4.0,4.0,4.0,4.0,4.0,4.0,4.0,4.0,4.0,4.0,4.0,4.0,4.0,4.0,4.0,4.0,4.0,4.0,4.0,4.0,4.0,4.0,100.0,,,,,,,,,,,,,,,,,,,,,,,,,,,,,,,,,,,22038.0,0.0,0.598945,0.321289,0.287537,0.674805,0.984984,-0.112807,-0.013185,29.5,-25.666666,-24.333334,,,,,,,,,,,,,,,,,,,,,,,,,,,,,,,,,,,,,,,,,,,,,,,,,,,,,,,,,,,,,,,,,,,,,,,,,,,,,,,,,,,,,,,,,,,,,,,,,,,,,,,,,,,,,,,,,,,,,,,,,,,,,,,,,,,,,,,,,,,,,,,,,,,,,,,,,,,,,,,,
1763974221.957668,22618.0,0.0,4391.282227,4398.717773,4515.0,4526.666504,4408.974121,4525.256348,4543.974121,4384.615234,4563.205078,4366.025879,4498.846191,4517.94873,4576.153809,4397.307617,4371.153809,4509.743652,4554.358887,4536.025879,4521.922852,4402.692383,4412.179688,4572.307617,4524.358887,4505.512695,4394.487305,4569.743652,4394.487305,4552.94873,4511.666504,4418.333496,4525.897461,4507.692383,2777.0,1.0,20.0,2560.0,7970.0,,,,0.0,4.0,4.0,4.0,4.0,4.0,4.0,4.0,4.0,4.0,4.0,4.0,4.0,4.0,4.0,4.0,4.0,4.0,4.0,4.0,4.0,4.0,4.0,4.0,4.0,4.0,4.0,4.0,4.0,4.0,4.0,4.0,4.0,100.0,,,,,,,,,,,,,,,,,,,,,,,,,,,,,,,,,,,,,,,,,,,,,,,,,,,,,,,,,,,,,,,,,,,,,,,,,,,,,,,,,,,,,,,,,,,,,,,,,,,,,,,,,,,,,,,,,,,,,,,,,,,,,,,,,,,,,,,,,,,,,,,,,,,,,,,,,,,,,,,,,,,,,,,,,,,,,,,,,,,,,,,,,,,,,,,,,,,,,,,,,,,,,,
1763974221.961574,22619.0,0.0,4387.94873,4396.153809,4506.666504,4526.153809,4409.358887,4522.436035,4543.717773,4385.897461,4565.512695,4386.922852,4497.307617,4515.256348,4579.102539,4398.077148,4377.05127,4504.230957,4552.05127,4538.461426,4522.692383,4407.05127,4416.410156,4572.820313,4522.692383,4505.641113,4403.077148,4574.102539,4390.897461,4552.563965,4509.615234,4415.384766,4528.717773,4510.0,3015.0,1.0,20.0,2560.0,7970.0,,,,0.0,4.0,4.0,4.0,4.0,4.0,4.0,4.0,4.0,4.0,4.0,4.0,4.0,4.0,4.0,4.0,4.0,4.0,4.0,4.0,4.0,4.0,4.0,4.0,4.0,4.0,4.0,4.0,4.0,4.0,4.0,4.0,4.0,100.0,,,,,,,,,,,,,,,,,,,,,,,,,,,,,,,,,,,,,,,,,,,,,,,,,,,,,,,,,,,,,,,,,,,,,,,,,,,,,,,,,,,,,,,,,,,,,,,,,,,,,,,,,,,,,,,,,,,,,,,,,,,,,,,,,,,,,,,,,,,,,,,,,,,,,,,,,,,,,,,,,,,,,,,,,,,,,,,,,,,,,,,,,,,,,,,,,,,,,,,,,,,,,,
1763974221.965479,22620.0,0.0,4384.871582,4394.487305,4503.333496,4528.333496,4409.487305,4520.128418,4543.717773,4388.077148,4568.974121,4412.820313,4500.256348,4515.769043,4584.743652,4399.358887,4383.589844,4505.0,4553.205078,4543.461426,4525.0,4409.487305,4419.102539,4579.230957,4523.974121,4511.794922,4419.230957,4584.230957,4391.153809,4554.487305,4506.794922,4412.692383,4533.589844,4513.717773,2960.0,1.0,20.0,2560.0,7978.0,,,,0.0,4.0,4.0,4.0,4.0,4.0,4.0,4.0,4.0,4.0,4.0,4.0,4.0,4.0,4.0,4.0,4.0,4.0,4.0,4.0,4.0,4.0,4.0,4.0,4.0,4.0,4.0,4.0,4.0,4.0,4.0,4.0,4.0,100.0,,,,,,,,,,,,,,,,,,,,,,,,,,,,,,,,,,,,,,,,,,,,,,,,,,,,,,,,,,,,,,,,,,,,,,,,,,,,,,,,,,,,,,,,,,,,,,,,,,,,,,,,,,,,,,,,,,,,,,,,,,,,,,,,,,,,,,,,,,,,,,,,,,,,,,,,,,,,,,,,,,,,,,,,,,,,,,,,,,,,,,,,,,,,,,,,,,,,,,,,,,,,,,
1763974221.969385,22621.0,0.0,4383.333496,4394.743652,4505.641113,4532.179688,4408.974121,4519.743652,4544.615234,4391.153809,4572.820313,4423.717773,4505.0,4518.461426,4589.102539,4400.641113,4387.692383,4510.384766,4555.897461,4546.153809,4524.487305,4407.692383,4417.05127,4586.410156,4526.538574,4520.128418,4434.615234,4596.282227,4395.128418,4557.436035,4504.743652,4411.794922,4539.102539,4516.282227,2794.0,1.0,20.0,2560.0,7978.0,,,,0.0,4.0,4.0,4.0,4.0,4.0,4.0,4.0,4.0,4.0,4.0,4.0,4.0,4.0,4.0,4.0,4.0,4.0,4.0,4.0,4.0,4.0,4.0,4.0,4.0,4.0,4.0,4.0,4.0,4.0,4.0,4.0,4.0,100.0,,,,,,,,,,,,,,,,,,,,,,,,,,,,,,,,,,,22039.0,0.0,0.598896,0.321655,0.287659,0.674622,0.980588,-0.12355,-0.005372,28.333334,-26.333334,-22.666666,,,,,,,,,,,,,,,,,,,,,,,,,,,,,,,,,,,,,,,,,,,,,,,,,,,,,,,,,,,,,,,,,,,,,,,,,,,,,,,,,,,,,,,,,,,,,,,,,,,,,,,,,,,,,,,,,,,,,,,,,,,,,,,,,,,,,,,,,,,,,,,,,,,,,,,,,,,,,,,,
1763974221.973291,22622.0,0.0,4382.436035,4396.410156,4511.025879,4534.615234,4407.05127,4520.769043,4545.512695,4393.589844,4574.871582,4410.128418,4507.307617,4520.128418,4588.205078,4399.487305,4386.410156,4515.512695,4555.897461,4542.94873,4518.205078,4401.666504,4410.0,4588.333496,4526.794922,4524.487305,4438.974121,4603.589844,4398.461426,4558.717773,4504.615234,4412.563965,4542.05127,4516.410156,3005.0,1.0,20.0,2561.0,7986.0,,,,0.0,4.0,4.0,4.0,4.0,4.0,4.0,4.0,4.0,4.0,4.0,4.0,4.0,4.0,4.0,4.0,4.0,4.0,4.0,4.0,4.0,4.0,4.0,4.0,4.0,4.0,4.0,4.0,4.0,4.0,4.0,4.0,4.0,100.0,,,,,,,,,,,,,,,,,,,,,,,,,,,,,,,,,,,,,,,,,,,,,,,,,,,,,,,,,,,,,,,,,,,,,,,,,,,,,,,,,,,,,,,,,,,,,,,,,,,,,,,,,,,,,,,,,,,,,,,,,,,,,,,,,,,,,,,,,,,,,,,,,,,,,,,,,,,,,,,,,,,,,,,,,,,,,,,,,,,,,,,,,,,,,,,,,,,,,,,,,,,,,,
1763974221.977197,22623.0,0.0,4380.769043,4397.94873,4515.641113,4533.205078,4403.461426,4522.05127,4544.871582,4392.820313,4573.205078,4382.05127,4504.487305,4518.461426,4581.282227,4394.615234,4379.615234,4516.282227,4550.897461,4534.871582,4508.589844,4393.846191,4401.025879,4582.436035,4522.563965,4521.666504,4428.205078,4601.025879,4396.538574,4557.05127,4506.153809,4413.077148,4539.358887,4513.846191,2910.0,1.0,20.0,2561.0,7986.0,,,,0.0,4.0,4.0,4.0,4.0,4.0,4.0,4.0,4.0,4.0,4.0,4.0,4.0,4.0,4.0,4.0,4.0,4.0,4.0,4.0,4.0,4.0,4.0,4.0,4.0,4.0,4.0,4.0,4.0,4.0,4.0,4.0,4.0,100.0,,,,,,,,,,,,,,,,,,,,,,,,,,,,,,,,,,,,,,,,,,,,,,,,,,,,,,,,,,,,,,,,,,,,,,,,,,,,,,,,,,,,,,,,,,,,,,,,,,,,,,,,,,,,,,,,,,,,,,,,,,,,,,,,,,,,,,,,,,,,,,,,,,,,,,,,,,,,,,,,,,,,,,,,,,,,,,,,,,,,,,,,,,,,,,,,,,,,,,,,,,,,,,
1763974221.981103,22624.0,0.0,4378.205078,4397.307617,4517.05127,4528.205078,4399.230957,4521.922852,4541.794922,4388.333496,4567.692383,4359.743652,4497.563965,4513.333496,4571.025879,4387.563965,4369.743652,4512.307617,4541.922852,4526.282227,4501.025879,4387.05127,4393.974121,4571.538574,4515.256348,4513.205078,4409.487305,4589.871582,4388.589844,4553.717773,4507.820313,4410.897461,4531.666504,4508.846191,2812.0,1.0,20.0,2562.0,7994.0,,,,0.0,4.0,4.0,4.0,4.0,4.0,4.0,4.0,4.0,4.0,4.0,4.0,4.0,4.0,4.0,4.0,4.0,4.0,4.0,4.0,4.0,4.0,4.0,4.0,4.0,4.0,4.0,4.0,4.0,4.0,4.0,4.0,4.0,100.0,,,,,,,,,,,,,,,,,,,,,,,,,,,,,,,,,,,,,,,,,,,,,,,,,,,,,,,,,,,,,,,,,,,,,,,,,,,,,,,,,,,,,,,,,,,,,,,,,,,,,,,,,,,,,,,,,,,,,,,,,,,,,,,,,,,,,,,,,,,,,,,,,,,,,,,,,,,,,,,,,,,,,,,,,,,,,,,,,,,,,,,,,,,,,,,,,,,,,,,,,,,,,,
1763974221.985008,22625.0,0.0,4375.897461,4393.846191,4515.641113,4522.820313,4395.641113,4519.871582,4537.436035,4382.05127,4560.897461,4357.436035,4490.512695,4506.922852,4561.794922,4382.436035,4360.512695,4505.256348,4532.94873,4521.025879,4499.743652,4383.461426,4390.897461,4561.153809,4508.589844,4503.974121,4396.410156,4576.666504,4379.102539,4551.153809,4507.820313,4405.641113,4522.94873,4501.794922,2897.0,1.0,20.0,2562.0,7994.0,,,,0.0,4.0,4.0,4.0,4.0,4.0,4.0,4.0,4.0,4.0,4.0,4.0,4.0,4.0,4.0,4.0,4.0,4.0,4.0,4.0,4.0,4.0,4.0,4.0,4.0,4.0,4.0,4.0,4.0,4.0,4.0,4.0,4.0,100.0,,,,,,,,,,,,,,,,,,,,,,,,,,,,,,,,,,,22040.0,0.0,0.598896,0.321655,0.287659,0.674622,0.995239,-0.113783,-0.007813,29.5,-28.0,-22.666666,,,,,,,,,,,,,,,,,,,,,,,,,,,,,,,,,,,,,,,,,,,,,,,,,,,,,,,,,,,,,,,,,,,,,,,,,,,,,,,,,,,,,,,,,,,,,,,,,,,,,,,,,,,,,,,,,,,,,,,,,,,,,,,,,,,,,,,,,,,,,,,,,,,,,,,,,,,,,,,,
1763974221.988914,22626.0,0.0,4375.256348,4389.102539,4512.820313,4519.871582,4394.102539,4516.666504,4533.846191,4377.179688,4556.794922,4373.333496,4486.410156,4502.179688,4557.307617,4382.179688,4355.0,4498.333496,4527.692383,4520.512695,4503.974121,4383.205078,4390.897461,4555.128418,4505.641113,4497.94873,4397.820313,4568.717773,4373.974121,4550.0,4504.615234,4399.487305,4517.436035,4494.487305,2246.0,1.0,20.0,2563.0,8002.0,,,,0.0,4.0,4.0,4.0,4.0,4.0,4.0,4.0,4.0,4.0,4.0,4.0,4.0,4.0,4.0,4.0,4.0,4.0,4.0,4.0,4.0,4.0,4.0,4.0,4.0,4.0,4.0,4.0,4.0,4.0,4.0,4.0,4.0,100.0,,,,,,,,,,,,,,,,,,,,,,,,,,,,,,,,,,,,,,,,,,,,,,,,,,,,,,,,,,,,,,,,,,,,,,,,,,,,,,,,,,,,,,,,,,,,,,,,,,,,,,,,,,,,,,,,,,,,,,,,,,,,,,,,,,,,,,,,,,,,,,,,,,,,,,,,,,,,,,,,,,,,,,,,,,,,,,,,,,,,,,,,,,,,,,,,,,,,,,,,,,,,,,
1763974221.99282,22627.0,0.0,4376.666504,4385.897461,4509.871582,4520.769043,4395.256348,4514.871582,4533.077148,4376.794922,4557.820313,4393.461426,4486.666504,4501.282227,4558.974121,4386.153809,4354.230957,4494.230957,4527.692383,4523.461426,4509.615234,4384.358887,4392.307617,4553.717773,4506.153809,4496.025879,4409.743652,4568.333496,4375.897461,4548.589844,4498.846191,4395.384766,4517.436035,4489.487305,2940.0,1.0,20.0,2563.0,8002.0,,,,0.0,4.0,4.0,4.0,4.0,4.0,4.0,4.0,4.0,4.0,4.0,4.0,4.0,4.0,4.0,4.0,4.0,4.0,4.0,4.0,4.0,4.0,4.0,4.0,4.0,4.0,4.0,4.0,4.0,4.0,4.0,4.0,4.0,100.0,,,,,,,,,,,,,,,,,,,,,,,,,,,,,,,,,,,,,,,,,,,,,,,,,,,,,,,,,,,,,,,,,,,,,,,,,,,,,,,,,,,,,,,,,,,,,,,,,,,,,,,,,,,,,,,,,,,,,,,,,,,,,,,,,,,,,,,,,,,,,,,,,,,,,,,,,,,,,,,,,,,,,,,,,,,,,,,,,,,,,,,,,,,,,,,,,,,,,,,,,,,,,,
1763974221.996726,22628.0,0.0,4379.230957,4386.282227,4507.820313,4523.846191,4398.461426,4516.153809,4535.641113,4380.641113,4562.692383,4403.333496,4490.256348,4504.230957,4565.512695,4391.025879,4356.538574,4493.589844,4531.538574,4527.436035,4513.077148,4383.974121,4393.589844,4554.871582,4508.333496,4496.410156,4418.846191,4571.794922,4382.436035,4545.0,4492.94873,4394.358887,4521.025879,4489.230957,2838.0,1.0,20.0,2564.0,8009.0,,,,0.0,4.0,4.0,4.0,4.0,4.0,4.0,4.0,4.0,4.0,4.0,4.0,4.0,4.0,4.0,4.0,4.0,4.0,4.0,4.0,4.0,4.0,4.0,4.0,4.0,4.0,4.0,4.0,4.0,4.0,4.0,4.0,4.0,100.0,,,,,,,,,,,,,,,,,,,,,,,,,,,,,,,,,,,,,,,,,,,,,,,,,,,,,,,,,,,,,,,,,,,,,,,,,,,,,,,,,,,,,,,,,,,,,,,,,,,,,,,,,,,,,,,,,,,,,,,,,,,,,,,,,,,,,,,,,,,,,,,,,,,,,,,,,,,,,,,,,,,,,,,,,,,,,,,,,,,,,,,,,,,,,,,,,,,,,,,,,,,,,,
1763974222.000631,22629.0,0.0,4381.538574,4389.615234,4506.282227,4526.794922,4401.538574,4519.615234,4540.0,4385.256348,4567.307617,4398.589844,4495.256348,4509.230957,4573.077148,4392.563965,4358.589844,4495.256348,4536.153809,4529.102539,4512.820313,4379.743652,4393.846191,4556.410156,4509.743652,4496.153809,4413.333496,4572.307617,4388.205078,4540.641113,4489.743652,4395.512695,4524.102539,4493.077148,2365.0,1.0,20.0,2564.0,8009.0,,,,0.0,4.0,4.0,4.0,4.0,4.0,4.0,4.0,4.0,4.0,4.0,4.0,4.0,4.0,4.0,4.0,4.0,4.0,4.0,4.0,4.0,4.0,4.0,4.0,4.0,4.0,4.0,4.0,4.0,4.0,4.0,4.0,4.0,100.0,,,,,,,,,,,,,,,,,,,,,,,,,,,,,,,,,,,22041.0,0.0,0.598752,0.32196,0.287903,0.6745,1.000122,-0.122085,-0.009767,29.833334,-25.833334,-23.333334,,,,,,,,,,,,,,,,,,,,,,,,,,,,,,,,,,,,,,,,,,,,,,,,,,,,,,,,,,,,,,,,,,,,,,,,,,,,,,,,,,,,,,,,,,,,,,,,,,,,,,,,,,,,,,,,,,,,,,,,,,,,,,,,,,,,,,,,,,,,,,,,,,,,,,,,,,,,,,,,
1763974222.004537,22630.0,0.0,4382.692383,4392.820313,4504.102539,4527.94873,4402.820313,4522.05127,4542.692383,4386.538574,4568.333496,4385.897461,4499.102539,4512.820313,4577.436035,4389.743652,4358.205078,4497.307617,4538.333496,4526.025879,4508.846191,4371.922852,4392.692383,4556.794922,4509.615234,4493.333496,4393.846191,4566.922852,4389.743652,4538.077148,4490.128418,4397.436035,4523.077148,4498.333496,2934.0,1.0,20.0,2564.0,8017.0,,,,0.0,4.0,4.0,4.0,4.0,4.0,4.0,4.0,4.0,4.0,4.0,4.0,4.0,4.0,4.0,4.0,4.0,4.0,4.0,4.0,4.0,4.0,4.0,4.0,4.0,4.0,4.0,4.0,4.0,4.0,4.0,4.0,4.0,100.0,,,,,,,,,,,,,,,,,,,,,,,,,,,,,,,,,,,,,,,,,,,,,,,,,,,,,,,,,,,,,,,,,,,,,,,,,,,,,,,,,,,,,,,,,,,,,,,,,,,,,,,,,,,,,,,,,,,,,,,,,,,,,,,,,,,,,,,,,,,,,,,,,,,,,,,,,,,,,,,,,,,,,,,,,,,,,,,,,,,,,,,,,,,,,,,,,,,,,,,,,,,,,,
1763974222.008443,22631.0,0.0,4382.436035,4392.820313,4500.256348,4526.794922,4401.282227,4521.410156,4540.897461,4382.05127,4565.641113,4377.307617,4500.0,4512.692383,4575.897461,4384.102539,4356.153809,4498.589844,4536.922852,4518.846191,4502.307617,4364.230957,4389.487305,4554.871582,4508.333496,4488.333496,4372.436035,4558.077148,4387.307617,4538.461426,4492.94873,4398.846191,4517.179688,4501.538574,2947.0,1.0,20.0,2564.0,8017.0,,,,0.0,4.0,4.0,4.0,4.0,4.0,4.0,4.0,4.0,4.0,4.0,4.0,4.0,4.0,4.0,4.0,4.0,4.0,4.0,4.0,4.0,4.0,4.0,4.0,4.0,4.0,4.0,4.0,4.0,4.0,4.0,4.0,4.0,100.0,,,,,,,,,,,,,,,,,,,,,,,,,,,,,,,,,,,,,,,,,,,,,,,,,,,,,,,,,,,,,,,,,,,,,,,,,,,,,,,,,,,,,,,,,,,,,,,,,,,,,,,,,,,,,,,,,,,,,,,,,,,,,,,,,,,,,,,,,,,,,,,,,,,,,,,,,,,,,,,,,,,,,,,,,,,,,,,,,,,,,,,,,,,,,,,,,,,,,,,,,,,,,,
1763974222.012349,22632.0,0.0,4380.897461,4388.717773,4495.256348,4524.487305,4398.333496,4517.563965,4534.102539,4373.077148,4561.794922,4380.769043,4496.922852,4508.333496,4568.589844,4379.230957,4355.128418,4500.256348,4533.205078,4511.538574,4495.128418,4361.153809,4384.102539,4550.384766,4506.282227,4483.333496,4362.820313,4551.410156,4383.717773,4539.487305,4495.512695,4398.974121,4509.487305,4500.641113,2670.0,1.0,20.0,2564.0,8025.0,,,,0.0,4.0,4.0,4.0,4.0,4.0,4.0,4.0,4.0,4.0,4.0,4.0,4.0,4.0,4.0,4.0,4.0,4.0,4.0,4.0,4.0,4.0,4.0,4.0,4.0,4.0,4.0,4.0,4.0,4.0,4.0,4.0,4.0,100.0,,,,,,,,,,,,,,,,,,,,,,,,,,,,,,,,,,,,,,,,,,,,,,,,,,,,,,,,,,,,,,,,,,,,,,,,,,,,,,,,,,,,,,,,,,,,,,,,,,,,,,,,,,,,,,,,,,,,,,,,,,,,,,,,,,,,,,,,,,,,,,,,,,,,,,,,,,,,,,,,,,,,,,,,,,,,,,,,,,,,,,,,,,,,,,,,,,,,,,,,,,,,,,
1763974222.016254,22633.0,0.0,4378.333496,4382.563965,4491.282227,4522.179688,4395.384766,4513.205078,4525.384766,4363.974121,4559.487305,4393.589844,4491.153809,4501.282227,4558.974121,4378.077148,4356.922852,4502.94873,4529.230957,4508.461426,4489.358887,4364.102539,4377.692383,4544.358887,4504.487305,4480.897461,4370.256348,4550.641113,4381.153809,4537.820313,4495.384766,4396.794922,4504.871582,4496.153809,2836.0,1.0,20.0,2564.0,8025.0,,,,0.0,4.0,4.0,4.0,4.0,4.0,4.0,4.0,4.0,4.0,4.0,4.0,4.0,4.0,4.0,4.0,4.0,4.0,4.0,4.0,4.0,4.0,4.0,4.0,4.0,4.0,4.0,4.0,4.0,4.0,4.0,4.0,4.0,100.0,,,,,,,,,,,,,,,,,,,,,,,,,,,,,,,,,,,22042.0,0.0,0.598605,0.322144,0.288147,0.674438,1.009401,-0.118667,0.0,29.166666,-27.666666,-22.666666,,,,,,,,,,,,,,,,,,,,,,,,,,,,,,,,,,,,,,,,,,,,,,,,,,,,,,,,,,,,,,,,,,,,,,,,,,,,,,,,,,,,,,,,,,,,,,,,,,,,,,,,,,,,,,,,,,,,,,,,,,,,,,,,,,,,,,,,,,,,,,,,,,,,,,,,,,,,,,,,
1763974222.02016,22634.0,0.0,4375.769043,4378.077148,4489.871582,4520.256348,4393.974121,4510.769043,4519.102539,4359.615234,4559.743652,4406.153809,4485.897461,4495.384766,4552.307617,4381.410156,4360.512695,4505.641113,4526.538574,4510.769043,4486.538574,4370.128418,4371.282227,4538.974121,4503.333496,4481.794922,4389.102539,4555.384766,4379.487305,4532.820313,4492.179688,4391.922852,4505.512695,4490.384766,2652.0,1.0,20.0,2565.0,8033.0,,,,0.0,4.0,4.0,4.0,4.0,4.0,4.0,4.0,4.0,4.0,4.0,4.0,4.0,4.0,4.0,4.0,4.0,4.0,4.0,4.0,4.0,4.0,4.0,4.0,4.0,4.0,4.0,4.0,4.0,4.0,4.0,4.0,4.0,100.0,,,,,,,,,,,,,,,,,,,,,,,,,,,,,,,,,,,,,,,,,,,,,,,,,,,,,,,,,,,,,,,,,,,,,,,,,,,,,,,,,,,,,,,,,,,,,,,,,,,,,,,,,,,,,,,,,,,,,,,,,,,,,,,,,,,,,,,,,,,,,,,,,,,,,,,,,,,,,,,,,,,,,,,,,,,,,,,,,,,,,,,,,,,,,,,,,,,,,,,,,,,,,,
1763974222.024066,22635.0,0.0,4374.487305,4378.333496,4490.641113,4519.358887,4393.974121,4511.282227,4518.205078,4362.436035,4561.410156,4408.461426,4484.487305,4494.358887,4552.563965,4386.922852,4362.94873,4505.384766,4526.282227,4515.641113,4487.307617,4373.974121,4366.410156,4536.666504,4503.333496,4485.384766,4407.820313,4561.025879,4377.692383,4527.05127,4488.461426,4386.794922,4509.615234,4486.282227,2980.0,1.0,20.0,2565.0,8033.0,,,,0.0,4.0,4.0,4.0,4.0,4.0,4.0,4.0,4.0,4.0,4.0,4.0,4.0,4.0,4.0,4.0,4.0,4.0,4.0,4.0,4.0,4.0,4.0,4.0,4.0,4.0,4.0,4.0,4.0,4.0,4.0,4.0,4.0,100.0,,,,,,,,,,,,,,,,,,,,,,,,,,,,,,,,,,,,,,,,,,,,,,,,,,,,,,,,,,,,,,,,,,,,,,,,,,,,,,,,,,,,,,,,,,,,,,,,,,,,,,,,,,,,,,,,,,,,,,,,,,,,,,,,,,,,,,,,,,,,,,,,,,,,,,,,,,,,,,,,,,,,,,,,,,,,,,,,,,,,,,,,,,,,,,,,,,,,,,,,,,,,,,
1763974222.027972,22636.0,0.0,4376.153809,4383.846191,4491.025879,4520.128418,4395.128418,4513.846191,4523.333496,4371.282227,4562.692383,4397.436035,4487.820313,4499.230957,4559.615234,4391.410156,4362.179688,4500.512695,4528.717773,4519.102539,4492.94873,4373.077148,4365.512695,4539.230957,4504.358887,4490.128418,4417.307617,4563.077148,4375.641113,4524.487305,4487.94873,4385.897461,4511.794922,4487.307617,2935.0,1.0,20.0,2565.0,8041.0,,,,0.0,4.0,4.0,4.0,4.0,4.0,4.0,4.0,4.0,4.0,4.0,4.0,4.0,4.0,4.0,4.0,4.0,4.0,4.0,4.0,4.0,4.0,4.0,4.0,4.0,4.0,4.0,4.0,4.0,4.0,4.0,4.0,4.0,100.0,,,,,,,,,,,,,,,,,,,,,,,,,,,,,,,,,,,,,,,,,,,,,,,,,,,,,,,,,,,,,,,,,,,,,,,,,,,,,,,,,,,,,,,,,,,,,,,,,,,,,,,,,,,,,,,,,,,,,,,,,,,,,,,,,,,,,,,,,,,,,,,,,,,,,,,,,,,,,,,,,,,,,,,,,,,,,,,,,,,,,,,,,,,,,,,,,,,,,,,,,,,,,,
1763974222.031878,22637.0,0.0,4381.025879,4391.794922,4490.0,4523.077148,4396.666504,4517.179688,4532.692383,4381.410156,4563.461426,4378.333496,4493.461426,4508.333496,4569.230957,4393.077148,4359.230957,4494.230957,4533.333496,4520.384766,4503.077148,4368.717773,4370.256348,4545.897461,4506.282227,4493.717773,4415.897461,4560.384766,4373.717773,4527.436035,4492.692383,4391.666504,4508.974121,4493.461426,2785.0,1.0,20.0,2565.0,8041.0,,,,0.0,4.0,4.0,4.0,4.0,4.0,4.0,4.0,4.0,4.0,4.0,4.0,4.0,4.0,4.0,4.0,4.0,4.0,4.0,4.0,4.0,4.0,4.0,4.0,4.0,4.0,4.0,4.0,4.0,4.0,4.0,4.0,4.0,100.0,,,,,,,,,,,,,,,,,,,,,,,,,,,,,,,,,,,22043.0,0.0,0.598523,0.322388,0.28833,0.674316,1.009401,-0.118667,0.0,30.333334,-26.833334,-22.666666,,,,,,,,,,,,,,,,,,,,,,,,,,,,,,,,,,,,,,,,,,,,,,,,,,,,,,,,,,,,,,,,,,,,,,,,,,,,,,,,,,,,,,,,,,,,,,,,,,,,,,,,,,,,,,,,,,,,,,,,,,,,,,,,,,,,,,,,,,,,,,,,,,,,,,,,,,,,,,,,
1763974222.035783,22638.0,0.0,4387.179688,4397.563965,4489.871582,4528.333496,4398.077148,4519.743652,4542.307617,4388.333496,4564.871582,4361.282227,4497.563965,4517.436035,4576.025879,4392.563965,4357.563965,4492.05127,4538.974121,4522.05127,4513.461426,4365.256348,4379.743652,4553.461426,4508.717773,4493.974121,4407.563965,4556.153809,4371.794922,4533.846191,4500.512695,4400.641113,4502.820313,4501.025879,2732.0,1.0,20.0,2563.0,8048.0,,,,0.0,4.0,4.0,4.0,4.0,4.0,4.0,4.0,4.0,4.0,4.0,4.0,4.0,4.0,4.0,4.0,4.0,4.0,4.0,4.0,4.0,4.0,4.0,4.0,4.0,4.0,4.0,4.0,4.0,4.0,4.0,4.0,4.0,100.0,,,,,,,,,,,,,,,,,,,,,,,,,,,,,,,,,,,,,,,,,,,,,,,1.762418,2.050039,1.345338,0.802417,0.855892,1.323845,3.003566,2.070307,0.716552,0.794602,0.425166,3.196889,1.418078,1.03269,1.269284,0.421782,2.304129,1.224393,0.71785,1.035594,0.573922,1.295198,0.656662,0.559742,0.494544,0.73523,1.425372,0.594358,0.451101,0.369164,1.481372,2.674365,0.969793,0.692542,0.581567,0.601045,2.306235,1.030978,0.854636,0.779851,0.73629,1.353147,0.968528,0.529187,0.693012,1.009814,2.427979,1.714941,5.062822,3.443954,0.753034,2.669225,0.76202,1.013171,0.779022,1.244739,1.916094,1.059348,0.61122,0.78553,0.826259,1.67689,0.906472,0.79451,0.676731,0.410219,0.99969,0.84502,1.206239,1.141929,0.393388,1.212478,0.646214,0.605372,0.592781,0.264648,1.071843,1.251479,1.025131,1.057037,1.022398,2.352838,0.933665,0.597467,0.64451,0.475568,1.943797,1.824796,1.081703,1.695257,0.953739,3.05386,3.451554,1.282193,2.819613,0.637745,2.486995,1.110847,0.819745,1.299217,1.18989,3.322099,1.750563,1.230146,1.265288,1.284415,2.472265,1.543493,0.997535,1.365182,1.247631,2.132433,1.324657,0.821943,0.923239,0.75782,2.221694,1.147532,0.968213,1.121618,1.03149,1.868716,1.567049,2.464742,1.895482,0.720612,3.18547,0.88237,0.693844,0.779008,1.104709,2.633709,2.199744,1.252857,1.930073,1.080367,2.734152,1.475598,0.858189,1.38441,1.549939,2.638814,2.007532,1.049044,1.086222,0.958065,2.79254,2.760878,0.964811,1.333486,0.950642,3.76916,1.474937,0.753123,1.422813,0.60707,4.294211,3.529168,1.687927,1.527934
1763974222.039689,22639.0,0.0,4391.282227,4397.436035,4493.461426,4534.743652,4398.589844,4520.256348,4548.974121,4389.358887,4568.461426,4355.897461,4497.94873,4522.436035,4577.307617,4391.282227,4359.487305,4497.692383,4543.205078,4525.256348,4517.307617,4366.666504,4389.615234,4557.307617,4510.512695,4490.256348,4398.333496,4554.743652,4369.102539,4539.487305,4506.410156,4405.0,4499.358887,4503.846191,2805.0,1.0,20.0,2563.0,8048.0,,,,0.0,4.0,4.0,4.0,4.0,4.0,4.0,4.0,4.0,4.0,4.0,4.0,4.0,4.0,4.0,4.0,4.0,4.0,4.0,4.0,4.0,4.0,4.0,4.0,4.0,4.0,4.0,4.0,4.0,4.0,4.0,4.0,4.0,100.0,,,,,,,,,,,,,,,,,,,,,,,,,,,,,,,,,,,,,,,,,,,,,,,,,,,,,,,,,,,,,,,,,,,,,,,,,,,,,,,,,,,,,,,,,,,,,,,,,,,,,,,,,,,,,,,,,,,,,,,,,,,,,,,,,,,,,,,,,,,,,,,,,,,,,,,,,,,,,,,,,,,,,,,,,,,,,,,,,,,,,,,,,,,,,,,,,,,,,,,,,,,,,,
1763974222.043595,22640.0,0.0,4391.025879,4391.538574,4500.512695,4540.769043,4398.205078,4518.461426,4550.641113,4385.384766,4573.974121,4366.153809,4495.384766,4521.282227,4573.974121,4389.615234,4363.974121,4508.589844,4544.102539,4528.846191,4510.256348,4372.94873,4394.615234,4554.871582,4510.512695,4484.871582,4392.307617,4559.102539,4364.358887,4540.512695,4506.282227,4399.487305,4503.461426,4498.846191,2912.0,1.0,20.0,2562.0,8057.0,,,,0.0,4.0,4.0,4.0,4.0,4.0,4.0,4.0,4.0,4.0,4.0,4.0,4.0,4.0,4.0,4.0,4.0,4.0,4.0,4.0,4.0,4.0,4.0,4.0,4.0,4.0,4.0,4.0,4.0,4.0,4.0,4.0,4.0,100.0,,,,,,,,,,,,,,,,,,,,,,,,,,,,,,,,,,,,,,,,,,,,,,,,,,,,,,,,,,,,,,,,,,,,,,,,,,,,,,,,,,,,,,,,,,,,,,,,,,,,,,,,,,,,,,,,,,,,,,,,,,,,,,,,,,,,,,,,,,,,,,,,,,,,,,,,,,,,,,,,,,,,,,,,,,,,,,,,,,,,,,,,,,,,,,,,,,,,,,,,,,,,,,
1763974222.047501,22641.0,0.0,4386.666504,4383.205078,4506.538574,4544.487305,4397.436035,4514.871582,4548.077148,4379.871582,4579.102539,4388.333496,4492.563965,4515.512695,4570.0,4388.077148,4368.333496,4517.692383,4541.282227,4529.743652,4495.512695,4380.128418,4392.179688,4548.205078,4508.461426,4481.410156,4389.871582,4567.307617,4359.230957,4537.179688,4500.128418,4386.666504,4513.974121,4487.820313,3066.0,1.0,20.0,2562.0,8057.0,,,,0.0,4.0,4.0,4.0,4.0,4.0,4.0,4.0,4.0,4.0,4.0,4.0,4.0,4.0,4.0,4.0,4.0,4.0,4.0,4.0,4.0,4.0,4.0,4.0,4.0,4.0,4.0,4.0,4.0,4.0,4.0,4.0,4.0,100.0,,,,,,,,,,,,,,,,,,,,,,,,,,,,,,,,,,,22044.0,0.0,0.59846,0.322449,0.288391,0.674316,0.982053,-0.107923,0.01465,28.5,-25.0,-25.0,,,,,,,,,,,,,,,,,,,,,,,,,,,,,,,,,,,,,,,,,,,,,,,,,,,,,,,,,,,,,,,,,,,,,,,,,,,,,,,,,,,,,,,,,,,,,,,,,,,,,,,,,,,,,,,,,,,,,,,,,,,,,,,,,,,,,,,,,,,,,,,,,,,,,,,,,,,,,,,,
1763974222.051406,22642.0,0.0,4380.897461,4377.563965,4506.922852,4544.230957,4397.05127,4511.410156,4543.333496,4375.897461,4580.641113,4411.666504,4491.410156,4508.974121,4568.077148,4387.94873,4370.641113,4519.487305,4537.05127,4526.794922,4482.05127,4384.102539,4384.230957,4541.794922,4506.025879,4482.307617,4389.615234,4574.487305,4357.05127,4533.205078,4492.05127,4375.384766,4524.615234,4476.922852,2819.0,1.0,20.0,2561.0,8064.0,,,,0.0,4.0,4.0,4.0,4.0,4.0,4.0,4.0,4.0,4.0,4.0,4.0,4.0,4.0,4.0,4.0,4.0,4.0,4.0,4.0,4.0,4.0,4.0,4.0,4.0,4.0,4.0,4.0,4.0,4.0,4.0,4.0,4.0,100.0,,,,,,,,,,,,,,,,,,,,,,,,,,,,,,,,,,,,,,,,,,,,,,,,,,,,,,,,,,,,,,,,,,,,,,,,,,,,,,,,,,,,,,,,,,,,,,,,,,,,,,,,,,,,,,,,,,,,,,,,,,,,,,,,,,,,,,,,,,,,,,,,,,,,,,,,,,,,,,,,,,,,,,,,,,,,,,,,,,,,,,,,,,,,,,,,,,,,,,,,,,,,,,
1763974222.055312,22643.0,0.0,4376.794922,4377.05127,4501.282227,4539.871582,4396.922852,4509.358887,4538.717773,4375.128418,4577.05127,4423.077148,4491.410156,4504.230957,4568.717773,4390.897461,4371.153809,4512.94873,4533.974121,4521.025879,4477.307617,4383.333496,4375.897461,4539.487305,4504.743652,4486.282227,4389.615234,4575.384766,4361.666504,4532.307617,4486.922852,4373.589844,4528.333496,4472.179688,3028.0,1.0,20.0,2561.0,8064.0,,,,0.0,4.0,4.0,4.0,4.0,4.0,4.0,4.0,4.0,4.0,4.0,4.0,4.0,4.0,4.0,4.0,4.0,4.0,4.0,4.0,4.0,4.0,4.0,4.0,4.0,4.0,4.0,4.0,4.0,4.0,4.0,4.0,4.0,100.0,,,,,,,,,,,,,,,,,,,,,,,,,,,,,,,,,,,,,,,,,,,,,,,,,,,,,,,,,,,,,,,,,,,,,,,,,,,,,,,,,,,,,,,,,,,,,,,,,,,,,,,,,,,,,,,,,,,,,,,,,,,,,,,,,,,,,,,,,,,,,,,,,,,,,,,,,,,,,,,,,,,,,,,,,,,,,,,,,,,,,,,,,,,,,,,,,,,,,,,,,,,,,,
1763974222.059218,22644.0,0.0,4376.153809,4380.512695,4494.102539,4533.205078,4396.153809,4509.102539,4535.897461,4376.282227,4570.384766,4415.769043,4491.282227,4501.666504,4569.871582,4395.512695,4371.410156,4501.922852,4532.692383,4514.871582,4481.538574,4380.897461,4371.538574,4541.666504,4505.0,4490.128418,4389.358887,4568.974121,4372.563965,4535.128418,4487.179688,4382.179688,4522.563965,4475.641113,2982.0,1.0,20.0,2562.0,8072.0,,,,0.0,4.0,4.0,4.0,4.0,4.0,4.0,4.0,4.0,4.0,4.0,4.0,4.0,4.0,4.0,4.0,4.0,4.0,4.0,4.0,4.0,4.0,4.0,4.0,4.0,4.0,4.0,4.0,4.0,4.0,4.0,4.0,4.0,100.0,,,,,,,,,,,,,,,,,,,,,,,,,,,,,,,,,,,,,,,,,,,,,,,,,,,,,,,,,,,,,,,,,,,,,,,,,,,,,,,,,,,,,,,,,,,,,,,,,,,,,,,,,,,,,,,,,,,,,,,,,,,,,,,,,,,,,,,,,,,,,,,,,,,,,,,,,,,,,,,,,,,,,,,,,,,,,,,,,,,,,,,,,,,,,,,,,,,,,,,,,,,,,,
1763974222.063124,22645.0,0.0,4377.563965,4383.846191,4490.769043,4527.307617,4394.615234,4509.615234,4534.871582,4377.307617,4565.256348,4395.384766,4490.0,4500.128418,4569.871582,4398.077148,4372.94873,4492.436035,4532.179688,4511.538574,4489.871582,4381.282227,4373.205078,4546.153809,4505.641113,4491.538574,4389.615234,4559.358887,4384.743652,4538.717773,4491.282227,4393.846191,4511.794922,4485.0,2833.0,1.0,20.0,2562.0,8072.0,,,,0.0,4.0,4.0,4.0,4.0,4.0,4.0,4.0,4.0,4.0,4.0,4.0,4.0,4.0,4.0,4.0,4.0,4.0,4.0,4.0,4.0,4.0,4.0,4.0,4.0,4.0,4.0,4.0,4.0,4.0,4.0,4.0,4.0,100.0,,,,,,,,,,,,,,,,,,,,,,,,,,,,,,,,,,,22045.0,0.0,0.59848,0.322266,0.288269,0.674438,0.993774,-0.124527,0.01172,29.5,-25.166666,-23.5,,,,,,,,,,,,,,,,,,,,,,,,,,,,,,,,,,,,,,,,,,,,,,,,,,,,,,,,,,,,,,,,,,,,,,,,,,,,,,,,,,,,,,,,,,,,,,,,,,,,,,,,,,,,,,,,,,,,,,,,,,,,,,,,,,,,,,,,,,,,,,,,,,,,,,,,,,,,,,,,
1763974222.06703,22646.0,0.0,4378.974121,4384.230957,4492.94873,4525.512695,4393.077148,4509.487305,4535.512695,4376.410156,4565.128418,4377.692383,4488.333496,4499.358887,4568.717773,4396.025879,4375.897461,4489.615234,4531.666504,4513.333496,4499.615234,4386.282227,4380.641113,4550.769043,4505.769043,4491.025879,4391.922852,4553.333496,4391.922852,4540.256348,4494.871582,4400.0,4505.256348,4494.871582,2988.0,1.0,20.0,2563.0,8080.0,,,,0.0,4.0,4.0,4.0,4.0,4.0,4.0,4.0,4.0,4.0,4.0,4.0,4.0,4.0,4.0,4.0,4.0,4.0,4.0,4.0,4.0,4.0,4.0,4.0,4.0,4.0,4.0,4.0,4.0,4.0,4.0,4.0,4.0,100.0,,,,,,,,,,,,,,,,,,,,,,,,,,,,,,,,,,,,,,,,,,,,,,,,,,,,,,,,,,,,,,,,,,,,,,,,,,,,,,,,,,,,,,,,,,,,,,,,,,,,,,,,,,,,,,,,,,,,,,,,,,,,,,,,,,,,,,,,,,,,,,,,,,,,,,,,,,,,,,,,,,,,,,,,,,,,,,,,,,,,,,,,,,,,,,,,,,,,,,,,,,,,,,
1763974222.070935,22647.0,0.0,4378.974121,4381.538574,4498.077148,4528.333496,4392.94873,4508.461426,4536.922852,4374.102539,4569.871582,4375.384766,4487.94873,4500.256348,4568.077148,4390.512695,4378.974121,4494.230957,4531.666504,4520.384766,4510.641113,4393.077148,4391.538574,4554.743652,4505.512695,4490.641113,4397.436035,4555.641113,4391.410156,4539.230957,4495.0,4396.153809,4508.077148,4500.0,2937.0,1.0,20.0,2563.0,8080.0,,,,0.0,4.0,4.0,4.0,4.0,4.0,4.0,4.0,4.0,4.0,4.0,4.0,4.0,4.0,4.0,4.0,4.0,4.0,4.0,4.0,4.0,4.0,4.0,4.0,4.0,4.0,4.0,4.0,4.0,4.0,4.0,4.0,4.0,100.0,,,,,,,,,,,,,,,,,,,,,,,,,,,,,,,,,,,,,,,,,,,,,,,,,,,,,,,,,,,,,,,,,,,,,,,,,,,,,,,,,,,,,,,,,,,,,,,,,,,,,,,,,,,,,,,,,,,,,,,,,,,,,,,,,,,,,,,,,,,,,,,,,,,,,,,,,,,,,,,,,,,,,,,,,,,,,,,,,,,,,,,,,,,,,,,,,,,,,,,,,,,,,,
1763974222.074841,22648.0,0.0,4378.077148,4377.563965,4501.922852,4533.717773,4395.0,4507.05127,4538.846191,4371.922852,4575.769043,4386.794922,4489.743652,4503.461426,4568.974121,4385.256348,4380.0,4501.794922,4533.205078,4528.589844,4521.666504,4396.410156,4401.153809,4558.077148,4505.769043,4491.282227,4405.0,4563.974121,4385.384766,4537.692383,4491.922852,4385.641113,4518.077148,4498.205078,2900.0,1.0,20.0,2564.0,8087.0,,,,0.0,4.0,4.0,4.0,4.0,4.0,4.0,4.0,4.0,4.0,4.0,4.0,4.0,4.0,4.0,4.0,4.0,4.0,4.0,4.0,4.0,4.0,4.0,4.0,4.0,4.0,4.0,4.0,4.0,4.0,4.0,4.0,4.0,100.0,,,,,,,,,,,,,,,,,,,,,,,,,,,,,,,,,,,,,,,,,,,,,,,,,,,,,,,,,,,,,,,,,,,,,,,,,,,,,,,,,,,,,,,,,,,,,,,,,,,,,,,,,,,,,,,,,,,,,,,,,,,,,,,,,,,,,,,,,,,,,,,,,,,,,,,,,,,,,,,,,,,,,,,,,,,,,,,,,,,,,,,,,,,,,,,,,,,,,,,,,,,,,,
1763974222.078747,22649.0,0.0,4377.436035,4375.256348,4502.05127,4538.077148,4398.333496,4505.769043,4540.0,4371.153809,4578.846191,4398.205078,4492.179688,4507.94873,4571.153809,4383.717773,4377.820313,4505.641113,4535.512695,4532.563965,4527.820313,4393.717773,4404.358887,4559.358887,4506.794922,4492.436035,4411.410156,4571.794922,4378.846191,4537.692383,4488.974121,4376.794922,4527.05127,4492.179688,2829.0,1.0,20.0,2564.0,8087.0,,,,0.0,4.0,4.0,4.0,4.0,4.0,4.0,4.0,4.0,4.0,4.0,4.0,4.0,4.0,4.0,4.0,4.0,4.0,4.0,4.0,4.0,4.0,4.0,4.0,4.0,4.0,4.0,4.0,4.0,4.0,4.0,4.0,4.0,100.0,,,,,,,,,,,,,,,,,,,,,,,,,,,,,,,,,,,22046.0,0.0,0.59852,0.322266,0.28833,0.674377,0.990355,-0.12062,0.007813,28.166666,-25.5,-21.666666,,,,,,,,,,,,,,,,,,,,,,,,,,,,,,,,,,,,,,,,,,,,,,,,,,,,,,,,,,,,,,,,,,,,,,,,,,,,,,,,,,,,,,,,,,,,,,,,,,,,,,,,,,,,,,,,,,,,,,,,,,,,,,,,,,,,,,,,,,,,,,,,,,,,,,,,,,,,,,,,
1763974222.082653,22650.0,0.0,4377.563965,4376.025879,4499.487305,4539.487305,4401.410156,4505.256348,4539.358887,4372.692383,4577.820313,4397.05127,4492.94873,4511.794922,4572.563965,4385.897461,4373.461426,4502.692383,4536.794922,4530.128418,4524.743652,4387.692383,4399.230957,4557.436035,4508.077148,4493.333496,4412.436035,4573.077148,4375.0,4540.0,4490.128418,4377.05127,4527.820313,4487.692383,2775.0,1.0,20.0,2565.0,8095.0,,,,0.0,4.0,4.0,4.0,4.0,4.0,4.0,4.0,4.0,4.0,4.0,4.0,4.0,4.0,4.0,4.0,4.0,4.0,4.0,4.0,4.0,4.0,4.0,4.0,4.0,4.0,4.0,4.0,4.0,4.0,4.0,4.0,4.0,100.0,,,,,,,,,,,,,,,,,,,,,,,,,,,,,,,,,,,,,,,,,,,,,,,,,,,,,,,,,,,,,,,,,,,,,,,,,,,,,,,,,,,,,,,,,,,,,,,,,,,,,,,,,,,,,,,,,,,,,,,,,,,,,,,,,,,,,,,,,,,,,,,,,,,,,,,,,,,,,,,,,,,,,,,,,,,,,,,,,,,,,,,,,,,,,,,,,,,,,,,,,,,,,,
1763974222.086558,22651.0,0.0,4378.717773,4379.487305,4497.94873,4538.333496,4403.205078,4506.025879,4536.666504,4375.512695,4574.743652,4383.717773,4490.512695,4513.333496,4572.563965,4389.487305,4369.871582,4495.769043,4536.282227,4524.102539,4512.94873,4383.333496,4388.846191,4553.461426,4508.717773,4493.461426,4406.666504,4567.436035,4374.102539,4542.692383,4496.538574,4387.05127,4520.128418,4489.102539,3007.0,1.0,20.0,2565.0,8095.0,,,,0.0,4.0,4.0,4.0,4.0,4.0,4.0,4.0,4.0,4.0,4.0,4.0,4.0,4.0,4.0,4.0,4.0,4.0,4.0,4.0,4.0,4.0,4.0,4.0,4.0,4.0,4.0,4.0,4.0,4.0,4.0,4.0,4.0,100.0,,,,,,,,,,,,,,,,,,,,,,,,,,,,,,,,,,,,,,,,,,,,,,,,,,,,,,,,,,,,,,,,,,,,,,,,,,,,,,,,,,,,,,,,,,,,,,,,,,,,,,,,,,,,,,,,,,,,,,,,,,,,,,,,,,,,,,,,,,,,,,,,,,,,,,,,,,,,,,,,,,,,,,,,,,,,,,,,,,,,,,,,,,,,,,,,,,,,,,,,,,,,,,
1763974222.090464,22652.0,1.0,4379.273438,4383.504395,4501.96582,4537.863281,4402.436035,4507.863281,4536.068359,4376.324707,4575.213867,4379.572754,4488.03418,4511.837402,4571.922852,4390.427246,4372.222168,4497.222168,4535.384766,4524.572754,4509.487305,4384.700684,4386.880371,4555.042969,4508.162598,4492.692383,4397.94873,4565.854492,4375.427246,4541.196777,4500.427246,4393.760742,4518.205078,4493.504395,0.0,1.0,20.0,0.0,0.0,,,,0.0,4.0,4.0,4.0,4.0,4.0,4.0,4.0,4.0,4.0,4.0,4.0,4.0,4.0,4.0,4.0,4.0,4.0,4.0,4.0,4.0,4.0,4.0,4.0,4.0,4.0,4.0,4.0,4.0,4.0,4.0,4.0,4.0,100.0,,,,,,,,,,,,,,,,,,,,,,,,,,,,,,,,,,,,,,,,,,,,,,,,,,,,,,,,,,,,,,,,,,,,,,,,,,,,,,,,,,,,,,,,,,,,,,,,,,,,,,,,,,,,,,,,,,,,,,,,,,,,,,,,,,,,,,,,,,,,,,,,,,,,,,,,,,,,,,,,,,,,,,,,,,,,,,,,,,,,,,,,,,,,,,,,,,,,,,,,,,,,,,
1763974222.09437,22653.0,1.0,4379.829102,4387.521484,4505.98291,4537.393066,4401.666504,4509.700684,4535.470215,4377.136719,4575.683594,4375.427246,4485.555664,4510.341797,4571.282227,4391.367676,4374.572754,4498.675293,4534.487305,4525.042969,4506.025879,4386.068359,4384.914551,4556.624023,4507.606934,4491.922852,4389.230957,4564.273438,4376.751953,4539.700684,4504.316406,4400.470215,4516.282227,4497.905762,0.0,1.0,20.0,0.0,0.0,,,,0.0,4.0,4.0,4.0,4.0,4.0,4.0,4.0,4.0,4.0,4.0,4.0,4.0,4.0,4.0,4.0,4.0,4.0,4.0,4.0,4.0,4.0,4.0,4.0,4.0,4.0,4.0,4.0,4.0,4.0,4.0,4.0,4.0,100.0,,,,,,,,,,,,,,,,,,,,,,,,,,,,,,,,,,,,,,,,,,,,,,,,,,,,,,,,,,,,,,,,,,,,,,,,,,,,,,,,,,,,,,,,,,,,,,,,,,,,,,,,,,,,,,,,,,,,,,,,,,,,,,,,,,,,,,,,,,,,,,,,,,,,,,,,,,,,,,,,,,,,,,,,,,,,,,,,,,,,,,,,,,,,,,,,,,,,,,,,,,,,,,
1763974222.098276,22654.0,0.0,4380.384766,4391.538574,4510.0,4536.922852,4400.897461,4511.538574,4534.871582,4377.94873,4576.153809,4371.282227,4483.077148,4508.846191,4570.641113,4392.307617,4376.922852,4500.128418,4533.589844,4525.512695,4502.563965,4387.436035,4382.94873,4558.205078,4507.05127,4491.153809,4380.512695,4562.692383,4378.077148,4538.205078,4508.205078,4407.179688,4514.358887,4502.307617,3003.0,1.0,20.0,2567.0,8111.0,,,,0.0,4.0,4.0,4.0,4.0,4.0,4.0,4.0,4.0,4.0,4.0,4.0,4.0,4.0,4.0,4.0,4.0,4.0,4.0,4.0,4.0,4.0,4.0,4.0,4.0,4.0,4.0,4.0,4.0,4.0,4.0,4.0,4.0,100.0,,,,,,,,,,,,,,,,,,,,,,,,,,,,,,,,,,,,,,,,,,,,,,,,,,,,,,,,,,,,,,,,,,,,,,,,,,,,,,,,,,,,,,,,,,,,,,,,,,,,,,,,,,,,,,,,,,,,,,,,,,,,,,,,,,,,,,,,,,,,,,,,,,,,,,,,,,,,,,,,,,,,,,,,,,,,,,,,,,,,,,,,,,,,,,,,,,,,,,,,,,,,,,
1763974222.102182,22655.0,0.0,4380.256348,4394.487305,4513.333496,4539.230957,4401.794922,4512.820313,4537.436035,4376.282227,4580.256348,4385.128418,4485.128418,4508.077148,4568.846191,4391.410156,4380.0,4507.820313,4536.410156,4531.282227,4517.692383,4386.794922,4390.769043,4563.846191,4506.922852,4492.563965,4383.077148,4573.461426,4384.615234,4536.153809,4503.205078,4403.461426,4525.256348,4500.897461,2911.0,1.0,20.0,2567.0,8111.0,,,,0.0,4.0,4.0,4.0,4.0,4.0,4.0,4.0,4.0,4.0,4.0,4.0,4.0,4.0,4.0,4.0,4.0,4.0,4.0,4.0,4.0,4.0,4.0,4.0,4.0,4.0,4.0,4.0,4.0,4.0,4.0,4.0,4.0,100.0,,,,,,,,,,,,,,,,,,,,,,,,,,,,,,,,,,,,,,,,,,,,,,,,,,,,,,,,,,,,,,,,,,,,,,,,,,,,,,,,,,,,,,,,,,,,,,,,,,,,,,,,,,,,,,,,,,,,,,,,,,,,,,,,,,,,,,,,,,,,,,,,,,,,,,,,,,,,,,,,,,,,,,,,,,,,,,,,,,,,,,,,,,,,,,,,,,,,,,,,,,,,,,
1763974222.106087,22656.0,0.0,4381.410156,4397.307617,4515.256348,4541.538574,4404.358887,4514.102539,4538.717773,4374.615234,4583.717773,4397.179688,4486.794922,4508.077148,4565.512695,4390.384766,4381.153809,4510.769043,4539.615234,4534.230957,4529.230957,4386.282227,4396.794922,4564.871582,4507.563965,4494.230957,4391.794922,4582.179688,4392.820313,4537.307617,4500.512695,4402.94873,4532.692383,4498.846191,2810.0,1.0,20.0,2568.0,8119.0,,,,0.0,4.0,4.0,4.0,4.0,4.0,4.0,4.0,4.0,4.0,4.0,4.0,4.0,4.0,4.0,4.0,4.0,4.0,4.0,4.0,4.0,4.0,4.0,4.0,4.0,4.0,4.0,4.0,4.0,4.0,4.0,4.0,4.0,100.0,,,,,,,,,,,,,,,,,,,,,,,,,,,,,,,,,,,,,,,,,,,,,,,,,,,,,,,,,,,,,,,,,,,,,,,,,,,,,,,,,,,,,,,,,,,,,,,,,,,,,,,,,,,,,,,,,,,,,,,,,,,,,,,,,,,,,,,,,,,,,,,,,,,,,,,,,,,,,,,,,,,,,,,,,,,,,,,,,,,,,,,,,,,,,,,,,,,,,,,,,,,,,,
1763974222.109993,22657.0,0.0,4382.94873,4399.102539,4516.410156,4542.563965,4407.179688,4514.615234,4538.077148,4373.461426,4584.358887,4401.922852,4486.410156,4507.563965,4561.666504,4388.589844,4380.769043,4507.436035,4540.769043,4532.436035,4527.563965,4388.205078,4397.94873,4559.102539,4507.692383,4493.333496,4401.153809,4582.94873,4396.794922,4540.512695,4502.820313,4406.538574,4531.025879,4497.307617,2894.0,1.0,20.0,2568.0,8119.0,,,,0.0,4.0,4.0,4.0,4.0,4.0,4.0,4.0,4.0,4.0,4.0,4.0,4.0,4.0,4.0,4.0,4.0,4.0,4.0,4.0,4.0,4.0,4.0,4.0,4.0,4.0,4.0,4.0,4.0,4.0,4.0,4.0,4.0,100.0,,,,,,,,,,,,,,,,,,,,,,,,,,,,,,,,,,,22048.0,0.0,0.598602,0.322021,0.288147,0.6745,0.996704,-0.120132,-0.007325,29.833334,-26.166666,-24.5,,,,,,,,,,,,,,,,,,,,,,,,,,,,,,,,,,,,,,,,,,,,,,,,,,,,,,,,,,,,,,,,,,,,,,,,,,,,,,,,,,,,,,,,,,,,,,,,,,,,,,,,,,,,,,,,,,,,,,,,,,,,,,,,,,,,,,,,,,,,,,,,,,,,,,,,,,,,,,,,
1763974222.113899,22658.0,0.0,4382.307617,4397.436035,4515.512695,4541.282227,4407.692383,4513.333496,4535.384766,4372.563965,4580.897461,4399.615234,4483.974121,4505.128418,4558.077148,4384.358887,4379.102539,4500.512695,4537.692383,4526.538574,4512.563965,4390.897461,4393.974121,4548.333496,4505.256348,4488.589844,4405.128418,4575.384766,4391.282227,4541.666504,4506.666504,4407.94873,4521.410156,4494.871582,2245.0,1.0,20.0,2568.0,8127.0,,,,0.0,4.0,4.0,4.0,4.0,4.0,4.0,4.0,4.0,4.0,4.0,4.0,4.0,4.0,4.0,4.0,4.0,4.0,4.0,4.0,4.0,4.0,4.0,4.0,4.0,4.0,4.0,4.0,4.0,4.0,4.0,4.0,4.0,100.0,,,,,,,,,,,,,,,,,,,,,,,,,,,,,,,,,,,,,,,,,,,,,,,,,,,,,,,,,,,,,,,,,,,,,,,,,,,,,,,,,,,,,,,,,,,,,,,,,,,,,,,,,,,,,,,,,,,,,,,,,,,,,,,,,,,,,,,,,,,,,,,,,,,,,,,,,,,,,,,,,,,,,,,,,,,,,,,,,,,,,,,,,,,,,,,,,,,,,,,,,,,,,,
1763974222.117805,22659.0,0.0,4377.692383,4390.897461,4510.512695,4537.563965,4403.974121,4509.871582,4531.282227,4371.282227,4574.358887,4394.743652,4480.128418,4500.256348,4555.256348,4378.333496,4375.897461,4494.102539,4530.641113,4519.743652,4494.358887,4390.384766,4386.410156,4536.922852,4499.230957,4481.794922,4402.05127,4563.846191,4377.179688,4536.922852,4504.615234,4400.384766,4510.0,4490.0,2939.0,1.0,20.0,2568.0,8127.0,,,,0.0,4.0,4.0,4.0,4.0,4.0,4.0,4.0,4.0,4.0,4.0,4.0,4.0,4.0,4.0,4.0,4.0,4.0,4.0,4.0,4.0,4.0,4.0,4.0,4.0,4.0,4.0,4.0,4.0,4.0,4.0,4.0,4.0,100.0,,,,,,,,,,,,,,,,,,,,,,,,,,,,,,,,,,,,,,,,,,,,,,,,,,,,,,,,,,,,,,,,,,,,,,,,,,,,,,,,,,,,,,,,,,,,,,,,,,,,,,,,,,,,,,,,,,,,,,,,,,,,,,,,,,,,,,,,,,,,,,,,,,,,,,,,,,,,,,,,,,,,,,,,,,,,,,,,,,,,,,,,,,,,,,,,,,,,,,,,,,,,,,
1763974222.12171,22660.0,0.0,4370.256348,4381.410156,4501.666504,4532.05127,4396.922852,4505.0,4526.410156,4368.589844,4567.692383,4391.410156,4476.025879,4494.487305,4552.94873,4373.589844,4371.410156,4491.538574,4522.820313,4515.897461,4485.641113,4383.333496,4378.461426,4530.256348,4491.282227,4476.282227,4395.384766,4554.230957,4360.769043,4527.179688,4493.717773,4384.102539,4502.820313,4483.589844,2834.0,1.0,20.0,2569.0,8134.0,,,,0.0,4.0,4.0,4.0,4.0,4.0,4.0,4.0,4.0,4.0,4.0,4.0,4.0,4.0,4.0,4.0,4.0,4.0,4.0,4.0,4.0,4.0,4.0,4.0,4.0,4.0,4.0,4.0,4.0,4.0,4.0,4.0,4.0,100.0,,,,,,,,,,,,,,,,,,,,,,,,,,,,,,,,,,,,,,,,,,,,,,,,,,,,,,,,,,,,,,,,,,,,,,,,,,,,,,,,,,,,,,,,,,,,,,,,,,,,,,,,,,,,,,,,,,,,,,,,,,,,,,,,,,,,,,,,,,,,,,,,,,,,,,,,,,,,,,,,,,,,,,,,,,,,,,,,,,,,,,,,,,,,,,,,,,,,,,,,,,,,,,
1763974222.125616,22661.0,0.0,4364.102539,4373.461426,4492.94873,4527.307617,4390.0,4501.282227,4522.179688,4365.128418,4564.102539,4390.641113,4472.94873,4490.641113,4551.282227,4373.846191,4367.05127,4492.94873,4518.846191,4516.922852,4490.641113,4371.538574,4372.307617,4529.871582,4485.256348,4474.358887,4390.641113,4550.0,4350.512695,4517.692383,4478.717773,4367.94873,4502.05127,4479.230957,2361.0,1.0,20.0,2569.0,8134.0,,,,0.0,4.0,4.0,4.0,4.0,4.0,4.0,4.0,4.0,4.0,4.0,4.0,4.0,4.0,4.0,4.0,4.0,4.0,4.0,4.0,4.0,4.0,4.0,4.0,4.0,4.0,4.0,4.0,4.0,4.0,4.0,4.0,4.0,100.0,,,,,,,,,,,,,,,,,,,,,,,,,,,,,,,,,,,22049.0,0.0,0.598726,0.321899,0.288025,0.6745,1.006471,-0.12062,0.00293,30.0,-27.166666,-22.666666,,,,,,,,,,,,,,,,,,,,,,,,,,,,,,,,,,,,,,,,,,,,,,,,,,,,,,,,,,,,,,,,,,,,,,,,,,,,,,,,,,,,,,,,,,,,,,,,,,,,,,,,,,,,,,,,,,,,,,,,,,,,,,,,,,,,,,,,,,,,,,,,,,,,,,,,,,,,,,,,
1763974222.129522,22662.0,0.0,4363.974121,4372.436035,4489.743652,4526.922852,4387.179688,4501.410156,4521.153809,4363.205078,4565.128418,4390.897461,4472.436035,4491.282227,4551.922852,4379.743652,4365.128418,4496.538574,4521.410156,4520.512695,4502.05127,4362.692383,4369.743652,4534.230957,4485.641113,4476.794922,4390.384766,4551.794922,4351.410156,4515.641113,4471.153809,4363.461426,4506.410156,4480.128418,2925.0,1.0,20.0,2570.0,8142.0,,,,0.0,4.0,4.0,4.0,4.0,4.0,4.0,4.0,4.0,4.0,4.0,4.0,4.0,4.0,4.0,4.0,4.0,4.0,4.0,4.0,4.0,4.0,4.0,4.0,4.0,4.0,4.0,4.0,4.0,4.0,4.0,4.0,4.0,100.0,,,,,,,,,,,,,,,,,,,,,,,,,,,,,,,,,,,,,,,,,,,,,,,,,,,,,,,,,,,,,,,,,,,,,,,,,,,,,,,,,,,,,,,,,,,,,,,,,,,,,,,,,,,,,,,,,,,,,,,,,,,,,,,,,,,,,,,,,,,,,,,,,,,,,,,,,,,,,,,,,,,,,,,,,,,,,,,,,,,,,,,,,,,,,,,,,,,,,,,,,,,,,,
1763974222.133428,22663.0,0.0,4371.666504,4380.256348,4494.743652,4533.333496,4390.897461,4506.666504,4525.256348,4366.153809,4570.769043,4390.769043,4476.153809,4497.436035,4556.282227,4388.205078,4367.05127,4500.128418,4530.128418,4523.461426,4508.461426,4365.128418,4371.666504,4540.384766,4494.230957,4483.205078,4392.94873,4558.205078,4362.563965,4524.487305,4479.487305,4375.256348,4513.974121,4486.922852,2938.0,1.0,20.0,2570.0,8142.0,,,,0.0,4.0,4.0,4.0,4.0,4.0,4.0,4.0,4.0,4.0,4.0,4.0,4.0,4.0,4.0,4.0,4.0,4.0,4.0,4.0,4.0,4.0,4.0,4.0,4.0,4.0,4.0,4.0,4.0,4.0,4.0,4.0,4.0,100.0,,,,,,,,,,,,,,,,,,,,,,,,,,,,,,,,,,,,,,,,,,,,,,,,,,,,,,,,,,,,,,,,,,,,,,,,,,,,,,,,,,,,,,,,,,,,,,,,,,,,,,,,,,,,,,,,,,,,,,,,,,,,,,,,,,,,,,,,,,,,,,,,,,,,,,,,,,,,,,,,,,,,,,,,,,,,,,,,,,,,,,,,,,,,,,,,,,,,,,,,,,,,,,
1763974222.137333,22664.0,0.0,4384.487305,4393.846191,4505.128418,4544.487305,4399.358887,4515.512695,4534.102539,4374.358887,4579.230957,4391.282227,4483.333496,4507.179688,4563.846191,4395.0,4372.94873,4502.820313,4541.538574,4524.615234,4505.769043,4379.743652,4378.333496,4547.820313,4508.333496,4491.794922,4394.743652,4566.666504,4378.205078,4541.153809,4501.282227,4396.666504,4522.179688,4496.666504,2672.0,1.0,20.0,2571.0,8150.0,,,,0.0,4.0,4.0,4.0,4.0,4.0,4.0,4.0,4.0,4.0,4.0,4.0,4.0,4.0,4.0,4.0,4.0,4.0,4.0,4.0,4.0,4.0,4.0,4.0,4.0,4.0,4.0,4.0,4.0,4.0,4.0,4.0,4.0,100.0,,,,,,,,,,,,,,,,,,,,,,,,,,,,,,,,,,,,,,,,,,,,,,,,,,,,,,,,,,,,,,,,,,,,,,,,,,,,,,,,,,,,,,,,,,,,,,,,,,,,,,,,,,,,,,,,,,,,,,,,,,,,,,,,,,,,,,,,,,,,,,,,,,,,,,,,,,,,,,,,,,,,,,,,,,,,,,,,,,,,,,,,,,,,,,,,,,,,,,,,,,,,,,
1763974222.141239,22665.0,0.0,4395.384766,4406.538574,4514.230957,4555.0,4408.077148,4523.589844,4544.102539,4384.487305,4586.794922,4394.102539,4490.897461,4516.410156,4572.179688,4397.820313,4380.641113,4505.641113,4551.025879,4526.025879,4500.641113,4397.94873,4388.077148,4557.179688,4522.307617,4500.0,4393.717773,4574.230957,4391.025879,4557.820313,4523.205078,4414.358887,4528.589844,4504.743652,2833.0,1.0,20.0,2571.0,8150.0,,,,0.0,4.0,4.0,4.0,4.0,4.0,4.0,4.0,4.0,4.0,4.0,4.0,4.0,4.0,4.0,4.0,4.0,4.0,4.0,4.0,4.0,4.0,4.0,4.0,4.0,4.0,4.0,4.0,4.0,4.0,4.0,4.0,4.0,100.0,,,,,,,,,,,,,,,,,,,,,,,,,,,,,,,,,,,22050.0,0.0,0.598677,0.322083,0.288208,0.674377,1.006471,-0.12062,0.00293,29.833334,-25.5,-23.666666,,,,,,,,,,,,,,,,,,,,,,,,,,,,,,,,,,,,,,,,,,,,,,,,,,,,,,,,,,,,,,,,,,,,,,,,,,,,,,,,,,,,,,,,,,,,,,,,,,,,,,,,,,,,,,,,,,,,,,,,,,,,,,,,,,,,,,,,,,,,,,,,,,,,,,,,,,,,,,,,
1763974222.145145,22666.0,0.0,4398.077148,4412.179688,4516.922852,4559.102539,4412.05127,4526.282227,4549.615234,4390.769043,4590.0,4398.846191,4494.487305,4520.897461,4577.563965,4397.820313,4386.794922,4509.615234,4555.256348,4530.128418,4502.436035,4407.179688,4397.05127,4567.307617,4530.128418,4504.743652,4390.769043,4578.077148,4397.05127,4566.410156,4530.384766,4418.461426,4532.05127,4507.307617,2646.0,1.0,20.0,2569.0,8158.0,,,,0.0,4.0,4.0,4.0,4.0,4.0,4.0,4.0,4.0,4.0,4.0,4.0,4.0,4.0,4.0,4.0,4.0,4.0,4.0,4.0,4.0,4.0,4.0,4.0,4.0,4.0,4.0,4.0,4.0,4.0,4.0,4.0,4.0,100.0,,,,,,,,,,,,,,,,,,,,,,,,,,,,,,,,,,,,,,,,,,,,,,,,,,,,,,,,,,,,,,,,,,,,,,,,,,,,,,,,,,,,,,,,,,,,,,,,,,,,,,,,,,,,,,,,,,,,,,,,,,,,,,,,,,,,,,,,,,,,,,,,,,,,,,,,,,,,,,,,,,,,,,,,,,,,,,,,,,,,,,,,,,,,,,,,,,,,,,,,,,,,,,
1763974222.149051,22667.0,0.0,4391.794922,4409.102539,4513.077148,4554.871582,4409.358887,4522.436035,4547.436035,4390.384766,4587.820313,4401.538574,4492.179688,4519.358887,4577.563965,4397.436035,4388.205078,4513.846191,4553.717773,4535.512695,4513.077148,4401.282227,4401.282227,4574.487305,4528.974121,4504.102539,4389.615234,4577.179688,4396.410156,4563.974121,4518.974121,4409.615234,4532.563965,4503.717773,2982.0,1.0,20.0,2569.0,8158.0,,,,0.0,4.0,4.0,4.0,4.0,4.0,4.0,4.0,4.0,4.0,4.0,4.0,4.0,4.0,4.0,4.0,4.0,4.0,4.0,4.0,4.0,4.0,4.0,4.0,4.0,4.0,4.0,4.0,4.0,4.0,4.0,4.0,4.0,100.0,,,,,,,,,,,,,,,,,,,,,,,,,,,,,,,,,,,,,,,,,,,,,,,,,,,,,,,,,,,,,,,,,,,,,,,,,,,,,,,,,,,,,,,,,,,,,,,,,,,,,,,,,,,,,,,,,,,,,,,,,,,,,,,,,,,,,,,,,,,,,,,,,,,,,,,,,,,,,,,,,,,,,,,,,,,,,,,,,,,,,,,,,,,,,,,,,,,,,,,,,,,,,,
1763974222.152957,22668.0,0.0,4381.538574,4401.410156,4507.05127,4546.282227,4402.94873,4515.512695,4539.487305,4384.871582,4582.307617,4398.717773,4486.538574,4514.102539,4573.461426,4397.436035,4385.0,4515.769043,4548.974121,4538.974121,4525.897461,4385.641113,4399.487305,4575.0,4521.153809,4498.974121,4394.102539,4572.692383,4391.922852,4554.102539,4499.102539,4397.820313,4530.641113,4496.282227,2935.0,1.0,20.0,2568.0,8166.0,,,,0.0,4.0,4.0,4.0,4.0,4.0,4.0,4.0,4.0,4.0,4.0,4.0,4.0,4.0,4.0,4.0,4.0,4.0,4.0,4.0,4.0,4.0,4.0,4.0,4.0,4.0,4.0,4.0,4.0,4.0,4.0,4.0,4.0,100.0,,,,,,,,,,,,,,,,,,,,,,,,,,,,,,,,,,,,,,,,,,,,,,,,,,,,,,,,,,,,,,,,,,,,,,,,,,,,,,,,,,,,,,,,,,,,,,,,,,,,,,,,,,,,,,,,,,,,,,,,,,,,,,,,,,,,,,,,,,,,,,,,,,,,,,,,,,,,,,,,,,,,,,,,,,,,,,,,,,,,,,,,,,,,,,,,,,,,,,,,,,,,,,
1763974222.156862,22669.0,0.0,4375.0,4395.256348,4503.717773,4539.487305,4398.205078,4510.512695,4531.410156,4379.871582,4577.05127,4391.410156,4482.94873,4509.743652,4568.974121,4397.307617,4380.384766,4514.487305,4544.230957,4538.461426,4532.820313,4372.307617,4394.230957,4569.230957,4512.307617,4492.307617,4404.358887,4568.077148,4386.666504,4543.974121,4486.025879,4393.589844,4527.563965,4490.0,2780.0,1.0,20.0,2568.0,8166.0,,,,0.0,4.0,4.0,4.0,4.0,4.0,4.0,4.0,4.0,4.0,4.0,4.0,4.0,4.0,4.0,4.0,4.0,4.0,4.0,4.0,4.0,4.0,4.0,4.0,4.0,4.0,4.0,4.0,4.0,4.0,4.0,4.0,4.0,100.0,,,,,,,,,,,,,,,,,,,,,,,,,,,,,,,,,,,22051.0,0.0,0.598615,0.322144,0.288269,0.674377,0.993774,-0.110853,0.012697,29.166666,-26.0,-22.666666,,,,,,,,,,,,,,,,,,,,,,,,,,,,,,,,,,,,,,,,,,,,,,,,,,,,,,,,,,,,,,,,,,,,,,,,,,,,,,,,,,,,,,,,,,,,,,,,,,,,,,,,,,,,,,,,,,,,,,,,,,,,,,,,,,,,,,,,,,,,,,,,,,,,,,,,,,,,,,,,
1763974222.160768,22670.0,0.0,4376.666504,4394.487305,4504.743652,4537.692383,4398.333496,4510.641113,4528.461426,4379.358887,4574.358887,4384.615234,4484.615234,4509.358887,4567.563965,4396.666504,4378.846191,4512.05127,4541.666504,4535.0,4530.769043,4370.641113,4389.487305,4560.769043,4507.179688,4488.077148,4415.256348,4566.410156,4383.077148,4539.230957,4488.333496,4399.743652,4524.230957,4488.717773,2731.0,1.0,20.0,2569.0,8173.0,,,,0.0,4.0,4.0,4.0,4.0,4.0,4.0,4.0,4.0,4.0,4.0,4.0,4.0,4.0,4.0,4.0,4.0,4.0,4.0,4.0,4.0,4.0,4.0,4.0,4.0,4.0,4.0,4.0,4.0,4.0,4.0,4.0,4.0,100.0,0.996094,58.333332,4.0,4.0,4.0,4.0,4.0,4.0,4.0,4.0,4.0,1.0,4.0,4.0,4.0,4.0,4.0,4.0,4.0,4.0,3.0,4.0,4.0,4.0,4.0,4.0,3.0,4.0,3.0,4.0,4.0,4.0,4.0,4.0,,,,,,,,,,,,,1.687154,1.826708,1.485647,0.834032,0.887332,1.592826,2.742547,1.938404,0.749796,0.824962,0.312195,2.819442,1.226731,0.99486,1.251031,0.391501,2.073109,1.142531,0.662721,1.070675,0.570039,1.141178,0.726536,0.594403,0.537247,0.781166,1.216221,0.571458,0.4807,0.395471,1.624695,2.550123,0.951917,0.682388,0.610751,0.617661,1.913873,1.023846,0.833345,0.799032,0.694536,1.263068,0.913278,0.632061,0.710268,0.942317,1.826194,2.22616,5.157074,3.803258,0.789045,2.450252,0.760811,1.115514,0.801057,1.336927,1.87,1.180185,0.611083,0.812741,0.805048,1.658319,0.775316,0.851303,0.689916,0.462931,1.011917,0.749265,1.168667,1.249735,0.360459,1.098217,0.512318,0.615193,0.671214,0.429369,1.292679,1.073916,0.990028,1.139626,0.979881,2.253694,0.891796,0.640015,0.65905,0.535747,1.875222,1.331524,0.996152,1.639956,0.862043,2.713426,2.590385,1.07315,2.522035,0.614667,2.090011,1.123949,0.801101,1.31464,1.150462,2.961152,1.301316,1.111629,1.311841,1.023991,2.524399,1.56839,0.982944,1.284462,1.172297,1.973995,1.370116,0.867098,0.916827,0.606295,2.213769,1.441622,0.989178,1.096844,0.820601,1.765112,1.413454,2.533834,2.081048,0.572936,2.953787,0.880067,0.602307,0.891511,0.957047,2.591246,2.44732,1.318242,2.041167,0.938142,2.571519,1.749077,1.00359,1.421141,1.582424,2.379437,2.161106,1.122492,1.180729,0.803948,2.523722,2.997595,0.891943,1.43394,0.81656,3.304278,1.420656,0.727039,1.45636,0.492916,3.551449,3.31016,1.642838,1.651296
1763974222.164674,22671.0,0.0,4383.974121,4397.94873,4507.179688,4539.487305,4402.05127,4514.743652,4531.538574,4382.94873,4574.615234,4381.538574,4489.743652,4511.666504,4568.974121,4395.641113,4382.05127,4510.897461,4541.025879,4530.897461,4521.410156,4379.743652,4387.563965,4553.846191,4506.794922,4487.820313,4419.871582,4567.820313,4381.666504,4540.256348,4501.282227,4409.743652,4521.538574,4491.666504,2804.0,1.0,20.0,2569.0,8173.0,,,,0.0,4.0,4.0,4.0,4.0,4.0,4.0,4.0,4.0,4.0,4.0,4.0,4.0,4.0,4.0,4.0,4.0,4.0,4.0,4.0,4.0,4.0,4.0,4.0,4.0,4.0,4.0,4.0,4.0,4.0,4.0,4.0,4.0,100.0,,,,,,,,,,,,,,,,,,,,,,,,,,,,,,,,,,,,,,,,,,,,,,,,,,,,,,,,,,,,,,,,,,,,,,,,,,,,,,,,,,,,,,,,,,,,,,,,,,,,,,,,,,,,,,,,,,,,,,,,,,,,,,,,,,,,,,,,,,,,,,,,,,,,,,,,,,,,,,,,,,,,,,,,,,,,,,,,,,,,,,,,,,,,,,,,,,,,,,,,,,,,,,
1763974222.16858,22672.0,0.0,4390.512695,4400.641113,4506.666504,4540.769043,4405.384766,4518.846191,4536.922852,4386.153809,4575.897461,4381.410156,4493.333496,4513.077148,4569.871582,4394.743652,4387.05127,4510.897461,4540.0,4526.153809,4508.846191,4390.897461,4387.563965,4549.102539,4508.461426,4490.0,4414.871582,4569.743652,4381.666504,4542.820313,4511.794922,4413.077148,4520.384766,4494.615234,2912.0,1.0,20.0,2570.0,8181.0,,,,0.0,4.0,4.0,4.0,4.0,4.0,4.0,4.0,4.0,4.0,4.0,4.0,4.0,4.0,4.0,4.0,4.0,4.0,4.0,4.0,4.0,4.0,4.0,4.0,4.0,4.0,4.0,4.0,4.0,4.0,4.0,4.0,4.0,100.0,,,,,,,,,,,,,,,,,,,,,,,,,,,,,,,,,,,,,,,,,,,,,,,,,,,,,,,,,,,,,,,,,,,,,,,,,,,,,,,,,,,,,,,,,,,,,,,,,,,,,,,,,,,,,,,,,,,,,,,,,,,,,,,,,,,,,,,,,,,,,,,,,,,,,,,,,,,,,,,,,,,,,,,,,,,,,,,,,,,,,,,,,,,,,,,,,,,,,,,,,,,,,,
1763974222.172485,22673.0,0.0,4391.153809,4398.846191,4501.410156,4539.615234,4405.897461,4518.974121,4539.358887,4385.256348,4576.538574,4380.384766,4491.666504,4510.641113,4567.563965,4393.974121,4389.487305,4509.358887,4536.794922,4520.641113,4497.563965,4395.256348,4387.307617,4546.153809,4508.589844,4491.538574,4403.589844,4569.358887,4380.897461,4542.820313,4510.769043,4404.871582,4521.282227,4494.230957,3048.0,1.0,20.0,2570.0,8181.0,,,,0.0,4.0,4.0,4.0,4.0,4.0,4.0,4.0,4.0,4.0,4.0,4.0,4.0,4.0,4.0,4.0,4.0,4.0,4.0,4.0,4.0,4.0,4.0,4.0,4.0,4.0,4.0,4.0,4.0,4.0,4.0,4.0,4.0,100.0,,,,,,,,,,,,,,,,,,,,,,,,,,,,,,,,,,,22052.0,0.0,0.598621,0.322205,0.28833,0.674316,1.001099,-0.119644,0.004395,29.0,-25.833334,-22.833334,,,,,,,,,,,,,,,,,,,,,,,,,,,,,,,,,,,,,,,,,,,,,,,,,,,,,,,,,,,,,,,,,,,,,,,,,,,,,,,,,,,,,,,,,,,,,,,,,,,,,,,,,,,,,,,,,,,,,,,,,,,,,,,,,,,,,,,,,,,,,,,,,,,,,,,,,,,,,,,,
1763974222.176391,22674.0,0.0,4386.666504,4393.461426,4495.0,4536.922852,4404.358887,4515.256348,4537.05127,4380.512695,4576.794922,4377.820313,4485.897461,4505.512695,4562.307617,4392.820313,4386.410156,4503.846191,4532.692383,4515.256348,4491.922852,4390.641113,4385.641113,4544.358887,4506.153809,4490.512695,4393.846191,4567.05127,4378.333496,4539.358887,4500.256348,4390.641113,4522.692383,4490.512695,2813.0,1.0,20.0,2571.0,8189.0,,,,0.0,4.0,4.0,4.0,4.0,4.0,4.0,4.0,4.0,4.0,4.0,4.0,4.0,4.0,4.0,4.0,4.0,4.0,4.0,4.0,4.0,4.0,4.0,4.0,4.0,4.0,4.0,4.0,4.0,4.0,4.0,4.0,4.0,100.0,,,,,,,,,,,,,,,,,,,,,,,,,,,,,,,,,,,,,,,,,,,,,,,,,,,,,,,,,,,,,,,,,,,,,,,,,,,,,,,,,,,,,,,,,,,,,,,,,,,,,,,,,,,,,,,,,,,,,,,,,,,,,,,,,,,,,,,,,,,,,,,,,,,,,,,,,,,,,,,,,,,,,,,,,,,,,,,,,,,,,,,,,,,,,,,,,,,,,,,,,,,,,,
1763974222.180297,22675.0,0.0,4381.922852,4388.974121,4493.333496,4536.025879,4403.461426,4510.897461,4532.307617,4376.025879,4578.077148,4377.436035,4480.0,4501.538574,4557.179688,4391.153809,4378.974121,4494.743652,4530.641113,4511.922852,4493.589844,4381.666504,4383.333496,4545.256348,4502.820313,4487.436035,4392.179688,4565.512695,4375.0,4535.384766,4490.384766,4380.897461,4523.077148,4486.538574,3033.0,1.0,20.0,2571.0,8189.0,,,,0.0,4.0,4.0,4.0,4.0,4.0,4.0,4.0,4.0,4.0,4.0,4.0,4.0,4.0,4.0,4.0,4.0,4.0,4.0,4.0,4.0,4.0,4.0,4.0,4.0,4.0,4.0,4.0,4.0,4.0,4.0,4.0,4.0,100.0,,,,,,,,,,,,,,,,,,,,,,,,,,,,,,,,,,,,,,,,,,,,,,,,,,,,,,,,,,,,,,,,,,,,,,,,,,,,,,,,,,,,,,,,,,,,,,,,,,,,,,,,,,,,,,,,,,,,,,,,,,,,,,,,,,,,,,,,,,,,,,,,,,,,,,,,,,,,,,,,,,,,,,,,,,,,,,,,,,,,,,,,,,,,,,,,,,,,,,,,,,,,,,
1763974222.184203,22676.0,0.0,4380.769043,4389.487305,4499.358887,4539.230957,4405.0,4510.128418,4529.871582,4376.153809,4581.153809,4383.974121,4477.94873,4501.794922,4555.0,4388.846191,4371.025879,4485.384766,4532.307617,4511.794922,4500.256348,4375.769043,4381.153809,4549.358887,4501.538574,4485.128418,4399.230957,4567.179688,4373.589844,4533.974121,4489.487305,4382.307617,4522.436035,4485.384766,2986.0,1.0,20.0,2572.0,8197.0,,,,0.0,4.0,4.0,4.0,4.0,4.0,4.0,4.0,4.0,4.0,4.0,4.0,4.0,4.0,4.0,4.0,4.0,4.0,4.0,4.0,4.0,4.0,4.0,4.0,4.0,4.0,4.0,4.0,4.0,4.0,4.0,4.0,4.0,100.0,,,,,,,,,,,,,,,,,,,,,,,,,,,,,,,,,,,,,,,,,,,,,,,,,,,,,,,,,,,,,,,,,,,,,,,,,,,,,,,,,,,,,,,,,,,,,,,,,,,,,,,,,,,,,,,,,,,,,,,,,,,,,,,,,,,,,,,,,,,,,,,,,,,,,,,,,,,,,,,,,,,,,,,,,,,,,,,,,,,,,,,,,,,,,,,,,,,,,,,,,,,,,,
1763974222.188109,22677.0,0.0,4383.974121,4395.641113,4510.384766,4545.897461,4408.461426,4514.102539,4532.692383,4382.179688,4585.769043,4397.307617,4480.897461,4506.538574,4556.666504,4387.307617,4367.307617,4480.128418,4536.922852,4514.871582,4506.538574,4377.436035,4379.487305,4555.897461,4503.461426,4486.410156,4409.487305,4572.179688,4376.794922,4537.05127,4497.563965,4393.846191,4522.436035,4488.589844,2823.0,1.0,20.0,2572.0,8197.0,,,,0.0,4.0,4.0,4.0,4.0,4.0,4.0,4.0,4.0,4.0,4.0,4.0,4.0,4.0,4.0,4.0,4.0,4.0,4.0,4.0,4.0,4.0,4.0,4.0,4.0,4.0,4.0,4.0,4.0,4.0,4.0,4.0,4.0,100.0,,,,,,,,,,,,,,,,,,,,,,,,,,,,,,,,,,,22053.0,0.0,0.598559,0.322266,0.288391,0.674316,1.001099,-0.119644,0.004395,29.333334,-27.333334,-24.166666,,,,,,,,,,,,,,,,,,,,,,,,,,,,,,,,,,,,,,,,,,,,,,,,,,,,,,,,,,,,,,,,,,,,,,,,,,,,,,,,,,,,,,,,,,,,,,,,,,,,,,,,,,,,,,,,,,,,,,,,,,,,,,,,,,,,,,,,,,,,,,,,,,,,,,,,,,,,,,,,
1763974222.192014,22678.0,0.0,4389.102539,4404.230957,4520.512695,4553.717773,4411.666504,4521.025879,4539.615234,4391.666504,4590.384766,4411.538574,4486.282227,4513.077148,4561.153809,4387.820313,4369.743652,4482.436035,4542.307617,4520.256348,4509.230957,4385.256348,4378.846191,4561.538574,4507.820313,4492.307617,4416.153809,4578.461426,4384.743652,4543.589844,4508.077148,4408.461426,4524.615234,4496.538574,2983.0,1.0,20.0,2573.0,8205.0,,,,0.0,4.0,4.0,4.0,4.0,4.0,4.0,4.0,4.0,4.0,4.0,4.0,4.0,4.0,4.0,4.0,4.0,4.0,4.0,4.0,4.0,4.0,4.0,4.0,4.0,4.0,4.0,4.0,4.0,4.0,4.0,4.0,4.0,100.0,,,,,,,,,,,,,,,,,,,,,,,,,,,,,,,,,,,,,,,,,,,,,,,,,,,,,,,,,,,,,,,,,,,,,,,,,,,,,,,,,,,,,,,,,,,,,,,,,,,,,,,,,,,,,,,,,,,,,,,,,,,,,,,,,,,,,,,,,,,,,,,,,,,,,,,,,,,,,,,,,,,,,,,,,,,,,,,,,,,,,,,,,,,,,,,,,,,,,,,,,,,,,,
1763974222.19592,22679.0,0.0,4393.205078,4410.384766,4524.615234,4559.358887,4412.563965,4526.282227,4545.897461,4399.230957,4593.205078,4418.974121,4490.769043,4517.692383,4566.153809,4390.384766,4375.897461,4491.922852,4546.282227,4526.794922,4508.461426,4393.205078,4380.256348,4563.589844,4512.05127,4501.282227,4415.641113,4582.307617,4394.102539,4550.769043,4514.358887,4418.077148,4528.205078,4506.666504,2933.0,1.0,20.0,2573.0,8205.0,,,,0.0,4.0,4.0,4.0,4.0,4.0,4.0,4.0,4.0,4.0,4.0,4.0,4.0,4.0,4.0,4.0,4.0,4.0,4.0,4.0,4.0,4.0,4.0,4.0,4.0,4.0,4.0,4.0,4.0,4.0,4.0,4.0,4.0,100.0,,,,,,,,,,,,,,,,,,,,,,,,,,,,,,,,,,,,,,,,,,,,,,,,,,,,,,,,,,,,,,,,,,,,,,,,,,,,,,,,,,,,,,,,,,,,,,,,,,,,,,,,,,,,,,,,,,,,,,,,,,,,,,,,,,,,,,,,,,,,,,,,,,,,,,,,,,,,,,,,,,,,,,,,,,,,,,,,,,,,,,,,,,,,,,,,,,,,,,,,,,,,,,
1763974222.199826,22680.0,0.0,4393.974121,4410.256348,4521.538574,4561.025879,4410.641113,4526.666504,4547.307617,4400.641113,4592.692383,4415.641113,4491.153809,4518.205078,4569.358887,4393.333496,4380.769043,4503.717773,4547.436035,4531.922852,4506.922852,4394.487305,4383.974121,4560.769043,4512.692383,4508.461426,4409.102539,4580.897461,4400.128418,4555.256348,4513.461426,4417.692383,4530.512695,4514.358887,2906.0,1.0,20.0,2574.0,8212.0,,,,0.0,4.0,4.0,4.0,4.0,4.0,4.0,4.0,4.0,4.0,4.0,4.0,4.0,4.0,4.0,4.0,4.0,4.0,4.0,4.0,4.0,4.0,4.0,4.0,4.0,4.0,4.0,4.0,4.0,4.0,4.0,4.0,4.0,100.0,,,,,,,,,,,,,,,,,,,,,,,,,,,,,,,,,,,,,,,,,,,,,,,,,,,,,,,,,,,,,,,,,,,,,,,,,,,,,,,,,,,,,,,,,,,,,,,,,,,,,,,,,,,,,,,,,,,,,,,,,,,,,,,,,,,,,,,,,,,,,,,,,,,,,,,,,,,,,,,,,,,,,,,,,,,,,,,,,,,,,,,,,,,,,,,,,,,,,,,,,,,,,,
1763974222.203732,22681.0,0.0,4390.512695,4403.333496,4514.102539,4558.333496,4406.666504,4521.666504,4542.179688,4394.743652,4588.077148,4403.461426,4486.794922,4514.102539,4569.102539,4393.846191,4379.871582,4511.153809,4545.384766,4533.205078,4506.794922,4387.563965,4388.846191,4555.384766,4509.358887,4509.871582,4400.641113,4574.487305,4399.102539,4554.615234,4507.563965,4408.077148,4529.871582,4515.0,2828.0,1.0,20.0,2574.0,8212.0,,,,0.0,4.0,4.0,4.0,4.0,4.0,4.0,4.0,4.0,4.0,4.0,4.0,4.0,4.0,4.0,4.0,4.0,4.0,4.0,4.0,4.0,4.0,4.0,4.0,4.0,4.0,4.0,4.0,4.0,4.0,4.0,4.0,4.0,100.0,,,,,,,,,,,,,,,,,,,,,,,,,,,,,,,,,,,22054.0,0.0,0.59853,0.322266,0.288452,0.674316,0.996215,-0.119155,0.006348,31.0,-26.666666,-24.166666,,,,,,,,,,,,,,,,,,,,,,,,,,,,,,,,,,,,,,,,,,,,,,,,,,,,,,,,,,,,,,,,,,,,,,,,,,,,,,,,,,,,,,,,,,,,,,,,,,,,,,,,,,,,,,,,,,,,,,,,,,,,,,,,,,,,,,,,,,,,,,,,,,,,,,,,,,,,,,,,
1763974222.207637,22682.0,0.0,4384.615234,4393.589844,4507.563965,4553.205078,4403.077148,4514.487305,4533.205078,4384.615234,4580.641113,4387.94873,4479.358887,4508.077148,4565.256348,4390.897461,4373.974121,4510.128418,4541.282227,4530.384766,4507.820313,4376.410156,4392.563965,4551.153809,4504.871582,4505.512695,4395.512695,4566.666504,4391.922852,4549.487305,4500.897461,4395.0,4527.692383,4507.94873,2796.0,1.0,20.0,2575.0,8220.0,,,,0.0,4.0,4.0,4.0,4.0,4.0,4.0,4.0,4.0,4.0,4.0,4.0,4.0,4.0,4.0,4.0,4.0,4.0,4.0,4.0,4.0,4.0,4.0,4.0,4.0,4.0,4.0,4.0,4.0,4.0,4.0,4.0,4.0,100.0,,,,,,,,,,,,,,,,,,,,,,,,,,,,,,,,,,,,,,,,,,,,,,,,,,,,,,,,,,,,,,,,,,,,,,,,,,,,,,,,,,,,,,,,,,,,,,,,,,,,,,,,,,,,,,,,,,,,,,,,,,,,,,,,,,,,,,,,,,,,,,,,,,,,,,,,,,,,,,,,,,,,,,,,,,,,,,,,,,,,,,,,,,,,,,,,,,,,,,,,,,,,,,
1763974222.211543,22683.0,0.0,4380.0,4387.179688,4505.769043,4549.230957,4401.922852,4509.358887,4526.410156,4376.282227,4574.358887,4375.769043,4472.820313,4503.589844,4560.0,4386.922852,4367.94873,4502.692383,4537.179688,4525.641113,4508.589844,4369.102539,4392.94873,4550.897461,4503.974121,4499.102539,4397.820313,4561.794922,4383.205078,4543.974121,4498.205078,4385.897461,4526.282227,4497.307617,3006.0,1.0,20.0,2575.0,8220.0,,,,0.0,4.0,4.0,4.0,4.0,4.0,4.0,4.0,4.0,4.0,4.0,4.0,4.0,4.0,4.0,4.0,4.0,4.0,4.0,4.0,4.0,4.0,4.0,4.0,4.0,4.0,4.0,4.0,4.0,4.0,4.0,4.0,4.0,100.0,,,,,,,,,,,,,,,,,,,,,,,,,,,,,,,,,,,,,,,,,,,,,,,,,,,,,,,,,,,,,,,,,,,,,,,,,,,,,,,,,,,,,,,,,,,,,,,,,,,,,,,,,,,,,,,,,,,,,,,,,,,,,,,,,,,,,,,,,,,,,,,,,,,,,,,,,,,,,,,,,,,,,,,,,,,,,,,,,,,,,,,,,,,,,,,,,,,,,,,,,,,,,,
1763974222.215449,22684.0,0.0,4380.0,4388.461426,4508.846191,4548.717773,4404.615234,4509.358887,4526.410156,4373.974121,4572.307617,4371.025879,4470.0,4503.333496,4557.307617,4386.153809,4368.077148,4494.230957,4536.025879,4521.922852,4507.563965,4371.025879,4390.0,4554.487305,4508.717773,4495.128418,4407.307617,4562.692383,4377.179688,4542.820313,4501.410156,4386.153809,4527.692383,4489.230957,2961.0,1.0,20.0,2576.0,8228.0,,,,0.0,4.0,4.0,4.0,4.0,4.0,4.0,4.0,4.0,4.0,4.0,4.0,4.0,4.0,4.0,4.0,4.0,4.0,4.0,4.0,4.0,4.0,4.0,4.0,4.0,4.0,4.0,4.0,4.0,4.0,4.0,4.0,4.0,100.0,,,,,,,,,,,,,,,,,,,,,,,,,,,,,,,,,,,,,,,,,,,,,,,,,,,,,,,,,,,,,,,,,,,,,,,,,,,,,,,,,,,,,,,,,,,,,,,,,,,,,,,,,,,,,,,,,,,,,,,,,,,,,,,,,,,,,,,,,,,,,,,,,,,,,,,,,,,,,,,,,,,,,,,,,,,,,,,,,,,,,,,,,,,,,,,,,,,,,,,,,,,,,,
1763974222.219355,22685.0,0.0,4384.871582,4397.05127,4514.487305,4551.922852,4410.256348,4513.846191,4533.461426,4378.846191,4574.102539,4374.615234,4471.922852,4507.563965,4559.358887,4389.743652,4376.025879,4489.743652,4538.846191,4520.512695,4504.358887,4381.282227,4385.769043,4558.461426,4516.922852,4495.384766,4417.692383,4568.077148,4376.153809,4547.436035,4508.717773,4395.512695,4531.538574,4488.333496,2806.0,1.0,20.0,2576.0,8228.0,,,,0.0,4.0,4.0,4.0,4.0,4.0,4.0,4.0,4.0,4.0,4.0,4.0,4.0,4.0,4.0,4.0,4.0,4.0,4.0,4.0,4.0,4.0,4.0,4.0,4.0,4.0,4.0,4.0,4.0,4.0,4.0,4.0,4.0,100.0,,,,,,,,,,,,,,,,,,,,,,,,,,,,,,,,,,,22055.0,0.0,0.598592,0.322205,0.288391,0.674316,0.988402,-0.113783,0.007325,29.833334,-24.666666,-23.666666,,,,,,,,,,,,,,,,,,,,,,,,,,,,,,,,,,,,,,,,,,,,,,,,,,,,,,,,,,,,,,,,,,,,,,,,,,,,,,,,,,,,,,,,,,,,,,,,,,,,,,,,,,,,,,,,,,,,,,,,,,,,,,,,,,,,,,,,,,,,,,,,,,,,,,,,,,,,,,,,
1763974222.22326,22686.0,0.0,4391.666504,4407.692383,4519.615234,4555.769043,4415.897461,4519.743652,4542.563965,4387.563965,4576.922852,4384.358887,4476.666504,4513.077148,4565.128418,4395.641113,4387.179688,4490.128418,4543.333496,4520.641113,4500.641113,4393.333496,4383.077148,4559.230957,4523.333496,4497.820313,4421.025879,4574.102539,4379.743652,4555.128418,4516.025879,4408.589844,4536.922852,4495.512695,3003.0,1.0,20.0,2574.0,8236.0,,,,0.0,4.0,4.0,4.0,4.0,4.0,4.0,4.0,4.0,4.0,4.0,4.0,4.0,4.0,4.0,4.0,4.0,4.0,4.0,4.0,4.0,4.0,4.0,4.0,4.0,4.0,4.0,4.0,4.0,4.0,4.0,4.0,4.0,100.0,,,,,,,,,,,,,,,,,,,,,,,,,,,,,,,,,,,,,,,,,,,,,,,,,,,,,,,,,,,,,,,,,,,,,,,,,,,,,,,,,,,,,,,,,,,,,,,,,,,,,,,,,,,,,,,,,,,,,,,,,,,,,,,,,,,,,,,,,,,,,,,,,,,,,,,,,,,,,,,,,,,,,,,,,,,,,,,,,,,,,,,,,,,,,,,,,,,,,,,,,,,,,,
1763974222.227166,22687.0,0.0,4395.641113,4413.717773,4523.077148,4557.307617,4418.077148,4523.333496,4547.820313,4394.615234,4577.436035,4395.897461,4481.410156,4516.282227,4570.256348,4399.615234,4394.615234,4493.077148,4545.512695,4520.641113,4498.589844,4400.0,4384.102539,4556.538574,4523.717773,4499.358887,4413.461426,4577.563965,4386.794922,4560.384766,4518.974121,4418.077148,4542.436035,4506.666504,2909.0,1.0,20.0,2574.0,8236.0,,,,0.0,4.0,4.0,4.0,4.0,4.0,4.0,4.0,4.0,4.0,4.0,4.0,4.0,4.0,4.0,4.0,4.0,4.0,4.0,4.0,4.0,4.0,4.0,4.0,4.0,4.0,4.0,4.0,4.0,4.0,4.0,4.0,4.0,100.0,,,,,,,,,,,,,,,,,,,,,,,,,,,,,,,,,,,,,,,,,,,,,,,,,,,,,,,,,,,,,,,,,,,,,,,,,,,,,,,,,,,,,,,,,,,,,,,,,,,,,,,,,,,,,,,,,,,,,,,,,,,,,,,,,,,,,,,,,,,,,,,,,,,,,,,,,,,,,,,,,,,,,,,,,,,,,,,,,,,,,,,,,,,,,,,,,,,,,,,,,,,,,,
1763974222.231072,22688.0,0.0,4393.846191,4412.179688,4524.615234,4554.358887,4415.384766,4522.307617,4546.666504,4395.512695,4574.230957,4404.615234,4483.846191,4514.743652,4571.025879,4399.230957,4393.461426,4496.282227,4542.820313,4520.384766,4500.0,4398.717773,4389.230957,4552.692383,4518.205078,4498.077148,4398.717773,4576.666504,4394.615234,4559.230957,4515.641113,4418.717773,4546.025879,4514.358887,2812.0,1.0,20.0,2570.0,8244.0,,,,0.0,4.0,4.0,4.0,4.0,4.0,4.0,4.0,4.0,4.0,4.0,4.0,4.0,4.0,4.0,4.0,4.0,4.0,4.0,4.0,4.0,4.0,4.0,4.0,4.0,4.0,4.0,4.0,4.0,4.0,4.0,4.0,4.0,100.0,,,,,,,,,,,,,,,,,,,,,,,,,,,,,,,,,,,,,,,,,,,,,,,,,,,,,,,,,,,,,,,,,,,,,,,,,,,,,,,,,,,,,,,,,,,,,,,,,,,,,,,,,,,,,,,,,,,,,,,,,,,,,,,,,,,,,,,,,,,,,,,,,,,,,,,,,,,,,,,,,,,,,,,,,,,,,,,,,,,,,,,,,,,,,,,,,,,,,,,,,,,,,,
1763974222.234978,22689.0,0.0,4387.05127,4404.487305,4523.974121,4548.205078,4408.333496,4516.794922,4540.512695,4389.615234,4568.077148,4407.05127,4482.820313,4508.974121,4566.538574,4395.384766,4385.512695,4499.102539,4535.897461,4521.410156,4504.358887,4392.307617,4396.282227,4550.641113,4510.128418,4495.0,4386.025879,4573.205078,4399.487305,4551.794922,4506.922852,4410.256348,4546.025879,4513.333496,2903.0,1.0,20.0,2570.0,8244.0,,,,0.0,4.0,4.0,4.0,4.0,4.0,4.0,4.0,4.0,4.0,4.0,4.0,4.0,4.0,4.0,4.0,4.0,4.0,4.0,4.0,4.0,4.0,4.0,4.0,4.0,4.0,4.0,4.0,4.0,4.0,4.0,4.0,4.0,100.0,,,,,,,,,,,,,,,,,,,,,,,,,,,,,,,,,,,22056.0,0.0,0.598566,0.322144,0.288513,0.674316,0.996704,-0.119644,0.009767,30.333334,-26.833334,-23.5,,,,,,,,,,,,,,,,,,,,,,,,,,,,,,,,,,,,,,,,,,,,,,,,,,,,,,,,,,,,,,,,,,,,,,,,,,,,,,,,,,,,,,,,,,,,,,,,,,,,,,,,,,,,,,,,,,,,,,,,,,,,,,,,,,,,,,,,,,,,,,,,,,,,,,,,,,,,,,,,
1763974222.238884,22690.0,0.0,4378.846191,4395.512695,4521.282227,4541.538574,4400.256348,4509.615234,4533.205078,4380.128418,4561.794922,4401.794922,4479.102539,4502.05127,4559.358887,4390.512695,4376.538574,4502.563965,4528.974121,4524.487305,4510.384766,4386.282227,4402.436035,4550.897461,4503.974121,4492.179688,4383.461426,4570.256348,4398.333496,4542.179688,4496.282227,4397.563965,4541.538574,4503.846191,2247.0,1.0,20.0,2565.0,8252.0,,,,0.0,4.0,4.0,4.0,4.0,4.0,4.0,4.0,4.0,4.0,4.0,4.0,4.0,4.0,4.0,4.0,4.0,4.0,4.0,4.0,4.0,4.0,4.0,4.0,4.0,4.0,4.0,4.0,4.0,4.0,4.0,4.0,4.0,100.0,,,,,,,,,,,,,,,,,,,,,,,,,,,,,,,,,,,,,,,,,,,,,,,,,,,,,,,,,,,,,,,,,,,,,,,,,,,,,,,,,,,,,,,,,,,,,,,,,,,,,,,,,,,,,,,,,,,,,,,,,,,,,,,,,,,,,,,,,,,,,,,,,,,,,,,,,,,,,,,,,,,,,,,,,,,,,,,,,,,,,,,,,,,,,,,,,,,,,,,,,,,,,,
1763974222.242789,22691.0,0.0,4373.717773,4390.256348,4517.436035,4537.692383,4394.743652,4504.230957,4528.077148,4372.692383,4558.333496,4390.128418,4474.358887,4497.692383,4552.94873,4387.692383,4372.436035,4506.538574,4526.282227,4528.974121,4517.179688,4384.102539,4405.897461,4552.820313,4502.05127,4491.282227,4393.461426,4570.128418,4392.179688,4535.256348,4488.077148,4388.205078,4534.230957,4492.94873,2944.0,1.0,20.0,2565.0,8252.0,,,,0.0,4.0,4.0,4.0,4.0,4.0,4.0,4.0,4.0,4.0,4.0,4.0,4.0,4.0,4.0,4.0,4.0,4.0,4.0,4.0,4.0,4.0,4.0,4.0,4.0,4.0,4.0,4.0,4.0,4.0,4.0,4.0,4.0,100.0,,,,,,,,,,,,,,,,,,,,,,,,,,,,,,,,,,,,,,,,,,,,,,,,,,,,,,,,,,,,,,,,,,,,,,,,,,,,,,,,,,,,,,,,,,,,,,,,,,,,,,,,,,,,,,,,,,,,,,,,,,,,,,,,,,,,,,,,,,,,,,,,,,,,,,,,,,,,,,,,,,,,,,,,,,,,,,,,,,,,,,,,,,,,,,,,,,,,,,,,,,,,,,
1763974222.246695,22692.0,0.0,4374.358887,4390.769043,4513.461426,4538.717773,4394.615234,4502.94873,4526.922852,4371.025879,4558.846191,4377.94873,4470.641113,4498.333496,4550.384766,4388.589844,4375.128418,4509.743652,4529.743652,4533.333496,4523.717773,4385.384766,4406.153809,4554.743652,4503.717773,4492.563965,4411.666504,4572.05127,4385.641113,4533.589844,4485.641113,4386.666504,4527.05127,4487.94873,2833.0,1.0,20.0,2560.0,8259.0,,,,0.0,4.0,4.0,4.0,4.0,4.0,4.0,4.0,4.0,4.0,4.0,4.0,4.0,4.0,4.0,4.0,4.0,4.0,4.0,4.0,4.0,4.0,4.0,4.0,4.0,4.0,4.0,4.0,4.0,4.0,4.0,4.0,4.0,100.0,,,,,,,,,,,,,,,,,,,,,,,,,,,,,,,,,,,,,,,,,,,,,,,,,,,,,,,,,,,,,,,,,,,,,,,,,,,,,,,,,,,,,,,,,,,,,,,,,,,,,,,,,,,,,,,,,,,,,,,,,,,,,,,,,,,,,,,,,,,,,,,,,,,,,,,,,,,,,,,,,,,,,,,,,,,,,,,,,,,,,,,,,,,,,,,,,,,,,,,,,,,,,,
1763974222.250601,22693.0,0.0,4379.487305,4395.384766,4510.128418,4543.846191,4399.487305,4505.641113,4528.974121,4375.256348,4562.563965,4372.94873,4469.871582,4502.94873,4552.307617,4392.179688,4381.410156,4510.641113,4537.179688,4535.256348,4528.461426,4387.436035,4403.846191,4556.282227,4507.179688,4495.0,4429.230957,4573.846191,4383.461426,4536.025879,4488.846191,4391.794922,4523.717773,4492.307617,2364.0,1.0,20.0,2560.0,8259.0,,,,0.0,4.0,4.0,4.0,4.0,4.0,4.0,4.0,4.0,4.0,4.0,4.0,4.0,4.0,4.0,4.0,4.0,4.0,4.0,4.0,4.0,4.0,4.0,4.0,4.0,4.0,4.0,4.0,4.0,4.0,4.0,4.0,4.0,100.0,,,,,,,,,,,,,,,,,,,,,,,,,,,,,,,,,,,22057.0,0.0,0.598566,0.322144,0.288513,0.674316,1.012331,-0.112318,0.014162,29.0,-27.0,-25.333334,,,,,,,,,,,,,,,,,,,,,,,,,,,,,,,,,,,,,,,,,,,,,,,,,,,,,,,,,,,,,,,,,,,,,,,,,,,,,,,,,,,,,,,,,,,,,,,,,,,,,,,,,,,,,,,,,,,,,,,,,,,,,,,,,,,,,,,,,,,,,,,,,,,,,,,,,,,,,,,,
1763974222.254507,22694.0,0.0,4385.897461,4400.769043,4508.077148,4550.384766,4405.897461,4509.871582,4532.179688,4381.538574,4567.692383,4379.358887,4472.179688,4508.589844,4556.922852,4395.128418,4385.128418,4508.589844,4543.974121,4533.717773,4528.717773,4386.666504,4398.974121,4557.179688,4510.0,4497.179688,4437.436035,4574.487305,4386.025879,4539.358887,4494.615234,4398.717773,4525.128418,4501.922852,2921.0,1.0,20.0,2560.0,8267.0,,,,0.0,4.0,4.0,4.0,4.0,4.0,4.0,4.0,4.0,4.0,4.0,4.0,4.0,4.0,4.0,4.0,4.0,4.0,4.0,4.0,4.0,4.0,4.0,4.0,4.0,4.0,4.0,4.0,4.0,4.0,4.0,4.0,4.0,100.0,,,,,,,,,,,,,,,,,,,,,,,,,,,,,,,,,,,,,,,,,,,,,,,,,,,,,,,,,,,,,,,,,,,,,,,,,,,,,,,,,,,,,,,,,,,,,,,,,,,,,,,,,,,,,,,,,,,,,,,,,,,,,,,,,,,,,,,,,,,,,,,,,,,,,,,,,,,,,,,,,,,,,,,,,,,,,,,,,,,,,,,,,,,,,,,,,,,,,,,,,,,,,,
1763974222.258412,22695.0,0.0,4390.0,4404.487305,4507.820313,4555.128418,4409.871582,4513.205078,4535.128418,4385.641113,4573.333496,4394.615234,4476.282227,4511.538574,4561.282227,4394.358887,4382.179688,4504.102539,4546.025879,4528.846191,4523.205078,4382.563965,4392.307617,4557.307617,4511.153809,4498.974121,4432.820313,4574.487305,4389.487305,4540.641113,4499.615234,4402.94873,4530.0,4509.871582,2940.0,1.0,20.0,2560.0,8267.0,,,,0.0,4.0,4.0,4.0,4.0,4.0,4.0,4.0,4.0,4.0,4.0,4.0,4.0,4.0,4.0,4.0,4.0,4.0,4.0,4.0,4.0,4.0,4.0,4.0,4.0,4.0,4.0,4.0,4.0,4.0,4.0,4.0,4.0,100.0,,,,,,,,,,,,,,,,,,,,,,,,,,,,,,,,,,,,,,,,,,,,,,,,,,,,,,,,,,,,,,,,,,,,,,,,,,,,,,,,,,,,,,,,,,,,,,,,,,,,,,,,,,,,,,,,,,,,,,,,,,,,,,,,,,,,,,,,,,,,,,,,,,,,,,,,,,,,,,,,,,,,,,,,,,,,,,,,,,,,,,,,,,,,,,,,,,,,,,,,,,,,,,
1763974222.262318,22696.0,0.0,4391.410156,4406.410156,4509.487305,4557.179688,4410.256348,4515.0,4537.436035,4385.897461,4578.846191,4410.0,4480.769043,4511.153809,4563.461426,4389.487305,4373.846191,4499.102539,4542.820313,4522.820313,4514.102539,4377.436035,4385.256348,4556.666504,4510.769043,4500.897461,4419.102539,4575.256348,4390.641113,4540.256348,4502.307617,4404.102539,4535.384766,4511.538574,2679.0,1.0,20.0,2560.0,8275.0,,,,0.0,4.0,4.0,4.0,4.0,4.0,4.0,4.0,4.0,4.0,4.0,4.0,4.0,4.0,4.0,4.0,4.0,4.0,4.0,4.0,4.0,4.0,4.0,4.0,4.0,4.0,4.0,4.0,4.0,4.0,4.0,4.0,4.0,100.0,,,,,,,,,,,,,,,,,,,,,,,,,,,,,,,,,,,,,,,,,,,,,,,,,,,,,,,,,,,,,,,,,,,,,,,,,,,,,,,,,,,,,,,,,,,,,,,,,,,,,,,,,,,,,,,,,,,,,,,,,,,,,,,,,,,,,,,,,,,,,,,,,,,,,,,,,,,,,,,,,,,,,,,,,,,,,,,,,,,,,,,,,,,,,,,,,,,,,,,,,,,,,,
1763974222.266224,22697.0,0.0,4392.563965,4408.077148,4513.461426,4558.333496,4409.487305,4516.410156,4540.256348,4384.615234,4583.333496,4418.077148,4485.384766,4509.358887,4563.846191,4383.846191,4365.384766,4496.410156,4538.205078,4519.743652,4506.410156,4375.897461,4381.410156,4556.153809,4510.769043,4503.589844,4404.358887,4577.307617,4389.358887,4541.410156,4504.615234,4405.256348,4538.846191,4508.974121,2837.0,1.0,20.0,2560.0,8275.0,,,,0.0,4.0,4.0,4.0,4.0,4.0,4.0,4.0,4.0,4.0,4.0,4.0,4.0,4.0,4.0,4.0,4.0,4.0,4.0,4.0,4.0,4.0,4.0,4.0,4.0,4.0,4.0,4.0,4.0,4.0,4.0,4.0,4.0,100.0,,,,,,,,,,,,,,,,,,,,,,,,,,,,,,,,,,,22058.0,0.0,0.598618,0.321899,0.288391,0.674438,1.005005,-0.119155,0.014162,29.5,-26.0,-25.166666,,,,,,,,,,,,,,,,,,,,,,,,,,,,,,,,,,,,,,,,,,,,,,,,,,,,,,,,,,,,,,,,,,,,,,,,,,,,,,,,,,,,,,,,,,,,,,,,,,,,,,,,,,,,,,,,,,,,,,,,,,,,,,,,,,,,,,,,,,,,,,,,,,,,,,,,,,,,,,,,
1763974222.27013,22698.0,0.0,4396.025879,4410.641113,4518.974121,4560.256348,4410.512695,4518.717773,4544.102539,4385.0,4585.256348,4416.538574,4489.487305,4508.717773,4563.717773,4381.153809,4361.410156,4497.94873,4536.666504,4521.666504,4504.230957,4379.743652,4382.94873,4556.794922,4511.922852,4506.666504,4395.128418,4579.358887,4388.717773,4546.153809,4508.205078,4409.230957,4538.717773,4507.179688,2648.0,1.0,20.0,2561.0,8283.0,,,,0.0,4.0,4.0,4.0,4.0,4.0,4.0,4.0,4.0,4.0,4.0,4.0,4.0,4.0,4.0,4.0,4.0,4.0,4.0,4.0,4.0,4.0,4.0,4.0,4.0,4.0,4.0,4.0,4.0,4.0,4.0,4.0,4.0,100.0,,,,,,,,,,,,,,,,,,,,,,,,,,,,,,,,,,,,,,,,,,,,,,,,,,,,,,,,,,,,,,,,,,,,,,,,,,,,,,,,,,,,,,,,,,,,,,,,,,,,,,,,,,,,,,,,,,,,,,,,,,,,,,,,,,,,,,,,,,,,,,,,,,,,,,,,,,,,,,,,,,,,,,,,,,,,,,,,,,,,,,,,,,,,,,,,,,,,,,,,,,,,,,
1763974222.274036,22699.0,0.0,4400.384766,4412.307617,4524.743652,4562.179688,4413.717773,4521.153809,4547.179688,4387.692383,4583.589844,4408.333496,4491.666504,4509.743652,4563.077148,4383.077148,4362.820313,4502.436035,4538.461426,4526.538574,4507.179688,4386.153809,4388.205078,4558.333496,4513.461426,4508.205078,4393.846191,4579.230957,4390.512695,4552.563965,4512.179688,4415.384766,4534.871582,4508.589844,2989.0,1.0,20.0,2561.0,8283.0,,,,0.0,4.0,4.0,4.0,4.0,4.0,4.0,4.0,4.0,4.0,4.0,4.0,4.0,4.0,4.0,4.0,4.0,4.0,4.0,4.0,4.0,4.0,4.0,4.0,4.0,4.0,4.0,4.0,4.0,4.0,4.0,4.0,4.0,100.0,,,,,,,,,,,,,,,,,,,,,,,,,,,,,,,,,,,,,,,,,,,,,,,,,,,,,,,,,,,,,,,,,,,,,,,,,,,,,,,,,,,,,,,,,,,,,,,,,,,,,,,,,,,,,,,,,,,,,,,,,,,,,,,,,,,,,,,,,,,,,,,,,,,,,,,,,,,,,,,,,,,,,,,,,,,,,,,,,,,,,,,,,,,,,,,,,,,,,,,,,,,,,,
1763974222.277941,22700.0,0.0,4402.307617,4410.384766,4528.205078,4561.538574,4416.282227,4521.922852,4546.794922,4390.512695,4578.589844,4397.05127,4490.512695,4510.256348,4560.769043,4387.692383,4366.282227,4506.025879,4540.0,4529.358887,4509.358887,4389.871582,4392.05127,4558.974121,4512.94873,4505.769043,4398.846191,4576.538574,4393.205078,4556.410156,4513.974121,4418.717773,4530.0,4510.641113,2941.0,1.0,20.0,2562.0,8291.0,,,,0.0,4.0,4.0,4.0,4.0,4.0,4.0,4.0,4.0,4.0,4.0,4.0,4.0,4.0,4.0,4.0,4.0,4.0,4.0,4.0,4.0,4.0,4.0,4.0,4.0,4.0,4.0,4.0,4.0,4.0,4.0,4.0,4.0,100.0,,,,,,,,,,,,,,,,,,,,,,,,,,,,,,,,,,,,,,,,,,,,,,,,,,,,,,,,,,,,,,,,,,,,,,,,,,,,,,,,,,,,,,,,,,,,,,,,,,,,,,,,,,,,,,,,,,,,,,,,,,,,,,,,,,,,,,,,,,,,,,,,,,,,,,,,,,,,,,,,,,,,,,,,,,,,,,,,,,,,,,,,,,,,,,,,,,,,,,,,,,,,,,
1763974222.281847,22701.0,0.0,4398.846191,4404.102539,4527.820313,4557.563965,4416.025879,4519.743652,4542.05127,4391.153809,4572.820313,4385.512695,4486.282227,4507.692383,4556.282227,4391.794922,4367.436035,4504.871582,4537.563965,4527.05127,4505.128418,4387.94873,4389.615234,4557.05127,4509.487305,4500.0,4407.179688,4572.692383,4393.077148,4554.743652,4511.666504,4414.743652,4527.436035,4509.871582,2778.0,1.0,20.0,2562.0,8291.0,,,,0.0,4.0,4.0,4.0,4.0,4.0,4.0,4.0,4.0,4.0,4.0,4.0,4.0,4.0,4.0,4.0,4.0,4.0,4.0,4.0,4.0,4.0,4.0,4.0,4.0,4.0,4.0,4.0,4.0,4.0,4.0,4.0,4.0,100.0,,,,,,,,,,,,,,,,,,,,,,,,,,,,,,,,,,,22059.0,0.0,0.598693,0.321777,0.288086,0.674561,1.010377,-0.122085,-0.011232,29.833334,-25.0,-24.166666,,,,,,,,,,,,,,,,,,,,,,,,,,,,,,,,,,,,,,,,,,,,,,,,,,,,,,,,,,,,,,,,,,,,,,,,,,,,,,,,,,,,,,,,,,,,,,,,,,,,,,,,,,,,,,,,,,,,,,,,,,,,,,,,,,,,,,,,,,,,,,,,,,,,,,,,,,,,,,,,
1763974222.285753,22702.0,0.0,4391.538574,4395.512695,4523.589844,4551.794922,4412.436035,4515.0,4535.512695,4388.846191,4568.846191,4376.282227,4481.025879,4501.538574,4550.512695,4392.820313,4364.358887,4499.743652,4530.897461,4521.025879,4495.0,4381.153809,4380.512695,4552.179688,4504.358887,4493.974121,4416.025879,4569.871582,4387.563965,4548.333496,4506.282227,4403.461426,4527.94873,4505.128418,2736.0,1.0,20.0,2563.0,8298.0,,,,0.0,4.0,4.0,4.0,4.0,4.0,4.0,4.0,4.0,4.0,4.0,4.0,4.0,4.0,4.0,4.0,4.0,4.0,4.0,4.0,4.0,4.0,4.0,4.0,4.0,4.0,4.0,4.0,4.0,4.0,4.0,4.0,4.0,100.0,,,,,,,,,,,,,,,,,,,,,,,,,,,,,,,,,,,,,,,,,,,,,,,1.594258,1.53896,1.583673,0.851813,0.935199,1.826529,2.418334,1.829577,0.807877,0.88129,0.244779,2.550389,1.321952,1.014598,1.295616,0.421537,1.899594,1.252463,0.632269,1.118706,0.644789,1.032496,0.85131,0.634639,0.60113,0.837231,1.008541,0.602587,0.523379,0.442935,1.722055,2.290228,0.972575,0.69592,0.676972,0.643515,1.559587,1.068351,0.842443,0.841964,0.658944,1.205713,0.922388,0.756701,0.747438,0.869581,1.340969,2.609481,5.286664,4.083426,0.88004,2.113983,0.776692,1.167134,0.840518,1.382846,1.729595,1.332419,0.608764,0.85495,0.895459,1.60707,0.749394,0.902792,0.743472,0.601721,1.049375,0.721319,1.107767,1.305661,0.35837,1.04819,0.463816,0.60454,0.752749,0.677792,1.580223,1.058456,0.958677,1.184963,0.992345,2.076186,0.918808,0.675525,0.702963,0.657116,1.84346,1.08023,0.950452,1.529446,0.821492,2.478193,1.946028,1.009656,2.177722,0.694588,1.760196,1.194585,0.820224,1.363185,1.117619,2.673086,0.975592,1.082297,1.358657,0.887213,2.57109,1.697572,0.967702,1.221145,1.151145,1.7712,1.479481,0.914019,0.939048,0.54893,2.126797,1.831639,1.01675,1.125129,0.686987,1.740387,1.360631,2.65309,2.320517,0.527708,2.676848,0.970704,0.585995,1.074296,0.924852,2.497603,2.764407,1.35612,2.218538,0.880012,2.297986,2.021918,1.151797,1.440095,1.598023,2.049182,2.24583,1.187271,1.29073,0.7275,2.153924,3.114076,0.856907,1.562902,0.711953,2.847215,1.480357,0.786208,1.521645,0.41809,2.842278,3.132191,1.637534,1.871833
