title:Happy5, start timestamp:1764666882.626164, stop timestamp:1764666892.242764, headset type:FLEX2, headset serial:F30002B4, headset firmware:2f10, channels:283, sampling rate:eeg_256;mot_64;pow_8, samples:2463      , version:2.2, ,,,,,,,,,,,,,,,,,,,,,,,,,,,,,,,,,,,,,,,,,,,,,,,,,,,,,,,,,,,,,,,,,,,,,,,,,,,,,,,,,,,,,,,,,,,,,,,,,,,,,,,,,,,,,,,,,,,,,,,,,,,,,,,,,,,,,,,,,,,,,,,,,,,,,,,,,,,,,,,,,,,,,,,,,,,,,,,,,,,,,,,,,,,,,,,,,,,,,,,,,,,,,,,,,,,,,,,,,,,,,,,,,,,,,,,,,,,,,,,,,,,,,,,,,,,,,,,,,,,,,,,,,,,,,,,,
Timestamp,EEG.Counter,EEG.Interpolated,EEG.Cz,EEG.Fz,EEG.Fp1,EEG.F7,EEG.F3,EEG.FC1,EEG.C3,EEG.FC5,EEG.FT9,EEG.T7,EEG.CP5,EEG.CP1,EEG.P3,EEG.P7,EEG.PO9,EEG.O1,EEG.Pz,EEG.Oz,EEG.O2,EEG.PO10,EEG.P8,EEG.P4,EEG.CP2,EEG.CP6,EEG.T8,EEG.FT10,EEG.FC6,EEG.C4,EEG.FC2,EEG.F4,EEG.F8,EEG.Fp2,EEG.RawCq,EEG.Battery,EEG.BatteryPercent,EEG.FwBufferSize,EEG.FwClockTime,MarkerIndex,MarkerType,MarkerValueInt,EEG.MarkerHardware,CQ.Cz,CQ.Fz,CQ.Fp1,CQ.F7,CQ.F3,CQ.FC1,CQ.C3,CQ.FC5,CQ.FT9,CQ.T7,CQ.CP5,CQ.CP1,CQ.P3,CQ.P7,CQ.PO9,CQ.O1,CQ.Pz,CQ.Oz,CQ.O2,CQ.PO10,CQ.P8,CQ.P4,CQ.CP2,CQ.CP6,CQ.T8,CQ.FT10,CQ.FC6,CQ.C4,CQ.FC2,CQ.F4,CQ.F8,CQ.Fp2,CQ.Overall,EQ.SampleRateQuality,EQ.OVERALL,EQ.Cz,EQ.Fz,EQ.Fp1,EQ.F7,EQ.F3,EQ.FC1,EQ.C3,EQ.FC5,EQ.FT9,EQ.T7,EQ.CP5,EQ.CP1,EQ.P3,EQ.P7,EQ.PO9,EQ.O1,EQ.Pz,EQ.Oz,EQ.O2,EQ.PO10,EQ.P8,EQ.P4,EQ.CP2,EQ.CP6,EQ.T8,EQ.FT10,EQ.FC6,EQ.C4,EQ.FC2,EQ.F4,EQ.F8,EQ.Fp2,MOT.CounterMems,MOT.InterpolatedMems,MOT.Q0,MOT.Q1,MOT.Q2,MOT.Q3,MOT.AccX,MOT.AccY,MOT.AccZ,MOT.MagX,MOT.MagY,MOT.MagZ,POW.Cz.Theta,POW.Cz.Alpha,POW.Cz.BetaL,POW.Cz.BetaH,POW.Cz.Gamma,POW.Fz.Theta,POW.Fz.Alpha,POW.Fz.BetaL,POW.Fz.BetaH,POW.Fz.Gamma,POW.Fp1.Theta,POW.Fp1.Alpha,POW.Fp1.BetaL,POW.Fp1.BetaH,POW.Fp1.Gamma,POW.F7.Theta,POW.F7.Alpha,POW.F7.BetaL,POW.F7.BetaH,POW.F7.Gamma,POW.F3.Theta,POW.F3.Alpha,POW.F3.BetaL,POW.F3.BetaH,POW.F3.Gamma,POW.FC1.Theta,POW.FC1.Alpha,POW.FC1.BetaL,POW.FC1.BetaH,POW.FC1.Gamma,POW.C3.Theta,POW.C3.Alpha,POW.C3.BetaL,POW.C3.BetaH,POW.C3.Gamma,POW.FC5.Theta,POW.FC5.Alpha,POW.FC5.BetaL,POW.FC5.BetaH,POW.FC5.Gamma,POW.FT9.Theta,POW.FT9.Alpha,POW.FT9.BetaL,POW.FT9.BetaH,POW.FT9.Gamma,POW.T7.Theta,POW.T7.Alpha,POW.T7.BetaL,POW.T7.BetaH,POW.T7.Gamma,POW.CP5.Theta,POW.CP5.Alpha,POW.CP5.BetaL,POW.CP5.BetaH,POW.CP5.Gamma,POW.CP1.Theta,POW.CP1.Alpha,POW.CP1.BetaL,POW.CP1.BetaH,POW.CP1.Gamma,POW.P3.Theta,POW.P3.Alpha,POW.P3.BetaL,POW.P3.BetaH,POW.P3.Gamma,POW.P7.Theta,POW.P7.Alpha,POW.P7.BetaL,POW.P7.BetaH,POW.P7.Gamma,POW.PO9.Theta,POW.PO9.Alpha,POW.PO9.BetaL,POW.PO9.BetaH,POW.PO9.Gamma,POW.O1.Theta,POW.O1.Alpha,POW.O1.BetaL,POW.O1.BetaH,POW.O1.Gamma,POW.Pz.Theta,POW.Pz.Alpha,POW.Pz.BetaL,POW.Pz.BetaH,POW.Pz.Gamma,POW.Oz.Theta,POW.Oz.Alpha,POW.Oz.BetaL,POW.Oz.BetaH,POW.Oz.Gamma,POW.O2.Theta,POW.O2.Alpha,POW.O2.BetaL,POW.O2.BetaH,POW.O2.Gamma,POW.PO10.Theta,POW.PO10.Alpha,POW.PO10.BetaL,POW.PO10.BetaH,POW.PO10.Gamma,POW.P8.Theta,POW.P8.Alpha,POW.P8.BetaL,POW.P8.BetaH,POW.P8.Gamma,POW.P4.Theta,POW.P4.Alpha,POW.P4.BetaL,POW.P4.BetaH,POW.P4.Gamma,POW.CP2.Theta,POW.CP2.Alpha,POW.CP2.BetaL,POW.CP2.BetaH,POW.CP2.Gamma,POW.CP6.Theta,POW.CP6.Alpha,POW.CP6.BetaL,POW.CP6.BetaH,POW.CP6.Gamma,POW.T8.Theta,POW.T8.Alpha,POW.T8.BetaL,POW.T8.BetaH,POW.T8.Gamma,POW.FT10.Theta,POW.FT10.Alpha,POW.FT10.BetaL,POW.FT10.BetaH,POW.FT10.Gamma,POW.FC6.Theta,POW.FC6.Alpha,POW.FC6.BetaL,POW.FC6.BetaH,POW.FC6.Gamma,POW.C4.Theta,POW.C4.Alpha,POW.C4.BetaL,POW.C4.BetaH,POW.C4.Gamma,POW.FC2.Theta,POW.FC2.Alpha,POW.FC2.BetaL,POW.FC2.BetaH,POW.FC2.Gamma,POW.F4.Theta,POW.F4.Alpha,POW.F4.BetaL,POW.F4.BetaH,POW.F4.Gamma,POW.F8.Theta,POW.F8.Alpha,POW.F8.BetaL,POW.F8.BetaH,POW.F8.Gamma,POW.Fp2.Theta,POW.Fp2.Alpha,POW.Fp2.BetaL,POW.Fp2.BetaH,POW.Fp2.Gamma
1764666885.868153,8923,0,4401.794922,4447.307617,4560.128418,4491.794922,4441.794922,4536.025879,4557.307617,4402.692383,4652.820313,4418.461426,4536.794922,4556.282227,4600.128418,4433.717773,4441.025879,4526.794922,4561.922852,4597.05127,4558.461426,4415.897461,4404.615234,4506.538574,4535.128418,4494.102539,4410.512695,4756.025879,4396.666504,4565.384766,4522.563965,4430.256348,4537.94873,4554.743652,2617,1,17,2576,58414,1,1,1,0,4,4,4,4,4,4,4,4,4,4,4,4,4,4,4,4,4,4,4,4,4,4,4,4,4,4,4,4,4,4,4,4,100,,,,,,,,,,,,,,,,,,,,,,,,,,,,,,,,,,,,,,,,,,,,,,,,,,,,,,,,,,,,,,,,,,,,,,,,,,,,,,,,,,,,,,,,,,,,,,,,,,,,,,,,,,,,,,,,,,,,,,,,,,,,,,,,,,,,,,,,,,,,,,,,,,,,,,,,,,,,,,,,,,,,,,,,,,,,,,,,,,,,,,,,,,,,,,,,,,,,,,,,,,,,,,
1764666885.872059,8924,0,4404.358887,4450.897461,4560,4493.974121,4444.358887,4540.641113,4560.128418,4407.820313,4658.461426,4410.384766,4534.487305,4552.692383,4591.794922,4434.102539,4447.05127,4544.102539,4559.230957,4591.922852,4545.128418,4410.641113,4413.333496,4485.384766,4527.94873,4473.333496,4434.743652,4773.846191,4392.563965,4559.358887,4523.589844,4433.589844,4540.769043,4555,2769,1,17,2576,58422,,,,0,4,4,4,4,4,4,4,4,4,4,4,4,4,4,4,4,4,4,4,4,4,4,4,4,4,4,4,4,4,4,4,4,100,,,,,,,,,,,,,,,,,,,,,,,,,,,,,,,,,,,,,,,,,,,,,,,,,,,,,,,,,,,,,,,,,,,,,,,,,,,,,,,,,,,,,,,,,,,,,,,,,,,,,,,,,,,,,,,,,,,,,,,,,,,,,,,,,,,,,,,,,,,,,,,,,,,,,,,,,,,,,,,,,,,,,,,,,,,,,,,,,,,,,,,,,,,,,,,,,,,,,,,,,,,,,,
1764666885.875965,8925,0,4396.666504,4437.820313,4543.333496,4478.461426,4430.769043,4533.461426,4548.974121,4398.589844,4653.333496,4363.333496,4519.358887,4535.769043,4570,4425.641113,4424.358887,4539.871582,4539.230957,4556.794922,4504.358887,4380.128418,4374.615234,4463.461426,4512.436035,4458.717773,4417.179688,4775.128418,4386.025879,4546.025879,4517.307617,4425.769043,4531.922852,4540.769043,2618,1,17,2576,58422,,,,0,4,4,4,4,4,4,4,4,4,4,4,4,4,4,4,4,4,4,4,4,4,4,4,4,4,4,4,4,4,4,4,4,100,,,,,,,,,,,,,,,,,,,,,,,,,,,,,,,,,,,2231,0,0.517122,-0.465515,-0.380188,0.609375,0.989867,-0.090343,0.037114,9.166667,48.666668,-11,,,,,,,,,,,,,,,,,,,,,,,,,,,,,,,,,,,,,,,,,,,,,,,,,,,,,,,,,,,,,,,,,,,,,,,,,,,,,,,,,,,,,,,,,,,,,,,,,,,,,,,,,,,,,,,,,,,,,,,,,,,,,,,,,,,,,,,,,,,,,,,,,,,,,,,,,,,,,,,,
1764666885.879871,8926,0,4379.615234,4411.282227,4517.563965,4452.307617,4406.025879,4514.871582,4526.922852,4377.820313,4632.307617,4297.94873,4499.871582,4512.307617,4545.384766,4411.666504,4384.102539,4511.666504,4510.128418,4506.922852,4454.871582,4337.563965,4303.205078,4448.205078,4494.615234,4455.512695,4366.410156,4760.512695,4375.256348,4530,4504.743652,4407.179688,4511.794922,4517.692383,2736,1,17,2575,58430,,,,0,4,4,4,4,4,4,4,4,4,4,4,4,4,4,4,4,4,4,4,4,4,4,4,4,4,4,4,4,4,4,4,4,100,,,,,,,,,,,,,,,,,,,,,,,,,,,,,,,,,,,,,,,,,,,,,,,,,,,,,,,,,,,,,,,,,,,,,,,,,,,,,,,,,,,,,,,,,,,,,,,,,,,,,,,,,,,,,,,,,,,,,,,,,,,,,,,,,,,,,,,,,,,,,,,,,,,,,,,,,,,,,,,,,,,,,,,,,,,,,,,,,,,,,,,,,,,,,,,,,,,,,,,,,,,,,,
1764666885.883777,8927,0,4362.563965,4385.897461,4497.820313,4432.692383,4384.358887,4495.256348,4508.205078,4360,4605.641113,4252.436035,4491.538574,4495.641113,4532.820313,4395.641113,4351.922852,4477.179688,4487.563965,4469.871582,4423.205078,4305.897461,4240,4442.820313,4483.589844,4460.128418,4300.512695,4742.179688,4365.256348,4520.128418,4492.436035,4387.563965,4490.128418,4498.717773,2867,1,17,2575,58430,,,,0,4,4,4,4,4,4,4,4,4,4,4,4,4,4,4,4,4,4,4,4,4,4,4,4,4,4,4,4,4,4,4,4,100,,,,,,,,,,,,,,,,,,,,,,,,,,,,,,,,,,,,,,,,,,,,,,,,,,,,,,,,,,,,,,,,,,,,,,,,,,,,,,,,,,,,,,,,,,,,,,,,,,,,,,,,,,,,,,,,,,,,,,,,,,,,,,,,,,,,,,,,,,,,,,,,,,,,,,,,,,,,,,,,,,,,,,,,,,,,,,,,,,,,,,,,,,,,,,,,,,,,,,,,,,,,,,
1764666885.887683,8928,0,4356.282227,4376.153809,4495.384766,4432.179688,4378.717773,4487.563965,4506.410156,4358.974121,4591.153809,4253.077148,4503.589844,4495.641113,4540,4381.922852,4347.94873,4459.743652,4483.333496,4465.641113,4425.897461,4302.563965,4223.461426,4444.102539,4484.487305,4463.205078,4241.922852,4733.205078,4363.717773,4522.05127,4487.563965,4378.589844,4478.846191,4493.974121,2793,1,17,2576,58438,,,,0,4,4,4,4,4,4,4,4,4,4,4,4,4,4,4,4,4,4,4,4,4,4,4,4,4,4,4,4,4,4,4,4,100,,,,,,,,,,,,,,,,,,,,,,,,,,,,,,,,,,,,,,,,,,,,,,,,,,,,,,,,,,,,,,,,,,,,,,,,,,,,,,,,,,,,,,,,,,,,,,,,,,,,,,,,,,,,,,,,,,,,,,,,,,,,,,,,,,,,,,,,,,,,,,,,,,,,,,,,,,,,,,,,,,,,,,,,,,,,,,,,,,,,,,,,,,,,,,,,,,,,,,,,,,,,,,
1764666885.891589,8929,0,4364.615234,4386.410156,4508.589844,4449.615234,4390.641113,4496.410156,4523.333496,4375.128418,4599.871582,4295,4530.897461,4511.282227,4561.410156,4374.358887,4371.282227,4470.641113,4497.563965,4492.436035,4458.333496,4327.692383,4262.05127,4445.128418,4495,4456.794922,4214.743652,4738.205078,4372.692383,4532.307617,4492.307617,4384.615234,4483.846191,4503.461426,2993,1,17,2576,58438,,,,0,4,4,4,4,4,4,4,4,4,4,4,4,4,4,4,4,4,4,4,4,4,4,4,4,4,4,4,4,4,4,4,4,100,,,,,,,,,,,,,,,,,,,,,,,,,,,,,,,,,,,2232,0,0.518343,-0.465942,-0.379761,0.608276,1.070932,-0.060554,0.061531,8.666667,48.333332,-11.333333,,,,,,,,,,,,,,,,,,,,,,,,,,,,,,,,,,,,,,,,,,,,,,,,,,,,,,,,,,,,,,,,,,,,,,,,,,,,,,,,,,,,,,,,,,,,,,,,,,,,,,,,,,,,,,,,,,,,,,,,,,,,,,,,,,,,,,,,,,,,,,,,,,,,,,,,,,,,,,,,
1764666885.895495,8930,0,4381.410156,4407.436035,4525.512695,4472.05127,4409.743652,4515,4547.436035,4395.512695,4626.794922,4348.589844,4557.563965,4531.922852,4582.820313,4375,4403.077148,4499.487305,4519.358887,4528.846191,4496.666504,4363.077148,4326.410156,4442.05127,4507.692383,4443.205078,4233.333496,4752.307617,4386.153809,4541.922852,4501.922852,4399.615234,4501.153809,4518.333496,2657,1,17,2576,58445,,,,0,4,4,4,4,4,4,4,4,4,4,4,4,4,4,4,4,4,4,4,4,4,4,4,4,4,4,4,4,4,4,4,4,100,,,,,,,,,,,,,,,,,,,,,,,,,,,,,,,,,,,,,,,,,,,,,,,,,,,,,,,,,,,,,,,,,,,,,,,,,,,,,,,,,,,,,,,,,,,,,,,,,,,,,,,,,,,,,,,,,,,,,,,,,,,,,,,,,,,,,,,,,,,,,,,,,,,,,,,,,,,,,,,,,,,,,,,,,,,,,,,,,,,,,,,,,,,,,,,,,,,,,,,,,,,,,,
1764666885.899401,8931,0,4395.256348,4424.102539,4533.846191,4485.256348,4422.436035,4530,4562.563965,4404.615234,4655,4382.436035,4567.307617,4544.487305,4591.410156,4381.153809,4421.538574,4523.077148,4534.615234,4548.077148,4513.589844,4384.230957,4366.538574,4437.563965,4515.384766,4433.333496,4287.179688,4767.94873,4394.230957,4544.358887,4509.358887,4412.307617,4519.871582,4527.692383,2850,1,17,2576,58445,,,,0,4,4,4,4,4,4,4,4,4,4,4,4,4,4,4,4,4,4,4,4,4,4,4,4,4,4,4,4,4,4,4,4,100,,,,,,,,,,,,,,,,,,,,,,,,,,,,,,,,,,,,,,,,,,,,,,,,,,,,,,,,,,,,,,,,,,,,,,,,,,,,,,,,,,,,,,,,,,,,,,,,,,,,,,,,,,,,,,,,,,,,,,,,,,,,,,,,,,,,,,,,,,,,,,,,,,,,,,,,,,,,,,,,,,,,,,,,,,,,,,,,,,,,,,,,,,,,,,,,,,,,,,,,,,,,,,
1764666885.903308,8932,0,4396.922852,4425.256348,4528.589844,4482.436035,4420.641113,4530.512695,4558.974121,4395.256348,4666.666504,4382.179688,4553.589844,4541.794922,4583.717773,4384.743652,4417.179688,4523.717773,4534.871582,4536.666504,4497.692383,4377.179688,4347.436035,4437.563965,4515,4437.563965,4343.333496,4779.871582,4390.769043,4539.615234,4509.487305,4413.846191,4528.333496,4525.256348,2769,1,17,2576,58453,,,,0,4,4,4,4,4,4,4,4,4,4,4,4,4,4,4,4,4,4,4,4,4,4,4,4,4,4,4,4,4,4,4,4,100,,,,,,,,,,,,,,,,,,,,,,,,,,,,,,,,,,,,,,,,,,,,,,,,,,,,,,,,,,,,,,,,,,,,,,,,,,,,,,,,,,,,,,,,,,,,,,,,,,,,,,,,,,,,,,,,,,,,,,,,,,,,,,,,,,,,,,,,,,,,,,,,,,,,,,,,,,,,,,,,,,,,,,,,,,,,,,,,,,,,,,,,,,,,,,,,,,,,,,,,,,,,,,
1764666885.907214,8933,0,4384.871582,4409.871582,4513.974121,4466.922852,4405.897461,4515.128418,4539.102539,4373.077148,4653.846191,4354.230957,4523.461426,4526.153809,4565.641113,4378.205078,4396.410156,4501.025879,4521.410156,4502.05127,4460,4346.922852,4275,4444.743652,4508.333496,4455.256348,4369.871582,4784.615234,4376.922852,4532.307617,4502.307617,4402.94873,4520.512695,4512.179688,2805,1,17,2576,58453,,,,0,4,4,4,4,4,4,4,4,4,4,4,4,4,4,4,4,4,4,4,4,4,4,4,4,4,4,4,4,4,4,4,4,100,,,,,,,,,,,,,,,,,,,,,,,,,,,,,,,,,,,2233,0,0.518256,-0.467102,-0.378845,0.608032,1.026492,-0.080088,0.063484,8.666667,48.333332,-11.333333,,,,,,,,,,,,,,,,,,,,,,,,,,,,,,,,,,,,,,,,,,,,,,,,,,,,,,,,,,,,,,,,,,,,,,,,,,,,,,,,,,,,,,,,,,,,,,,,,,,,,,,,,,,,,,,,,,,,,,,,,,,,,,,,,,,,,,,,,,,,,,,,,,,,,,,,,,,,,,,,
1764666885.911120,8934,0,4367.05127,4388.205078,4499.615234,4448.974121,4387.436035,4493.589844,4516.153809,4352.307617,4624.102539,4318.461426,4493.077148,4508.333496,4548.589844,4362.179688,4375.256348,4470.641113,4503.461426,4466.666504,4425.256348,4314.102539,4190.897461,4455.512695,4500.512695,4474.871582,4359.743652,4781.025879,4361.538574,4527.307617,4492.563965,4387.436035,4501.282227,4496.153809,2836,1,17,2576,58461,,,,0,4,4,4,4,4,4,4,4,4,4,4,4,4,4,4,4,4,4,4,4,4,4,4,4,4,4,4,4,4,4,4,4,100,,,,,,,,,,,,,,,,,,,,,,,,,,,,,,,,,,,,,,,,,,,,,,,,,,,,,,,,,,,,,,,,,,,,,,,,,,,,,,,,,,,,,,,,,,,,,,,,,,,,,,,,,,,,,,,,,,,,,,,,,,,,,,,,,,,,,,,,,,,,,,,,,,,,,,,,,,,,,,,,,,,,,,,,,,,,,,,,,,,,,,,,,,,,,,,,,,,,,,,,,,,,,,
1764666885.915026,8935,0,4355.897461,4375.384766,4494.487305,4439.487305,4377.179688,4480.641113,4505.128418,4346.282227,4596.794922,4298.717773,4479.230957,4500.512695,4541.922852,4345.384766,4367.94873,4452.179688,4493.333496,4453.205078,4414.358887,4301.025879,4141.794922,4463.461426,4497.179688,4483.974121,4331.922852,4773.974121,4356.666504,4528.333496,4486.922852,4379.102539,4486.153809,4488.205078,3010,1,17,2576,58461,,,,0,4,4,4,4,4,4,4,4,4,4,4,4,4,4,4,4,4,4,4,4,4,4,4,4,4,4,4,4,4,4,4,4,100,,,,,,,,,,,,,,,,,,,,,,,,,,,,,,,,,,,,,,,,,,,,,,,,,,,,,,,,,,,,,,,,,,,,,,,,,,,,,,,,,,,,,,,,,,,,,,,,,,,,,,,,,,,,,,,,,,,,,,,,,,,,,,,,,,,,,,,,,,,,,,,,,,,,,,,,,,,,,,,,,,,,,,,,,,,,,,,,,,,,,,,,,,,,,,,,,,,,,,,,,,,,,,
1764666885.918932,8936,0,4361.025879,4382.692383,4504.102539,4445.512695,4383.077148,4487.820313,4514.487305,4360.128418,4591.922852,4310.256348,4489.871582,4509.871582,4549.230957,4338.461426,4378.589844,4456.794922,4499.871582,4472.05127,4434.615234,4318.974121,4148.717773,4466.282227,4502.94873,4480.512695,4314.743652,4775.512695,4371.282227,4538.333496,4491.025879,4387.307617,4491.538574,4497.179688,2920,1,17,2576,58469,,,,0,4,4,4,4,4,4,4,4,4,4,4,4,4,4,4,4,4,4,4,4,4,4,4,4,4,4,4,4,4,4,4,4,100,,,,,,,,,,,,,,,,,,,,,,,,,,,,,,,,,,,,,,,,,,,,,,,,,,,,,,,,,,,,,,,,,,,,,,,,,,,,,,,,,,,,,,,,,,,,,,,,,,,,,,,,,,,,,,,,,,,,,,,,,,,,,,,,,,,,,,,,,,,,,,,,,,,,,,,,,,,,,,,,,,,,,,,,,,,,,,,,,,,,,,,,,,,,,,,,,,,,,,,,,,,,,,
1764666885.922838,8937,0,4383.974121,4411.153809,4527.94873,4467.436035,4405.641113,4516.025879,4541.922852,4389.102539,4618.333496,4351.410156,4521.282227,4535,4567.563965,4345.641113,4399.615234,4482.692383,4524.230957,4516.666504,4476.538574,4362.307617,4199.358887,4468.974121,4519.871582,4474.487305,4327.179688,4798.461426,4405,4558.974121,4506.410156,4412.436035,4523.077148,4523.846191,2753,1,17,2576,58469,,,,0,4,4,4,4,4,4,4,4,4,4,4,4,4,4,4,4,4,4,4,4,4,4,4,4,4,4,4,4,4,4,4,4,100,,,,,,,,,,,,,,,,,,,,,,,,,,,,,,,,,,,2234,0,0.517173,-0.46875,-0.377502,0.608521,0.909779,-0.158222,0.03223,6.5,48.166668,-10.333333,,,,,,,,,,,,,,,,,,,,,,,,,,,,,,,,,,,,,,,,,,,,,,,,,,,,,,,,,,,,,,,,,,,,,,,,,,,,,,,,,,,,,,,,,,,,,,,,,,,,,,,,,,,,,,,,,,,,,,,,,,,,,,,,,,,,,,,,,,,,,,,,,,,,,,,,,,,,,,,,
1764666885.926744,8938,0,4416.153809,4449.358887,4559.487305,4498.077148,4436.666504,4554.230957,4576.153809,4421.922852,4665.897461,4403.589844,4559.615234,4566.153809,4590,4362.563965,4420,4516.410156,4557.820313,4565.641113,4518.974121,4410.128418,4261.538574,4478.974121,4544.358887,4478.205078,4366.538574,4840.641113,4444.743652,4586.282227,4528.717773,4445.384766,4568.461426,4559.358887,1496,1,17,2576,58477,,,,0,4,4,4,4,4,4,4,4,4,4,4,4,4,4,4,4,4,4,4,4,4,4,4,4,4,4,4,4,4,4,4,4,100,,,,,,,,,,,,,,,,,,,,,,,,,,,,,,,,,,,,,,,,,,,,,,,,,,,,,,,,,,,,,,,,,,,,,,,,,,,,,,,,,,,,,,,,,,,,,,,,,,,,,,,,,,,,,,,,,,,,,,,,,,,,,,,,,,,,,,,,,,,,,,,,,,,,,,,,,,,,,,,,,,,,,,,,,,,,,,,,,,,,,,,,,,,,,,,,,,,,,,,,,,,,,,
1764666885.930650,8939,0,4441.922852,4478.333496,4585.769043,4523.717773,4461.282227,4583.846191,4601.410156,4444.743652,4708.333496,4438.974121,4585.769043,4589.230957,4606.794922,4378.333496,4430.897461,4539.743652,4584.615234,4592.05127,4537.307617,4436.538574,4302.94873,4495.769043,4565.897461,4493.461426,4411.410156,4880.256348,4469.615234,4608.461426,4547.307617,4469.487305,4602.179688,4587.179688,2726,1,17,2576,58477,,,,0,4,4,4,4,4,4,4,4,4,4,4,4,4,4,4,4,4,4,4,4,4,4,4,4,4,4,4,4,4,4,4,4,100,,,,,,,,,,,,,,,,,,,,,,,,,,,,,,,,,,,,,,,,,,,,,,,,,,,,,,,,,,,,,,,,,,,,,,,,,,,,,,,,,,,,,,,,,,,,,,,,,,,,,,,,,,,,,,,,,,,,,,,,,,,,,,,,,,,,,,,,,,,,,,,,,,,,,,,,,,,,,,,,,,,,,,,,,,,,,,,,,,,,,,,,,,,,,,,,,,,,,,,,,,,,,,
1764666885.934556,8940,0,4445.128418,4480.384766,4591.538574,4528.717773,4463.717773,4587.692383,4603.846191,4445.641113,4718.205078,4435.512695,4584.102539,4590.512695,4607.692383,4380.512695,4428.589844,4539.230957,4588.205078,4578.461426,4518.717773,4426.153809,4308.461426,4508.717773,4570.384766,4506.666504,4435.128418,4888.461426,4462.563965,4610,4550.256348,4469.487305,4600.641113,4590,2512,1,17,2576,58484,,,,0,4,4,4,4,4,4,4,4,4,4,4,4,4,4,4,4,4,4,4,4,4,4,4,4,4,4,4,4,4,4,4,4,100,,,,,,,,,,,,,,,,,,,,,,,,,,,,,,,,,,,,,,,,,,,,,,,,,,,,,,,,,,,,,,,,,,,,,,,,,,,,,,,,,,,,,,,,,,,,,,,,,,,,,,,,,,,,,,,,,,,,,,,,,,,,,,,,,,,,,,,,,,,,,,,,,,,,,,,,,,,,,,,,,,,,,,,,,,,,,,,,,,,,,,,,,,,,,,,,,,,,,,,,,,,,,,
1764666885.938462,8941,0,4419.871582,4450.384766,4567.94873,4504.743652,4437.307617,4559.871582,4579.358887,4420.512695,4684.871582,4389.871582,4551.666504,4565.641113,4587.94873,4363.717773,4412.436035,4514.487305,4562.94873,4532.05127,4475.384766,4386.538574,4289.358887,4504.230957,4550.128418,4497.436035,4424.615234,4853.846191,4421.794922,4582.692383,4532.05127,4441.025879,4559.615234,4561.922852,2274,1,17,2576,58484,,,,0,4,4,4,4,4,4,4,4,4,4,4,4,4,4,4,4,4,4,4,4,4,4,4,4,4,4,4,4,4,4,4,4,100,,,,,,,,,,,,,,,,,,,,,,,,,,,,,,,,,,,2235,0,0.515696,-0.470398,-0.376587,0.60907,0.861433,-0.175803,0.014162,8.666667,49.166668,-9.666667,,,,,,,,,,,,,,,,,,,,,,,,,,,,,,,,,,,,,,,,,,,,,,,,,,,,,,,,,,,,,,,,,,,,,,,,,,,,,,,,,,,,,,,,,,,,,,,,,,,,,,,,,,,,,,,,,,,,,,,,,,,,,,,,,,,,,,,,,,,,,,,,,,,,,,,,,,,,,,,,
1764666885.942368,8942,0,4376.538574,4401.794922,4522.94873,4459.487305,4391.922852,4513.077148,4537.692383,4378.589844,4623.974121,4323.974121,4502.692383,4524.871582,4553.846191,4335,4387.820313,4480.128418,4520.512695,4484.358887,4440,4345.641113,4276.538574,4478.077148,4511.282227,4457.436035,4388.846191,4795.384766,4364.358887,4533.589844,4500,4396.666504,4499.615234,4515.384766,2716,1,17,2576,58492,,,,0,4,4,4,4,4,4,4,4,4,4,4,4,4,4,4,4,4,4,4,4,4,4,4,4,4,4,4,4,4,4,4,4,100,,,,,,,,,,,,,,,,,,,,,,,,,,,,,,,,,,,,,,,,,,,,,,,,,,,,,,,,,,,,,,,,,,,,,,,,,,,,,,,,,,,,,,,,,,,,,,,,,,,,,,,,,,,,,,,,,,,,,,,,,,,,,,,,,,,,,,,,,,,,,,,,,,,,,,,,,,,,,,,,,,,,,,,,,,,,,,,,,,,,,,,,,,,,,,,,,,,,,,,,,,,,,,
1764666885.946274,8943,0,4337.820313,4360.512695,4480,4416.794922,4351.410156,4472.436035,4499.615234,4340.256348,4569.102539,4274.102539,4462.307617,4489.358887,4522.307617,4311.025879,4365.512695,4456.666504,4484.358887,4469.871582,4442.05127,4332.436035,4296.922852,4441.025879,4473.461426,4400.641113,4346.153809,4748.846191,4318.205078,4485.641113,4470.641113,4360.128418,4453.974121,4475.769043,2508,1,17,2576,58492,,,,0,4,4,4,4,4,4,4,4,4,4,4,4,4,4,4,4,4,4,4,4,4,4,4,4,4,4,4,4,4,4,4,4,100,,,,,,,,,,,,,,,,,,,,,,,,,,,,,,,,,,,,,,,,,,,,,,,,,,,,,,,,,,,,,,,,,,,,,,,,,,,,,,,,,,,,,,,,,,,,,,,,,,,,,,,,,,,,,,,,,,,,,,,,,,,,,,,,,,,,,,,,,,,,,,,,,,,,,,,,,,,,,,,,,,,,,,,,,,,,,,,,,,,,,,,,,,,,,,,,,,,,,,,,,,,,,,
1764666885.950180,8944,0,4324.358887,4348.846191,4463.974121,4401.410156,4337.94873,4459.487305,4485,4325.128418,4550.256348,4268.461426,4450.641113,4477.94873,4510.384766,4308.205078,4357.436035,4457.179688,4474.487305,4498.461426,4482.179688,4353.461426,4349.487305,4412.563965,4457.563965,4355.641113,4305.256348,4741.282227,4305.384766,4463.974121,4460.256348,4351.538574,4445.384766,4464.743652,2906,1,17,2576,58500,,,,0,4,4,4,4,4,4,4,4,4,4,4,4,4,4,4,4,4,4,4,4,4,4,4,4,4,4,4,4,4,4,4,4,100,,,,,,,,,,,,,,,,,,,,,,,,,,,,,,,,,,,,,,,,,,,,,,,,,,,,,,,,,,,,,,,,,,,,,,,,,,,,,,,,,,,,,,,,,,,,,,,,,,,,,,,,,,,,,,,,,,,,,,,,,,,,,,,,,,,,,,,,,,,,,,,,,,,,,,,,,,,,,,,,,,,,,,,,,,,,,,,,,,,,,,,,,,,,,,,,,,,,,,,,,,,,,,
1764666885.954086,8945,0,4340.769043,4369.615234,4482.05127,4420.384766,4355.897461,4478.205078,4499.102539,4338.205078,4574.358887,4305.897461,4468.333496,4494.102539,4522.179688,4331.025879,4367.307617,4477.820313,4493.589844,4546.025879,4528.974121,4387.692383,4403.333496,4406.922852,4470.384766,4344.871582,4262.05127,4771.922852,4329.230957,4479.102539,4473.077148,4372.692383,4471.666504,4484.102539,2933,1,17,2576,58500,,,,0,4,4,4,4,4,4,4,4,4,4,4,4,4,4,4,4,4,4,4,4,4,4,4,4,4,4,4,4,4,4,4,4,100,,,,,,,,,,,,,,,,,,,,,,,,,,,,,,,,,,,2236,0,0.513185,-0.472168,-0.376221,0.610046,0.85362,-0.159687,0.01172,8.666667,48,-9.666667,,,,,,,,,,,,,,,,,,,,,,,,,,,,,,,,,,,,,,,,,,,,,,,,,,,,,,,,,,,,,,,,,,,,,,,,,,,,,,,,,,,,,,,,,,,,,,,,,,,,,,,,,,,,,,,,,,,,,,,,,,,,,,,,,,,,,,,,,,,,,,,,,,,,,,,,,,,,,,,,
1764666885.957992,8946,0,4372.307617,4404.487305,4517.436035,4457.307617,4388.589844,4511.922852,4528.077148,4366.025879,4622.307617,4356.538574,4497.307617,4523.077148,4547.179688,4368.461426,4386.538574,4501.282227,4524.358887,4572.563965,4543.717773,4404.358887,4418.589844,4423.205078,4500,4369.102539,4217.692383,4815.256348,4372.692383,4518.589844,4499.230957,4407.307617,4508.974121,4516.153809,1786,1,17,2576,58508,,,,0,4,4,4,4,4,4,4,4,4,4,4,4,4,4,4,4,4,4,4,4,4,4,4,4,4,4,4,4,4,4,4,4,100,,,,,,,,,,,,,,,,,,,,,,,,,,,,,,,,,,,,,,,,,,,,,,,,,,,,,,,,,,,,,,,,,,,,,,,,,,,,,,,,,,,,,,,,,,,,,,,,,,,,,,,,,,,,,,,,,,,,,,,,,,,,,,,,,,,,,,,,,,,,,,,,,,,,,,,,,,,,,,,,,,,,,,,,,,,,,,,,,,,,,,,,,,,,,,,,,,,,,,,,,,,,,,
1764666885.961898,8947,0,4397.436035,4428.974121,4543.974121,4486.025879,4412.05127,4536.922852,4550.256348,4387.692383,4663.333496,4384.230957,4515,4543.846191,4567.820313,4401.282227,4400.384766,4509.230957,4544.230957,4554.102539,4510.384766,4387.307617,4377.307617,4448.077148,4525.512695,4410.769043,4196.153809,4841.410156,4410,4556.410156,4521.794922,4434.230957,4531.922852,4538.333496,2831,1,17,2576,58508,,,,0,4,4,4,4,4,4,4,4,4,4,4,4,4,4,4,4,4,4,4,4,4,4,4,4,4,4,4,4,4,4,4,4,100,,,,,,,,,,,,,,,,,,,,,,,,,,,,,,,,,,,,,,,,,,,,,,,,,,,,,,,,,,,,,,,,,,,,,,,,,,,,,,,,,,,,,,,,,,,,,,,,,,,,,,,,,,,,,,,,,,,,,,,,,,,,,,,,,,,,,,,,,,,,,,,,,,,,,,,,,,,,,,,,,,,,,,,,,,,,,,,,,,,,,,,,,,,,,,,,,,,,,,,,,,,,,,
1764666885.965804,8948,0,4403.589844,4431.153809,4547.05127,4491.538574,4413.974121,4540.128418,4553.333496,4391.410156,4676.410156,4373.717773,4511.666504,4545.128418,4573.333496,4414.230957,4399.102539,4495.769043,4542.94873,4501.410156,4447.692383,4347.307617,4298.333496,4466.666504,4533.333496,4448.846191,4228.717773,4839.102539,4423.205078,4571.922852,4528.461426,4441.794922,4531.538574,4540.769043,2532,1,17,2576,58516,,,,0,4,4,4,4,4,4,4,4,4,4,4,4,4,4,4,4,4,4,4,4,4,4,4,4,4,4,4,4,4,4,4,4,100,,,,,,,,,,,,,,,,,,,,,,,,,,,,,,,,,,,,,,,,,,,,,,,,,,,,,,,,,,,,,,,,,,,,,,,,,,,,,,,,,,,,,,,,,,,,,,,,,,,,,,,,,,,,,,,,,,,,,,,,,,,,,,,,,,,,,,,,,,,,,,,,,,,,,,,,,,,,,,,,,,,,,,,,,,,,,,,,,,,,,,,,,,,,,,,,,,,,,,,,,,,,,,
1764666885.969710,8949,0,4394.230957,4417.820313,4532.820313,4479.102539,4400.384766,4526.538574,4542.692383,4382.179688,4662.307617,4338.717773,4495.641113,4532.307617,4565.256348,4406.410156,4385.769043,4471.666504,4528.077148,4450.769043,4393.846191,4312.179688,4226.282227,4473.333496,4525.512695,4470.641113,4317.307617,4821.794922,4412.307617,4563.205078,4519.487305,4434.102539,4519.358887,4531.025879,2826,1,17,2576,58516,,,,0,4,4,4,4,4,4,4,4,4,4,4,4,4,4,4,4,4,4,4,4,4,4,4,4,4,4,4,4,4,4,4,4,100,,,,,,,,,,,,,,,,,,,,,,,,,,,,,,,,,,,2237,0,0.512289,-0.472412,-0.376343,0.610535,0.955683,-0.205591,0.001953,7.5,46.666668,-10.166667,,,,,,,,,,,,,,,,,,,,,,,,,,,,,,,,,,,,,,,,,,,,,,,,,,,,,,,,,,,,,,,,,,,,,,,,,,,,,,,,,,,,,,,,,,,,,,,,,,,,,,,,,,,,,,,,,,,,,,,,,,,,,,,,,,,,,,,,,,,,,,,,,,,,,,,,,,,,,,,,
1764666885.973616,8950,1,4390.042969,4415.170898,4530.897461,4476.025879,4399.444336,4524.145508,4542.436035,4382.606934,4646.880371,4330.427246,4494.658203,4530.042969,4559.658203,4404.487305,4380.897461,4473.504395,4526.709473,4467.991211,4415.470215,4328.888672,4248.931641,4469.273438,4519.743652,4458.803223,4350.341797,4829.572754,4402.05127,4551.239258,4512.94873,4429.871582,4526.153809,4532.05127,0,1,17,0,0,,,,0,4,4,4,4,4,4,4,4,4,4,4,4,4,4,4,4,4,4,4,4,4,4,4,4,4,4,4,4,4,4,4,4,100,,,,,,,,,,,,,,,,,,,,,,,,,,,,,,,,,,,,,,,,,,,,,,,,,,,,,,,,,,,,,,,,,,,,,,,,,,,,,,,,,,,,,,,,,,,,,,,,,,,,,,,,,,,,,,,,,,,,,,,,,,,,,,,,,,,,,,,,,,,,,,,,,,,,,,,,,,,,,,,,,,,,,,,,,,,,,,,,,,,,,,,,,,,,,,,,,,,,,,,,,,,,,,
1764666885.977522,8951,1,4385.854492,4412.521484,4528.974121,4472.94873,4398.504395,4521.751953,4542.179688,4383.03418,4631.453125,4322.136719,4493.675293,4527.777832,4554.060059,4402.563965,4376.025879,4475.341797,4525.341797,4485.213867,4437.094238,4345.598145,4271.581055,4465.213867,4513.974121,4446.96582,4383.375977,4837.350586,4391.794922,4539.273438,4506.410156,4425.641113,4532.94873,4533.077148,0,1,17,0,0,,,,0,4,4,4,4,4,4,4,4,4,4,4,4,4,4,4,4,4,4,4,4,4,4,4,4,4,4,4,4,4,4,4,4,100,,,,,,,,,,,,,,,,,,,,,,,,,,,,,,,,,,,,,,,,,,,,,,,,,,,,,,,,,,,,,,,,,,,,,,,,,,,,,,,,,,,,,,,,,,,,,,,,,,,,,,,,,,,,,,,,,,,,,,,,,,,,,,,,,,,,,,,,,,,,,,,,,,,,,,,,,,,,,,,,,,,,,,,,,,,,,,,,,,,,,,,,,,,,,,,,,,,,,,,,,,,,,,
1764666885.981428,8952,0,4381.666504,4409.871582,4527.05127,4469.871582,4397.563965,4519.358887,4541.922852,4383.461426,4616.025879,4313.846191,4492.692383,4525.512695,4548.461426,4400.641113,4371.153809,4477.179688,4523.974121,4502.436035,4458.717773,4362.307617,4294.230957,4461.153809,4508.205078,4435.128418,4416.410156,4845.128418,4381.538574,4527.307617,4499.871582,4421.410156,4539.743652,4534.102539,2757,1,17,2570,58531,,,,0,4,4,4,4,4,4,4,4,4,4,4,4,4,4,4,4,4,4,4,4,4,4,4,4,4,4,4,4,4,4,4,4,100,,,,,,,,,,,,,,,,,,,,,,,,,,,,,,,,,,,,,,,,,,,,,,,,,,,,,,,,,,,,,,,,,,,,,,,,,,,,,,,,,,,,,,,,,,,,,,,,,,,,,,,,,,,,,,,,,,,,,,,,,,,,,,,,,,,,,,,,,,,,,,,,,,,,,,,,,,,,,,,,,,,,,,,,,,,,,,,,,,,,,,,,,,,,,,,,,,,,,,,,,,,,,,
1764666885.985334,8953,0,4388.717773,4417.692383,4538.846191,4476.538574,4408.846191,4531.410156,4547.05127,4386.794922,4620.512695,4338.461426,4501.025879,4533.974121,4554.102539,4432.436035,4380.512695,4499.358887,4534.615234,4535.128418,4497.820313,4386.282227,4348.974121,4456.794922,4511.410156,4413.717773,4326.410156,4859.230957,4391.922852,4534.487305,4509.102539,4425.384766,4548.846191,4540.769043,2858,1,17,2570,58531,,,,0,4,4,4,4,4,4,4,4,4,4,4,4,4,4,4,4,4,4,4,4,4,4,4,4,4,4,4,4,4,4,4,4,100,,,,,,,,,,,,,,,,,,,,,,,,,,,,,,,,,,,2238,0,0.511769,-0.472229,-0.376587,0.610962,0.955683,-0.205591,0.001953,8.666667,47.5,-8.833333,,,,,,,,,,,,,,,,,,,,,,,,,,,,,,,,,,,,,,,,,,,,,,,,,,,,,,,,,,,,,,,,,,,,,,,,,,,,,,,,,,,,,,,,,,,,,,,,,,,,,,,,,,,,,,,,,,,,,,,,,,,,,,,,,,,,,,,,,,,,,,,,,,,,,,,,,,,,,,,,
1764666885.989240,8954,0,4394.743652,4422.05127,4545.897461,4478.333496,4415.769043,4537.820313,4545.256348,4381.282227,4631.410156,4364.487305,4502.94873,4538.974121,4560.641113,4466.025879,4389.230957,4511.282227,4541.922852,4543.205078,4506.794922,4390.128418,4368.333496,4457.94873,4515.897461,4409.230957,4258.717773,4860.128418,4403.846191,4546.666504,4519.358887,4429.615234,4545.384766,4544.102539,1965,1,17,2569,58539,,,,0,4,4,4,4,4,4,4,4,4,4,4,4,4,4,4,4,4,4,4,4,4,4,4,4,4,4,4,4,4,4,4,4,100,,,,,,,,,,,,,,,,,,,,,,,,,,,,,,,,,,,,,,,,,,,,,,,2.001268,1.638904,1.32016,1.161038,0.853986,2.647766,1.948805,2.008216,1.035924,0.923601,5.189929,1.836074,2.269039,1.417378,1.200346,2.515481,1.247917,2.351857,0.990736,0.922753,2.005999,0.990383,2.046263,0.982719,1.023885,2.077331,1.137941,2.161692,1.170139,0.843233,2.004895,1.077244,1.24832,1.386109,1.158664,2.018439,1.45593,2.593932,1.252704,1.444879,2.314529,1.14139,2.139862,1.623556,1.441469,2.720696,3.406146,3.191453,3.013845,2.59789,1.914962,1.084047,0.995203,0.949917,0.808381,2.066475,1.460289,0.966135,1.382703,0.788182,1.029307,0.82568,0.725775,1.062381,0.822353,1.270251,0.827724,0.65414,0.453087,0.4992,0.786236,0.908891,0.738244,1.019774,0.730521,1.066201,0.916604,0.593348,0.413443,0.337124,2.291173,1.6472,1.064226,1.430116,0.96349,2.040662,2.42777,1.548447,1.163837,0.800375,1.178635,1.631134,0.677822,0.825394,0.737384,1.376801,1.352048,1.596757,1.095382,1.0501,2.901736,2.168526,1.422211,2.228398,1.088743,2.238727,1.503231,1.926647,1.365904,0.815132,2.146674,1.440997,1.483355,1.104208,0.907933,2.942634,2.009091,2.082769,1.229493,1.009122,3.710538,7.816799,8.284269,8.055269,5.834143,2.603325,2.112237,2.257846,1.462594,1.163171,4.679024,1.258572,2.201073,1.564211,1.277894,3.537942,1.415367,2.362994,1.215138,1.049155,1.729659,0.979,0.782539,0.617363,0.493735,3.750805,1.712042,1.992152,1.13393,0.974392,4.435672,1.882843,1.001111,1.334532,1.073572,6.444729,2.173922,2.683787,1.368907,0.96874
1764666885.993146,8955,0,4402.05127,4427.307617,4551.282227,4480.897461,4422.05127,4540.641113,4544.358887,4376.153809,4651.025879,4394.102539,4505.512695,4544.871582,4571.025879,4485.128418,4397.307617,4510,4550.384766,4536.153809,4492.179688,4383.205078,4353.589844,4472.94873,4525.641113,4431.025879,4267.179688,4859.102539,4415.897461,4563.974121,4528.717773,4438.205078,4539.230957,4550,2580,1,17,2569,58539,,,,0,4,4,4,4,4,4,4,4,4,4,4,4,4,4,4,4,4,4,4,4,4,4,4,4,4,4,4,4,4,4,4,4,100,,,,,,,,,,,,,,,,,,,,,,,,,,,,,,,,,,,,,,,,,,,,,,,,,,,,,,,,,,,,,,,,,,,,,,,,,,,,,,,,,,,,,,,,,,,,,,,,,,,,,,,,,,,,,,,,,,,,,,,,,,,,,,,,,,,,,,,,,,,,,,,,,,,,,,,,,,,,,,,,,,,,,,,,,,,,,,,,,,,,,,,,,,,,,,,,,,,,,,,,,,,,,,
1764666885.997052,8956,0,4414.230957,4439.743652,4560.897461,4492.563965,4434.102539,4547.307617,4556.025879,4385.512695,4678.589844,4427.307617,4519.615234,4558.717773,4589.615234,4480.769043,4407.307617,4502.94873,4566.538574,4533.461426,4476.666504,4381.922852,4329.230957,4503.846191,4543.717773,4473.461426,4350.769043,4870.384766,4428.589844,4585.641113,4538.205078,4453.717773,4542.820313,4563.461426,2728,1,17,2570,58547,,,,0,4,4,4,4,4,4,4,4,4,4,4,4,4,4,4,4,4,4,4,4,4,4,4,4,4,4,4,4,4,4,4,4,100,,,,,,,,,,,,,,,,,,,,,,,,,,,,,,,,,,,,,,,,,,,,,,,,,,,,,,,,,,,,,,,,,,,,,,,,,,,,,,,,,,,,,,,,,,,,,,,,,,,,,,,,,,,,,,,,,,,,,,,,,,,,,,,,,,,,,,,,,,,,,,,,,,,,,,,,,,,,,,,,,,,,,,,,,,,,,,,,,,,,,,,,,,,,,,,,,,,,,,,,,,,,,,
1764666886.000958,8957,0,4427.307617,4454.871582,4572.436035,4509.615234,4448.717773,4558.589844,4580,4410.128418,4701.025879,4447.436035,4543.461426,4577.692383,4611.282227,4452.820313,4416.922852,4498.589844,4586.794922,4543.846191,4476.922852,4390.256348,4318.333496,4536.282227,4561.666504,4511.282227,4456.282227,4891.153809,4435.512695,4601.666504,4544.743652,4468.589844,4555.769043,4578.077148,2572,1,17,2570,58547,,,,0,4,4,4,4,4,4,4,4,4,4,4,4,4,4,4,4,4,4,4,4,4,4,4,4,4,4,4,4,4,4,4,4,100,,,,,,,,,,,,,,,,,,,,,,,,,,,,,,,,,,,2239,0,0.511005,-0.472412,-0.376404,0.611572,1.079233,-0.159687,0.005372,8.166667,47.666668,-10.333333,,,,,,,,,,,,,,,,,,,,,,,,,,,,,,,,,,,,,,,,,,,,,,,,,,,,,,,,,,,,,,,,,,,,,,,,,,,,,,,,,,,,,,,,,,,,,,,,,,,,,,,,,,,,,,,,,,,,,,,,,,,,,,,,,,,,,,,,,,,,,,,,,,,,,,,,,,,,,,,,
1764666886.004864,8958,0,4427.94873,4456.922852,4572.436035,4515.384766,4451.153809,4562.563965,4597.820313,4430.769043,4699.102539,4429.230957,4557.563965,4586.410156,4619.615234,4408.717773,4417.94873,4498.846191,4593.846191,4556.153809,4489.230957,4395.641113,4322.692383,4543.461426,4561.666504,4513.077148,4516.153809,4899.871582,4424.230957,4594.743652,4540.641113,4466.410156,4562.563965,4577.94873,2704,1,17,2566,58555,,,,0,4,4,4,4,4,4,4,4,4,4,4,4,4,4,4,4,4,4,4,4,4,4,4,4,4,4,4,4,4,4,4,4,100,,,,,,,,,,,,,,,,,,,,,,,,,,,,,,,,,,,,,,,,,,,,,,,,,,,,,,,,,,,,,,,,,,,,,,,,,,,,,,,,,,,,,,,,,,,,,,,,,,,,,,,,,,,,,,,,,,,,,,,,,,,,,,,,,,,,,,,,,,,,,,,,,,,,,,,,,,,,,,,,,,,,,,,,,,,,,,,,,,,,,,,,,,,,,,,,,,,,,,,,,,,,,,
1764666886.008770,8959,0,4405.384766,4433.974121,4549.102539,4495,4428.846191,4545.512695,4587.692383,4423.205078,4664.743652,4366.025879,4541.410156,4569.615234,4599.358887,4361.153809,4403.333496,4498.589844,4572.563965,4551.410156,4496.410156,4382.436035,4324.743652,4509.358887,4532.179688,4466.538574,4493.077148,4878.461426,4390.384766,4557.179688,4520.384766,4438.077148,4548.589844,4552.307617,2831,1,17,2566,58555,,,,0,4,4,4,4,4,4,4,4,4,4,4,4,4,4,4,4,4,4,4,4,4,4,4,4,4,4,4,4,4,4,4,4,100,,,,,,,,,,,,,,,,,,,,,,,,,,,,,,,,,,,,,,,,,,,,,,,,,,,,,,,,,,,,,,,,,,,,,,,,,,,,,,,,,,,,,,,,,,,,,,,,,,,,,,,,,,,,,,,,,,,,,,,,,,,,,,,,,,,,,,,,,,,,,,,,,,,,,,,,,,,,,,,,,,,,,,,,,,,,,,,,,,,,,,,,,,,,,,,,,,,,,,,,,,,,,,
1764666886.012676,8960,0,4366.025879,4392.692383,4508.461426,4453.461426,4387.05127,4509.102539,4547.563965,4383.974121,4612.436035,4285.897461,4495.897461,4530,4554.871582,4324.358887,4377.05127,4493.205078,4527.820313,4524.358887,4486.922852,4351.153809,4309.743652,4448.077148,4484.615234,4394.871582,4402.94873,4833.205078,4349.871582,4505,4490.897461,4394.615234,4517.692383,4510.512695,2763,1,17,2566,58563,,,,0,4,4,4,4,4,4,4,4,4,4,4,4,4,4,4,4,4,4,4,4,4,4,4,4,4,4,4,4,4,4,4,4,100,,,,,,,,,,,,,,,,,,,,,,,,,,,,,,,,,,,,,,,,,,,,,,,,,,,,,,,,,,,,,,,,,,,,,,,,,,,,,,,,,,,,,,,,,,,,,,,,,,,,,,,,,,,,,,,,,,,,,,,,,,,,,,,,,,,,,,,,,,,,,,,,,,,,,,,,,,,,,,,,,,,,,,,,,,,,,,,,,,,,,,,,,,,,,,,,,,,,,,,,,,,,,,
1764666886.016582,8961,0,4332.436035,4357.179688,4473.333496,4415.641113,4349.358887,4473.717773,4501.025879,4337.179688,4570.512695,4235.128418,4447.820313,4490.128418,4511.410156,4308.589844,4352.05127,4482.563965,4485.641113,4489.487305,4465.384766,4320,4283.077148,4397.179688,4447.820313,4342.307617,4300.641113,4792.692383,4329.102539,4469.487305,4468.846191,4362.179688,4490,4477.05127,2893,1,17,2566,58563,,,,0,4,4,4,4,4,4,4,4,4,4,4,4,4,4,4,4,4,4,4,4,4,4,4,4,4,4,4,4,4,4,4,4,100,,,,,,,,,,,,,,,,,,,,,,,,,,,,,,,,,,,2240,0,0.509015,-0.473267,-0.375244,0.613281,1.048956,-0.23245,0.010255,6.833333,48.5,-8.666667,,,,,,,,,,,,,,,,,,,,,,,,,,,,,,,,,,,,,,,,,,,,,,,,,,,,,,,,,,,,,,,,,,,,,,,,,,,,,,,,,,,,,,,,,,,,,,,,,,,,,,,,,,,,,,,,,,,,,,,,,,,,,,,,,,,,,,,,,,,,,,,,,,,,,,,,,,,,,,,,
1764666886.020488,8962,0,4325.128418,4348.589844,4464.743652,4404.743652,4337.820313,4461.153809,4477.820313,4314.230957,4558.974121,4241.410156,4427.436035,4473.846191,4495.384766,4314.487305,4340.641113,4470.384766,4471.794922,4467.692383,4445.256348,4308.205078,4264.358887,4388.717773,4444.487305,4339.230957,4242.05127,4782.05127,4341.410156,4472.05127,4467.307617,4360.897461,4483.333496,4472.563965,2626,1,17,2567,58570,,,,0,4,4,4,4,4,4,4,4,4,4,4,4,4,4,4,4,4,4,4,4,4,4,4,4,4,4,4,4,4,4,4,4,100,,,,,,,,,,,,,,,,,,,,,,,,,,,,,,,,,,,,,,,,,,,,,,,,,,,,,,,,,,,,,,,,,,,,,,,,,,,,,,,,,,,,,,,,,,,,,,,,,,,,,,,,,,,,,,,,,,,,,,,,,,,,,,,,,,,,,,,,,,,,,,,,,,,,,,,,,,,,,,,,,,,,,,,,,,,,,,,,,,,,,,,,,,,,,,,,,,,,,,,,,,,,,,
1764666886.024394,8963,0,4345.256348,4367.692383,4484.358887,4424.230957,4355.641113,4476.666504,4488.717773,4327.436035,4577.179688,4291.153809,4443.333496,4486.794922,4512.692383,4334.230957,4344.743652,4460.512695,4490.641113,4468.717773,4437.307617,4320.128418,4267.05127,4422.94873,4473.205078,4380.128418,4248.717773,4805,4373.846191,4506.282227,4484.102539,4387.179688,4497.692383,4496.538574,2820,1,17,2567,58570,,,,0,4,4,4,4,4,4,4,4,4,4,4,4,4,4,4,4,4,4,4,4,4,4,4,4,4,4,4,4,4,4,4,4,100,,,,,,,,,,,,,,,,,,,,,,,,,,,,,,,,,,,,,,,,,,,,,,,,,,,,,,,,,,,,,,,,,,,,,,,,,,,,,,,,,,,,,,,,,,,,,,,,,,,,,,,,,,,,,,,,,,,,,,,,,,,,,,,,,,,,,,,,,,,,,,,,,,,,,,,,,,,,,,,,,,,,,,,,,,,,,,,,,,,,,,,,,,,,,,,,,,,,,,,,,,,,,,
1764666886.028300,8964,0,4375.641113,4397.05127,4515.512695,4456.922852,4386.538574,4505.512695,4520.641113,4362.563965,4609.230957,4344.487305,4479.615234,4514.871582,4546.410156,4357.436035,4357.179688,4456.153809,4524.230957,4485.769043,4443.333496,4344.615234,4288.333496,4472.179688,4511.025879,4431.666504,4300.128418,4844.358887,4401.025879,4546.153809,4505.384766,4419.871582,4519.230957,4530.384766,2718,1,17,2568,58578,,,,0,4,4,4,4,4,4,4,4,4,4,4,4,4,4,4,4,4,4,4,4,4,4,4,4,4,4,4,4,4,4,4,4,100,,,,,,,,,,,,,,,,,,,,,,,,,,,,,,,,,,,,,,,,,,,,,,,,,,,,,,,,,,,,,,,,,,,,,,,,,,,,,,,,,,,,,,,,,,,,,,,,,,,,,,,,,,,,,,,,,,,,,,,,,,,,,,,,,,,,,,,,,,,,,,,,,,,,,,,,,,,,,,,,,,,,,,,,,,,,,,,,,,,,,,,,,,,,,,,,,,,,,,,,,,,,,,
1764666886.032206,8965,0,4396.794922,4417.307617,4539.487305,4481.794922,4410.512695,4528.333496,4550.256348,4393.589844,4639.358887,4369.615234,4512.436035,4538.589844,4573.846191,4375.512695,4369.487305,4460.128418,4550,4505.512695,4457.94873,4366.153809,4313.846191,4504.871582,4534.230957,4461.282227,4356.282227,4877.179688,4408.333496,4568.205078,4518.333496,4438.717773,4535,4554.102539,2783,1,17,2568,58578,,,,0,4,4,4,4,4,4,4,4,4,4,4,4,4,4,4,4,4,4,4,4,4,4,4,4,4,4,4,4,4,4,4,4,100,,,,,,,,,,,,,,,,,,,,,,,,,,,,,,,,,,,2241,0,0.504972,-0.475464,-0.37262,0.616516,0.960078,-0.275913,0.02051,6,47.666668,-7.5,,,,,,,,,,,,,,,,,,,,,,,,,,,,,,,,,,,,,,,,,,,,,,,,,,,,,,,,,,,,,,,,,,,,,,,,,,,,,,,,,,,,,,,,,,,,,,,,,,,,,,,,,,,,,,,,,,,,,,,,,,,,,,,,,,,,,,,,,,,,,,,,,,,,,,,,,,,,,,,,
1764666886.036112,8966,0,4400.641113,4421.282227,4547.692383,4488.589844,4418.077148,4535,4561.922852,4403.717773,4659.230957,4362.820313,4526.794922,4546.922852,4582.05127,4383.461426,4377.563965,4472.436035,4556.410156,4518.333496,4472.820313,4374.743652,4329.230957,4507.436035,4534.230957,4459.871582,4387.563965,4887.307617,4400.769043,4567.05127,4519.230957,4438.974121,4541.538574,4558.717773,2807,1,17,2569,58586,,,,0,4,4,4,4,4,4,4,4,4,4,4,4,4,4,4,4,4,4,4,4,4,4,4,4,4,4,4,4,4,4,4,4,100,,,,,,,,,,,,,,,,,,,,,,,,,,,,,,,,,,,,,,,,,,,,,,,,,,,,,,,,,,,,,,,,,,,,,,,,,,,,,,,,,,,,,,,,,,,,,,,,,,,,,,,,,,,,,,,,,,,,,,,,,,,,,,,,,,,,,,,,,,,,,,,,,,,,,,,,,,,,,,,,,,,,,,,,,,,,,,,,,,,,,,,,,,,,,,,,,,,,,,,,,,,,,,
1764666886.040018,8967,0,4391.410156,4413.461426,4542.436035,4480.384766,4411.538574,4527.563965,4554.615234,4393.205078,4665.641113,4341.282227,4519.230957,4540.512695,4571.282227,4380.128418,4380.384766,4487.179688,4546.410156,4520.256348,4478.974121,4368.205078,4327.692383,4488.974121,4518.589844,4441.538574,4385.641113,4872.436035,4392.94873,4553.717773,4512.307617,4428.717773,4541.410156,4547.563965,2983,1,17,2569,58586,,,,0,4,4,4,4,4,4,4,4,4,4,4,4,4,4,4,4,4,4,4,4,4,4,4,4,4,4,4,4,4,4,4,4,100,,,,,,,,,,,,,,,,,,,,,,,,,,,,,,,,,,,,,,,,,,,,,,,,,,,,,,,,,,,,,,,,,,,,,,,,,,,,,,,,,,,,,,,,,,,,,,,,,,,,,,,,,,,,,,,,,,,,,,,,,,,,,,,,,,,,,,,,,,,,,,,,,,,,,,,,,,,,,,,,,,,,,,,,,,,,,,,,,,,,,,,,,,,,,,,,,,,,,,,,,,,,,,
1764666886.043924,8968,0,4378.077148,4402.307617,4530.769043,4466.538574,4398.461426,4514.358887,4536.666504,4373.846191,4657.563965,4323.846191,4495.256348,4526.282227,4550.512695,4370.384766,4377.436035,4494.871582,4530,4511.538574,4471.410156,4351.025879,4311.282227,4468.461426,4501.666504,4426.922852,4356.538574,4844.358887,4393.717773,4541.922852,4503.846191,4417.94873,4537.692383,4530.128418,2879,1,17,2570,58594,,,,0,4,4,4,4,4,4,4,4,4,4,4,4,4,4,4,4,4,4,4,4,4,4,4,4,4,4,4,4,4,4,4,4,100,,,,,,,,,,,,,,,,,,,,,,,,,,,,,,,,,,,,,,,,,,,,,,,,,,,,,,,,,,,,,,,,,,,,,,,,,,,,,,,,,,,,,,,,,,,,,,,,,,,,,,,,,,,,,,,,,,,,,,,,,,,,,,,,,,,,,,,,,,,,,,,,,,,,,,,,,,,,,,,,,,,,,,,,,,,,,,,,,,,,,,,,,,,,,,,,,,,,,,,,,,,,,,
1764666886.047830,8969,0,4367.94873,4393.333496,4518.589844,4454.743652,4385.384766,4502.820313,4518.333496,4356.794922,4636.282227,4318.717773,4465.512695,4512.179688,4530.641113,4364.487305,4369.871582,4489.358887,4516.794922,4496.410156,4453.717773,4332.436035,4288.717773,4460.769043,4493.717773,4427.179688,4317.94873,4822.692383,4400.384766,4538.974121,4497.436035,4411.538574,4532.436035,4515.769043,2723,1,17,2570,58594,,,,0,4,4,4,4,4,4,4,4,4,4,4,4,4,4,4,4,4,4,4,4,4,4,4,4,4,4,4,4,4,4,4,4,100,,,,,,,,,,,,,,,,,,,,,,,,,,,,,,,,,,,2242,0,0.504084,-0.476013,-0.371704,0.617371,0.975217,-0.254914,0.028324,7.5,48.333332,-8.833333,,,,,,,,,,,,,,,,,,,,,,,,,,,,,,,,,,,,,,,,,,,,,,,,,,,,,,,,,,,,,,,,,,,,,,,,,,,,,,,,,,,,,,,,,,,,,,,,,,,,,,,,,,,,,,,,,,,,,,,,,,,,,,,,,,,,,,,,,,,,,,,,,,,,,,,,,,,,,,,,
1764666886.051736,8970,0,4363.846191,4388.077148,4510,4447.820313,4376.410156,4496.922852,4506.922852,4347.307617,4609.615234,4324.871582,4443.461426,4503.589844,4520.384766,4370.769043,4361.282227,4474.871582,4511.794922,4482.820313,4437.563965,4322.94873,4270.641113,4468.461426,4495.641113,4439.743652,4296.538574,4821.153809,4404.487305,4543.205078,4495,4409.615234,4528.077148,4510.641113,1479,1,17,2571,58602,,,,0,4,4,4,4,4,4,4,4,4,4,4,4,4,4,4,4,4,4,4,4,4,4,4,4,4,4,4,4,4,4,4,4,100,,,,,,,,,,,,,,,,,,,,,,,,,,,,,,,,,,,,,,,,,,,,,,,,,,,,,,,,,,,,,,,,,,,,,,,,,,,,,,,,,,,,,,,,,,,,,,,,,,,,,,,,,,,,,,,,,,,,,,,,,,,,,,,,,,,,,,,,,,,,,,,,,,,,,,,,,,,,,,,,,,,,,,,,,,,,,,,,,,,,,,,,,,,,,,,,,,,,,,,,,,,,,,
1764666886.055642,8971,0,4365.256348,4386.153809,4507.820313,4445.384766,4373.717773,4497.436035,4505.897461,4344.871582,4592.179688,4337.307617,4440,4503.077148,4522.563965,4387.179688,4356.282227,4462.820313,4514.487305,4479.230957,4434.743652,4328.589844,4262.692383,4482.563965,4502.179688,4453.589844,4312.436035,4837.94873,4400.256348,4548.333496,4496.282227,4410.512695,4527.692383,4515.256348,2686,1,17,2571,58602,,,,0,4,4,4,4,4,4,4,4,4,4,4,4,4,4,4,4,4,4,4,4,4,4,4,4,4,4,4,4,4,4,4,4,100,,,,,,,,,,,,,,,,,,,,,,,,,,,,,,,,,,,,,,,,,,,,,,,,,,,,,,,,,,,,,,,,,,,,,,,,,,,,,,,,,,,,,,,,,,,,,,,,,,,,,,,,,,,,,,,,,,,,,,,,,,,,,,,,,,,,,,,,,,,,,,,,,,,,,,,,,,,,,,,,,,,,,,,,,,,,,,,,,,,,,,,,,,,,,,,,,,,,,,,,,,,,,,
1764666886.059548,8972,1,4369.786133,4389.060059,4513.717773,4448.162598,4379.786133,4502.350586,4517.307617,4350.726563,4609.102539,4340.042969,4459.786133,4509.871582,4532.563965,4388.418945,4358.803223,4467.307617,4518.461426,4489.145508,4450.98291,4344.060059,4273.632324,4478.418945,4500.812012,4443.888672,4336.410156,4843.803223,4392.563965,4544.572754,4499.358887,4411.367676,4531.068359,4522.307617,2520,1,17,0,0,,,,0,4,4,4,4,4,4,4,4,4,4,4,4,4,4,4,4,4,4,4,4,4,4,4,4,4,4,4,4,4,4,4,4,100,,,,,,,,,,,,,,,,,,,,,,,,,,,,,,,,,,,,,,,,,,,,,,,,,,,,,,,,,,,,,,,,,,,,,,,,,,,,,,,,,,,,,,,,,,,,,,,,,,,,,,,,,,,,,,,,,,,,,,,,,,,,,,,,,,,,,,,,,,,,,,,,,,,,,,,,,,,,,,,,,,,,,,,,,,,,,,,,,,,,,,,,,,,,,,,,,,,,,,,,,,,,,,
1764666886.063454,8973,1,4374.316406,4391.96582,4519.615234,4450.939941,4385.854492,4507.265137,4528.717773,4356.581055,4626.025879,4342.777832,4479.572754,4516.666504,4542.563965,4389.658203,4361.324707,4471.794922,4522.436035,4499.060059,4467.222168,4359.529785,4284.572754,4474.273438,4499.444336,4434.187988,4360.384766,4849.658203,4384.871582,4540.812012,4502.436035,4412.222168,4534.444336,4529.358887,2291,1,17,0,0,,,,0,4,4,4,4,4,4,4,4,4,4,4,4,4,4,4,4,4,4,4,4,4,4,4,4,4,4,4,4,4,4,4,4,100,,,,,,,,,,,,,,,,,,,,,,,,,,,,,,,,,,,,,,,,,,,,,,,,,,,,,,,,,,,,,,,,,,,,,,,,,,,,,,,,,,,,,,,,,,,,,,,,,,,,,,,,,,,,,,,,,,,,,,,,,,,,,,,,,,,,,,,,,,,,,,,,,,,,,,,,,,,,,,,,,,,,,,,,,,,,,,,,,,,,,,,,,,,,,,,,,,,,,,,,,,,,,,
1764666886.067360,8974,0,4378.846191,4394.871582,4525.512695,4453.717773,4391.922852,4512.179688,4540.128418,4362.436035,4642.94873,4345.512695,4499.358887,4523.461426,4552.563965,4390.897461,4363.846191,4476.282227,4526.410156,4508.974121,4483.461426,4375,4295.512695,4470.128418,4498.077148,4424.487305,4384.358887,4855.512695,4377.179688,4537.05127,4505.512695,4413.077148,4537.820313,4536.410156,2707,1,17,2573,58617,,,,0,4,4,4,4,4,4,4,4,4,4,4,4,4,4,4,4,4,4,4,4,4,4,4,4,4,4,4,4,4,4,4,4,100,,,,,,,,,,,,,,,,,,,,,,,,,,,,,,,,,,,,,,,,,,,,,,,,,,,,,,,,,,,,,,,,,,,,,,,,,,,,,,,,,,,,,,,,,,,,,,,,,,,,,,,,,,,,,,,,,,,,,,,,,,,,,,,,,,,,,,,,,,,,,,,,,,,,,,,,,,,,,,,,,,,,,,,,,,,,,,,,,,,,,,,,,,,,,,,,,,,,,,,,,,,,,,
1764666886.071266,8975,0,4378.077148,4396.922852,4524.871582,4456.794922,4393.717773,4513.333496,4545.769043,4371.538574,4648.333496,4325.384766,4502.179688,4524.102539,4553.717773,4380.128418,4364.102539,4473.846191,4523.205078,4506.410156,4485,4371.666504,4330,4452.692383,4489.102539,4395.769043,4352.436035,4840.641113,4380.256348,4527.94873,4504.358887,4409.871582,4528.589844,4533.077148,2502,1,17,2573,58617,,,,0,4,4,4,4,4,4,4,4,4,4,4,4,4,4,4,4,4,4,4,4,4,4,4,4,4,4,4,4,4,4,4,4,100,,,,,,,,,,,,,,,,,,,,,,,,,,,,,,,,,,,,,,,,,,,,,,,,,,,,,,,,,,,,,,,,,,,,,,,,,,,,,,,,,,,,,,,,,,,,,,,,,,,,,,,,,,,,,,,,,,,,,,,,,,,,,,,,,,,,,,,,,,,,,,,,,,,,,,,,,,,,,,,,,,,,,,,,,,,,,,,,,,,,,,,,,,,,,,,,,,,,,,,,,,,,,,
1764666886.075172,8976,0,4374.102539,4395.128418,4517.820313,4457.307617,4388.333496,4511.922852,4541.666504,4376.153809,4629.743652,4300.384766,4489.230957,4520.128418,4549.743652,4380.641113,4361.025879,4465.128418,4518.846191,4498.205078,4475.512695,4359.743652,4375.769043,4443.589844,4482.563965,4373.846191,4335.384766,4831.153809,4379.102539,4517.692383,4500,4404.102539,4509.487305,4524.358887,2897,1,17,2574,58625,,,,0,4,4,4,4,4,4,4,4,4,4,4,4,4,4,4,4,4,4,4,4,4,4,4,4,4,4,4,4,4,4,4,4,100,,,,,,,,,,,,,,,,,,,,,,,,,,,,,,,,,,,,,,,,,,,,,,,,,,,,,,,,,,,,,,,,,,,,,,,,,,,,,,,,,,,,,,,,,,,,,,,,,,,,,,,,,,,,,,,,,,,,,,,,,,,,,,,,,,,,,,,,,,,,,,,,,,,,,,,,,,,,,,,,,,,,,,,,,,,,,,,,,,,,,,,,,,,,,,,,,,,,,,,,,,,,,,
1764666886.079078,8977,0,4368.974121,4389.871582,4508.205078,4454.871582,4378.461426,4508.333496,4529.615234,4371.538574,4601.666504,4282.307617,4469.615234,4514.487305,4542.563965,4393.333496,4357.692383,4459.487305,4516.538574,4493.461426,4464.102539,4348.974121,4417.94873,4447.94873,4481.410156,4368.846191,4357.179688,4831.922852,4366.538574,4508.589844,4494.230957,4397.563965,4488.589844,4513.205078,2875,1,17,2574,58625,,,,0,4,4,4,4,4,4,4,4,4,4,4,4,4,4,4,4,4,4,4,4,4,4,4,4,4,4,4,4,4,4,4,4,100,,,,,,,,,,,,,,,,,,,,,,,,,,,,,,,,,,,2244,0,0.503085,-0.476624,-0.369324,0.619141,1.014772,-0.286656,0.027835,5.166667,46.166668,-8.333333,,,,,,,,,,,,,,,,,,,,,,,,,,,,,,,,,,,,,,,,,,,,,,,,,,,,,,,,,,,,,,,,,,,,,,,,,,,,,,,,,,,,,,,,,,,,,,,,,,,,,,,,,,,,,,,,,,,,,,,,,,,,,,,,,,,,,,,,,,,,,,,,,,,,,,,,,,,,,,,,
1764666886.082984,8978,0,4366.922852,4385.256348,4503.461426,4452.436035,4370.769043,4504.743652,4516.794922,4359.358887,4587.436035,4286.153809,4457.94873,4512.05127,4536.282227,4409.615234,4359.743652,4464.358887,4519.230957,4499.102539,4460.128418,4347.820313,4436.666504,4465.256348,4487.692383,4385.128418,4397.820313,4840.512695,4349.743652,4507.05127,4490.769043,4394.487305,4479.230957,4505.769043,1784,1,17,2575,58633,,,,0,4,4,4,4,4,4,4,4,4,4,4,4,4,4,4,4,4,4,4,4,4,4,4,4,4,4,4,4,4,4,4,4,100,,,,,,,,,,,,,,,,,,,,,,,,,,,,,,,,,,,,,,,,,,,,,,,,,,,,,,,,,,,,,,,,,,,,,,,,,,,,,,,,,,,,,,,,,,,,,,,,,,,,,,,,,,,,,,,,,,,,,,,,,,,,,,,,,,,,,,,,,,,,,,,,,,,,,,,,,,,,,,,,,,,,,,,,,,,,,,,,,,,,,,,,,,,,,,,,,,,,,,,,,,,,,,
1764666886.086890,8979,0,4373.333496,4388.205078,4510,4455.897461,4373.077148,4506.282227,4513.589844,4349.358887,4600.256348,4321.153809,4467.05127,4517.820313,4537.820313,4419.358887,4371.282227,4478.461426,4529.743652,4514.615234,4467.436035,4357.94873,4420.384766,4491.282227,4502.436035,4419.871582,4414.615234,4851.538574,4347.05127,4521.153809,4494.102539,4400.512695,4493.333496,4510.384766,2833,1,17,2575,58633,,,,0,4,4,4,4,4,4,4,4,4,4,4,4,4,4,4,4,4,4,4,4,4,4,4,4,4,4,4,4,4,4,4,4,100,,,,,,,,,,,,,,,,,,,,,,,,,,,,,,,,,,,,,,,,,,,,,,,,,,,,,,,,,,,,,,,,,,,,,,,,,,,,,,,,,,,,,,,,,,,,,,,,,,,,,,,,,,,,,,,,,,,,,,,,,,,,,,,,,,,,,,,,,,,,,,,,,,,,,,,,,,,,,,,,,,,,,,,,,,,,,,,,,,,,,,,,,,,,,,,,,,,,,,,,,,,,,,
1764666886.090796,8980,0,4389.358887,4402.307617,4528.077148,4467.820313,4387.94873,4516.538574,4526.666504,4352.563965,4632.05127,4378.461426,4498.589844,4533.077148,4551.794922,4416.025879,4390.128418,4492.820313,4547.436035,4531.666504,4480.384766,4371.282227,4373.077148,4518.846191,4523.717773,4462.820313,4385.384766,4861.666504,4371.410156,4552.820313,4506.153809,4417.179688,4529.871582,4529.358887,2459,1,17,2575,58641,,,,0,4,4,4,4,4,4,4,4,4,4,4,4,4,4,4,4,4,4,4,4,4,4,4,4,4,4,4,4,4,4,4,4,100,,,,,,,,,,,,,,,,,,,,,,,,,,,,,,,,,,,,,,,,,,,,,,,,,,,,,,,,,,,,,,,,,,,,,,,,,,,,,,,,,,,,,,,,,,,,,,,,,,,,,,,,,,,,,,,,,,,,,,,,,,,,,,,,,,,,,,,,,,,,,,,,,,,,,,,,,,,,,,,,,,,,,,,,,,,,,,,,,,,,,,,,,,,,,,,,,,,,,,,,,,,,,,
1764666886.094702,8981,0,4408.461426,4422.179688,4548.589844,4483.077148,4408.846191,4533.077148,4550.384766,4369.230957,4661.282227,4428.589844,4536.666504,4551.153809,4572.307617,4398.717773,4405.256348,4498.333496,4564.871582,4539.615234,4487.820313,4375.128418,4311.538574,4537.563965,4543.205078,4498.589844,4330.641113,4868.333496,4413.974121,4590,4521.922852,4437.563965,4570.641113,4552.820313,2821,1,17,2575,58641,,,,0,4,4,4,4,4,4,4,4,4,4,4,4,4,4,4,4,4,4,4,4,4,4,4,4,4,4,4,4,4,4,4,4,100,,,,,,,,,,,,,,,,,,,,,,,,,,,,,,,,,,,2245,0,0.502461,-0.477051,-0.367981,0.620117,1.014772,-0.286656,0.027835,7,48,-8.833333,,,,,,,,,,,,,,,,,,,,,,,,,,,,,,,,,,,,,,,,,,,,,,,,,,,,,,,,,,,,,,,,,,,,,,,,,,,,,,,,,,,,,,,,,,,,,,,,,,,,,,,,,,,,,,,,,,,,,,,,,,,,,,,,,,,,,,,,,,,,,,,,,,,,,,,,,,,,,,,,
1764666886.098608,8982,0,4418.717773,4434.871582,4557.179688,4490.641113,4423.077148,4545.769043,4568.717773,4387.436035,4669.615234,4438.461426,4555.769043,4560,4584.487305,4375.512695,4404.102539,4491.922852,4570.641113,4531.922852,4482.436035,4363.077148,4257.94873,4537.05127,4549.102539,4510.128418,4296.538574,4867.94873,4445.769043,4610.897461,4531.282227,4448.589844,4590.128418,4562.179688,2924,1,17,2576,58649,,,,0,4,4,4,4,4,4,4,4,4,4,4,4,4,4,4,4,4,4,4,4,4,4,4,4,4,4,4,4,4,4,4,4,100,,,,,,,,,,,,,,,,,,,,,,,,,,,,,,,,,,,,,,,,,,,,,,,,,,,,,,,,,,,,,,,,,,,,,,,,,,,,,,,,,,,,,,,,,,,,,,,,,,,,,,,,,,,,,,,,,,,,,,,,,,,,,,,,,,,,,,,,,,,,,,,,,,,,,,,,,,,,,,,,,,,,,,,,,,,,,,,,,,,,,,,,,,,,,,,,,,,,,,,,,,,,,,
1764666886.102514,8983,0,4410.897461,4430.641113,4545.256348,4483.205078,4421.666504,4545,4567.05127,4392.179688,4654.615234,4398.717773,4539.615234,4551.410156,4576.794922,4359.615234,4383.589844,4478.333496,4557.820313,4511.538574,4466.794922,4342.820313,4233.846191,4514.743652,4534.487305,4488.589844,4316.410156,4858.205078,4440.128418,4598.717773,4526.538574,4441.153809,4572.820313,4545.641113,2845,1,17,2576,58649,,,,0,4,4,4,4,4,4,4,4,4,4,4,4,4,4,4,4,4,4,4,4,4,4,4,4,4,4,4,4,4,4,4,4,100,,,,,,,,,,,,,,,,,,,,,,,,,,,,,,,,,,,,,,,,,,,,,,,,,,,,,,,,,,,,,,,,,,,,,,,,,,,,,,,,,,,,,,,,,,,,,,,,,,,,,,,,,,,,,,,,,,,,,,,,,,,,,,,,,,,,,,,,,,,,,,,,,,,,,,,,,,,,,,,,,,,,,,,,,,,,,,,,,,,,,,,,,,,,,,,,,,,,,,,,,,,,,,
1764666886.106420,8984,0,4387.692383,4410.769043,4517.820313,4463.205078,4406.153809,4529.358887,4543.974121,4379.230957,4628.461426,4330.769043,4494.487305,4528.333496,4550.641113,4362.05127,4353.589844,4466.538574,4531.153809,4489.230957,4450.897461,4330.641113,4251.025879,4479.743652,4504.487305,4441.025879,4384.230957,4841.282227,4395.128418,4555.769043,4509.358887,4417.05127,4524.743652,4508.974121,2756,1,17,2570,58656,,,,0,4,4,4,4,4,4,4,4,4,4,4,4,4,4,4,4,4,4,4,4,4,4,4,4,4,4,4,4,4,4,4,4,100,,,,,,,,,,,,,,,,,,,,,,,,,,,,,,,,,,,,,,,,,,,,,,,,,,,,,,,,,,,,,,,,,,,,,,,,,,,,,,,,,,,,,,,,,,,,,,,,,,,,,,,,,,,,,,,,,,,,,,,,,,,,,,,,,,,,,,,,,,,,,,,,,,,,,,,,,,,,,,,,,,,,,,,,,,,,,,,,,,,,,,,,,,,,,,,,,,,,,,,,,,,,,,
1764666886.110326,8985,0,4361.666504,4387.307617,4490,4441.282227,4385.769043,4507.179688,4512.436035,4357.307617,4606.538574,4271.538574,4444.358887,4502.94873,4519.487305,4382.05127,4329.871582,4463.205078,4504.487305,4476.794922,4442.692383,4335.256348,4300.256348,4448.974121,4473.589844,4389.230957,4457.179688,4824.743652,4337.307617,4504.487305,4489.487305,4388.589844,4470.897461,4471.794922,2858,1,17,2570,58656,,,,0,4,4,4,4,4,4,4,4,4,4,4,4,4,4,4,4,4,4,4,4,4,4,4,4,4,4,4,4,4,4,4,4,100,,,,,,,,,,,,,,,,,,,,,,,,,,,,,,,,,,,2246,0,0.500703,-0.478638,-0.36615,0.621399,0.978147,-0.282261,0.052252,6.333333,48,-8,,,,,,,,,,,,,,,,,,,,,,,,,,,,,,,,,,,,,,,,,,,,,,,,,,,,,,,,,,,,,,,,,,,,,,,,,,,,,,,,,,,,,,,,,,,,,,,,,,,,,,,,,,,,,,,,,,,,,,,,,,,,,,,,,,,,,,,,,,,,,,,,,,,,,,,,,,,,,,,,
1764666886.114232,8986,0,4347.179688,4374.102539,4477.05127,4428.589844,4369.743652,4490.641113,4490,4340.512695,4598.717773,4251.153809,4414.615234,4488.205078,4499.871582,4408.974121,4323.333496,4469.102539,4491.282227,4479.102539,4443.846191,4350.641113,4352.307617,4437.820313,4457.692383,4359.358887,4484.615234,4817.179688,4303.077148,4474.358887,4478.461426,4371.025879,4439.487305,4453.461426,1990,1,17,2571,58664,,,,0,4,4,4,4,4,4,4,4,4,4,4,4,4,4,4,4,4,4,4,4,4,4,4,4,4,4,4,4,4,4,4,4,100,0.757813,25,4,3,3,3,3,3,3,3,1,1,1,4,3,3,3,4,3,1,1,3,1,3,4,1,1,1,1,1,4,4,3,3,,,,,,,,,,,,,1.942365,1.543794,1.377281,1.300431,0.80482,2.458982,2.027053,1.976799,1.163284,0.874973,4.662043,1.844446,2.036509,1.431689,1.135191,2.822749,1.343432,2.168441,1.192997,0.915609,2.256743,1.150079,1.99367,1.04772,0.958657,1.859923,1.244684,2.1429,1.261571,0.832968,2.119362,1.108595,1.286369,1.555051,1.133696,2.388387,1.481714,2.506143,1.495178,1.440302,2.87473,1.16981,2.209539,1.8456,1.452126,3.846788,4.632492,3.819763,3.512857,3.112865,1.877066,0.976409,1.044164,1.186767,0.895252,2.278174,1.331694,1.009463,1.4828,0.750973,1.148445,0.75139,0.736926,1.14433,0.804988,2.001665,0.95448,0.791286,0.487538,0.478936,0.776495,0.894667,0.841701,1.11541,0.788725,1.155085,0.942697,0.638746,0.456165,0.357762,2.405041,1.45651,1.093409,1.505615,0.888105,2.045387,2.503978,1.770542,1.19326,0.793637,1.107912,1.945554,0.834347,0.860131,0.702676,1.372687,1.248445,1.574403,1.130503,0.914365,5.703746,2.105524,1.443303,2.611837,1.05342,2.303426,1.418293,2.126452,1.462707,0.713452,2.269135,1.318104,1.656125,1.221268,0.841343,2.998459,2.079041,2.447325,1.566252,0.893963,3.792243,9.055551,7.425786,8.830276,5.852835,3.392114,2.256179,2.32834,1.577862,1.104772,4.717163,1.275842,2.404306,1.86096,1.247918,3.642929,1.398545,2.462506,1.358298,0.991633,1.550617,0.96489,0.779036,0.70154,0.468965,4.086572,1.721649,2.167497,1.353353,0.966601,4.413106,1.999754,1.187846,1.637699,1.006229,5.477827,2.056339,2.430526,1.385035,0.926297
1764666886.118138,8987,0,4352.179688,4379.358887,4485.897461,4431.025879,4365.384766,4488.846191,4488.589844,4338.846191,4607.692383,4281.025879,4418.974121,4491.153809,4502.692383,4431.538574,4336.153809,4480.256348,4498.333496,4494.358887,4452.05127,4363.974121,4377.179688,4451.794922,4465.384766,4366.922852,4444.487305,4825,4315.128418,4483.589844,4483.333496,4374.102539,4447.436035,4462.820313,2578,1,17,2571,58664,,,,0,4,4,4,4,4,4,4,4,4,4,4,4,4,4,4,4,4,4,4,4,4,4,4,4,4,4,4,4,4,4,4,4,100,,,,,,,,,,,,,,,,,,,,,,,,,,,,,,,,,,,,,,,,,,,,,,,,,,,,,,,,,,,,,,,,,,,,,,,,,,,,,,,,,,,,,,,,,,,,,,,,,,,,,,,,,,,,,,,,,,,,,,,,,,,,,,,,,,,,,,,,,,,,,,,,,,,,,,,,,,,,,,,,,,,,,,,,,,,,,,,,,,,,,,,,,,,,,,,,,,,,,,,,,,,,,,
1764666886.122044,8988,0,4375.897461,4402.307617,4511.922852,4447.820313,4377.05127,4505,4510.256348,4354.871582,4630.641113,4350.384766,4455.897461,4511.794922,4530.128418,4443.205078,4362.692383,4491.410156,4523.589844,4516.794922,4465.769043,4368.717773,4368.461426,4484.487305,4493.974121,4407.436035,4362.563965,4847.307617,4368.846191,4528.461426,4503.077148,4397.436035,4491.922852,4494.358887,2705,1,17,2569,58672,,,,0,4,4,4,4,4,4,4,4,4,4,4,4,4,4,4,4,4,4,4,4,4,4,4,4,4,4,4,4,4,4,4,4,100,,,,,,,,,,,,,,,,,,,,,,,,,,,,,,,,,,,,,,,,,,,,,,,,,,,,,,,,,,,,,,,,,,,,,,,,,,,,,,,,,,,,,,,,,,,,,,,,,,,,,,,,,,,,,,,,,,,,,,,,,,,,,,,,,,,,,,,,,,,,,,,,,,,,,,,,,,,,,,,,,,,,,,,,,,,,,,,,,,,,,,,,,,,,,,,,,,,,,,,,,,,,,,
1764666886.125950,8989,0,4408.205078,4433.333496,4541.153809,4471.153809,4404.230957,4533.589844,4546.153809,4383.205078,4659.871582,4427.94873,4509.487305,4541.922852,4571.922852,4442.563965,4391.922852,4498.846191,4556.922852,4539.615234,4483.846191,4369.615234,4345.512695,4519.871582,4530,4457.820313,4296.538574,4873.846191,4434.743652,4584.102539,4528.717773,4430.128418,4551.282227,4532.179688,2516,1,17,2569,58672,,,,0,4,4,4,4,4,4,4,4,4,4,4,4,4,4,4,4,4,4,4,4,4,4,4,4,4,4,4,4,4,4,4,4,100,,,,,,,,,,,,,,,,,,,,,,,,,,,,,,,,,,,2247,0,0.499622,-0.479492,-0.365784,0.621826,0.978147,-0.282261,0.052252,6.333333,48,-8,,,,,,,,,,,,,,,,,,,,,,,,,,,,,,,,,,,,,,,,,,,,,,,,,,,,,,,,,,,,,,,,,,,,,,,,,,,,,,,,,,,,,,,,,,,,,,,,,,,,,,,,,,,,,,,,,,,,,,,,,,,,,,,,,,,,,,,,,,,,,,,,,,,,,,,,,,,,,,,,
1764666886.129856,8990,0,4432.94873,4456.666504,4556.922852,4488.974121,4437.820313,4561.153809,4579.743652,4411.794922,4683.205078,4471.922852,4552.94873,4567.179688,4608.077148,4431.282227,4411.410156,4500.641113,4582.563965,4555.512695,4502.692383,4374.615234,4334.615234,4538.974121,4554.230957,4488.974121,4292.94873,4887.436035,4474.743652,4618.205078,4546.282227,4454.743652,4595.128418,4556.538574,2703,1,17,2569,58680,,,,0,4,4,4,4,4,4,4,4,4,4,4,4,4,4,4,4,4,4,4,4,4,4,4,4,4,4,4,4,4,4,4,4,100,,,,,,,,,,,,,,,,,,,,,,,,,,,,,,,,,,,,,,,,,,,,,,,,,,,,,,,,,,,,,,,,,,,,,,,,,,,,,,,,,,,,,,,,,,,,,,,,,,,,,,,,,,,,,,,,,,,,,,,,,,,,,,,,,,,,,,,,,,,,,,,,,,,,,,,,,,,,,,,,,,,,,,,,,,,,,,,,,,,,,,,,,,,,,,,,,,,,,,,,,,,,,,
1764666886.133762,8991,0,4436.410156,4459.230957,4549.615234,4490.641113,4461.794922,4572.692383,4593.846191,4427.692383,4690.128418,4454.487305,4561.794922,4573.717773,4618.974121,4415.384766,4413.333496,4496.538574,4586.794922,4557.94873,4515.256348,4384.615234,4346.538574,4530.641113,4552.692383,4482.436035,4350.897461,4877.307617,4466.410156,4611.153809,4545.128418,4457.307617,4602.436035,4555.641113,2860,1,17,2569,58680,,,,0,4,4,4,4,4,4,4,4,4,4,4,4,4,4,4,4,4,4,4,4,4,4,4,4,4,4,4,4,4,4,4,4,100,,,,,,,,,,,,,,,,,,,,,,,,,,,,,,,,,,,,,,,,,,,,,,,,,,,,,,,,,,,,,,,,,,,,,,,,,,,,,,,,,,,,,,,,,,,,,,,,,,,,,,,,,,,,,,,,,,,,,,,,,,,,,,,,,,,,,,,,,,,,,,,,,,,,,,,,,,,,,,,,,,,,,,,,,,,,,,,,,,,,,,,,,,,,,,,,,,,,,,,,,,,,,,
1764666886.137668,8992,0,4416.794922,4439.743652,4524.102539,4475.512695,4463.717773,4562.436035,4581.794922,4423.717773,4677.179688,4384.743652,4530.897461,4557.436035,4599.358887,4403.589844,4399.743652,4487.563965,4567.563965,4544.230957,4512.94873,4391.538574,4371.025879,4500.897461,4526.666504,4444.358887,4425.897461,4849.102539,4417.692383,4568.974121,4526.282227,4437.563965,4574.487305,4534.743652,2765,1,17,2570,58688,,,,0,4,4,4,4,4,4,4,4,4,4,4,4,4,4,4,4,4,4,4,4,4,4,4,4,4,4,4,4,4,4,4,4,100,,,,,,,,,,,,,,,,,,,,,,,,,,,,,,,,,,,,,,,,,,,,,,,,,,,,,,,,,,,,,,,,,,,,,,,,,,,,,,,,,,,,,,,,,,,,,,,,,,,,,,,,,,,,,,,,,,,,,,,,,,,,,,,,,,,,,,,,,,,,,,,,,,,,,,,,,,,,,,,,,,,,,,,,,,,,,,,,,,,,,,,,,,,,,,,,,,,,,,,,,,,,,,
1764666886.141574,8993,0,4386.666504,4410,4497.179688,4453.077148,4442.436035,4537.692383,4551.794922,4403.461426,4649.871582,4307.436035,4481.153809,4528.461426,4562.563965,4399.487305,4380.769043,4477.307617,4536.410156,4518.077148,4492.05127,4385.512695,4387.563965,4470.128418,4493.333496,4402.179688,4468.333496,4821.922852,4361.410156,4520.128418,4501.666504,4409.871582,4533.974121,4512.94873,2862,1,17,2570,58688,,,,0,4,4,4,4,4,4,4,4,4,4,4,4,4,4,4,4,4,4,4,4,4,4,4,4,4,4,4,4,4,4,4,4,100,,,,,,,,,,,,,,,,,,,,,,,,,,,,,,,,,,,2248,0,0.498729,-0.480225,-0.365417,0.622192,0.96838,-0.279331,0.050787,7.833333,48.666668,-8,,,,,,,,,,,,,,,,,,,,,,,,,,,,,,,,,,,,,,,,,,,,,,,,,,,,,,,,,,,,,,,,,,,,,,,,,,,,,,,,,,,,,,,,,,,,,,,,,,,,,,,,,,,,,,,,,,,,,,,,,,,,,,,,,,,,,,,,,,,,,,,,,,,,,,,,,,,,,,,,
1764666886.145480,8994,0,4363.846191,4385.512695,4485.769043,4435.769043,4409.487305,4512.692383,4521.282227,4377.179688,4619.487305,4270.641113,4444.487305,4503.717773,4530.512695,4398.077148,4366.025879,4470.512695,4511.666504,4490.512695,4459.102539,4364.871582,4382.436035,4458.717773,4473.461426,4385.384766,4457.820313,4811.922852,4331.666504,4494.615234,4485.769043,4391.538574,4507.179688,4507.179688,2627,1,17,2571,58695,,,,0,4,4,4,4,4,4,4,4,4,4,4,4,4,4,4,4,4,4,4,4,4,4,4,4,4,4,4,4,4,4,4,4,100,,,,,,,,,,,,,,,,,,,,,,,,,,,,,,,,,,,,,,,,,,,,,,,,,,,,,,,,,,,,,,,,,,,,,,,,,,,,,,,,,,,,,,,,,,,,,,,,,,,,,,,,,,,,,,,,,,,,,,,,,,,,,,,,,,,,,,,,,,,,,,,,,,,,,,,,,,,,,,,,,,,,,,,,,,,,,,,,,,,,,,,,,,,,,,,,,,,,,,,,,,,,,,
1764666886.149386,8995,0,4358.333496,4376.025879,4495.128418,4430.897461,4380.128418,4498.077148,4504.102539,4355.512695,4598.205078,4289.487305,4440.256348,4494.358887,4518.461426,4391.153809,4358.846191,4470.512695,4504.358887,4473.974121,4429.487305,4339.487305,4355.512695,4471.410156,4475.641113,4403.717773,4406.794922,4819.230957,4339.871582,4503.205078,4484.487305,4390.641113,4504.615234,4518.717773,2827,1,17,2571,58695,,,,0,4,4,4,4,4,4,4,4,4,4,4,4,4,4,4,4,4,4,4,4,4,4,4,4,4,4,4,4,4,4,4,4,100,,,,,,,,,,,,,,,,,,,,,,,,,,,,,,,,,,,,,,,,,,,,,,,,,,,,,,,,,,,,,,,,,,,,,,,,,,,,,,,,,,,,,,,,,,,,,,,,,,,,,,,,,,,,,,,,,,,,,,,,,,,,,,,,,,,,,,,,,,,,,,,,,,,,,,,,,,,,,,,,,,,,,,,,,,,,,,,,,,,,,,,,,,,,,,,,,,,,,,,,,,,,,,
1764666886.153292,8996,0,4366.922852,4379.615234,4516.922852,4436.794922,4364.871582,4495.256348,4502.179688,4343.717773,4593.333496,4339.487305,4461.538574,4499.487305,4525.769043,4378.717773,4357.563965,4476.922852,4512.820313,4475.897461,4419.358887,4325,4319.615234,4493.974121,4491.922852,4439.871582,4345.897461,4832.179688,4371.025879,4532.05127,4492.563965,4401.282227,4517.05127,4535.641113,2712,1,17,2572,58703,,,,0,4,4,4,4,4,4,4,4,4,4,4,4,4,4,4,4,4,4,4,4,4,4,4,4,4,4,4,4,4,4,4,4,100,,,,,,,,,,,,,,,,,,,,,,,,,,,,,,,,,,,,,,,,,,,,,,,,,,,,,,,,,,,,,,,,,,,,,,,,,,,,,,,,,,,,,,,,,,,,,,,,,,,,,,,,,,,,,,,,,,,,,,,,,,,,,,,,,,,,,,,,,,,,,,,,,,,,,,,,,,,,,,,,,,,,,,,,,,,,,,,,,,,,,,,,,,,,,,,,,,,,,,,,,,,,,,
1764666886.157198,8997,0,4378.333496,4388.205078,4538.205078,4447.436035,4365.897461,4498.846191,4508.846191,4341.538574,4603.717773,4381.025879,4485,4509.871582,4540.897461,4370.769043,4360.256348,4486.282227,4526.282227,4493.974121,4434.743652,4331.666504,4294.102539,4505.897461,4505.256348,4464.487305,4309.615234,4839.230957,4398.461426,4556.153809,4500.256348,4411.153809,4527.94873,4545.641113,2781,1,17,2572,58703,,,,0,4,4,4,4,4,4,4,4,4,4,4,4,4,4,4,4,4,4,4,4,4,4,4,4,4,4,4,4,4,4,4,4,100,,,,,,,,,,,,,,,,,,,,,,,,,,,,,,,,,,,2249,0,0.497841,-0.480713,-0.365051,0.622742,0.960566,-0.276401,0.036137,7.833333,48.666668,-8,,,,,,,,,,,,,,,,,,,,,,,,,,,,,,,,,,,,,,,,,,,,,,,,,,,,,,,,,,,,,,,,,,,,,,,,,,,,,,,,,,,,,,,,,,,,,,,,,,,,,,,,,,,,,,,,,,,,,,,,,,,,,,,,,,,,,,,,,,,,,,,,,,,,,,,,,,,,,,,,
1764666886.161104,8998,0,4382.820313,4393.846191,4549.743652,4456.666504,4376.538574,4502.820313,4515.128418,4345.769043,4620.256348,4388.717773,4490.641113,4515.641113,4550.897461,4378.077148,4364.871582,4493.333496,4534.230957,4516.282227,4466.025879,4356.282227,4296.538574,4496.410156,4503.974121,4457.179688,4320.641113,4837.307617,4403.717773,4557.820313,4501.025879,4411.794922,4527.563965,4544.615234,2810,1,17,2573,58711,,,,0,4,4,4,4,4,4,4,4,4,4,4,4,4,4,4,4,4,4,4,4,4,4,4,4,4,4,4,4,4,4,4,4,100,,,,,,,,,,,,,,,,,,,,,,,,,,,,,,,,,,,,,,,,,,,,,,,,,,,,,,,,,,,,,,,,,,,,,,,,,,,,,,,,,,,,,,,,,,,,,,,,,,,,,,,,,,,,,,,,,,,,,,,,,,,,,,,,,,,,,,,,,,,,,,,,,,,,,,,,,,,,,,,,,,,,,,,,,,,,,,,,,,,,,,,,,,,,,,,,,,,,,,,,,,,,,,
1764666886.165010,8999,0,4377.05127,4392.307617,4548.974121,4460.641113,4385.384766,4503.077148,4515.256348,4351.410156,4630.897461,4362.692383,4473.974121,4512.563965,4549.487305,4399.487305,4367.05127,4493.717773,4531.666504,4527.307617,4492.820313,4382.436035,4330.256348,4471.538574,4488.717773,4420.897461,4370.769043,4829.230957,4386.282227,4537.436035,4494.615234,4402.94873,4518.205078,4536.282227,2972,1,17,2573,58711,,,,0,4,4,4,4,4,4,4,4,4,4,4,4,4,4,4,4,4,4,4,4,4,4,4,4,4,4,4,4,4,4,4,4,100,,,,,,,,,,,,,,,,,,,,,,,,,,,,,,,,,,,,,,,,,,,,,,,,,,,,,,,,,,,,,,,,,,,,,,,,,,,,,,,,,,,,,,,,,,,,,,,,,,,,,,,,,,,,,,,,,,,,,,,,,,,,,,,,,,,,,,,,,,,,,,,,,,,,,,,,,,,,,,,,,,,,,,,,,,,,,,,,,,,,,,,,,,,,,,,,,,,,,,,,,,,,,,
1764666886.168916,9000,0,4364.230957,4383.717773,4537.820313,4457.94873,4383.205078,4498.205078,4508.461426,4353.333496,4626.922852,4320.769043,4446.538574,4503.077148,4538.717773,4421.282227,4361.794922,4485.512695,4520.512695,4517.94873,4497.820313,4392.05127,4381.282227,4447.307617,4469.358887,4377.563965,4420.769043,4819.358887,4359.615234,4510,4485.128418,4390.128418,4508.077148,4525.641113,2880,1,17,2574,58719,,,,0,4,4,4,4,4,4,4,4,4,4,4,4,4,4,4,4,4,4,4,4,4,4,4,4,4,4,4,4,4,4,4,4,100,,,,,,,,,,,,,,,,,,,,,,,,,,,,,,,,,,,,,,,,,,,,,,,,,,,,,,,,,,,,,,,,,,,,,,,,,,,,,,,,,,,,,,,,,,,,,,,,,,,,,,,,,,,,,,,,,,,,,,,,,,,,,,,,,,,,,,,,,,,,,,,,,,,,,,,,,,,,,,,,,,,,,,,,,,,,,,,,,,,,,,,,,,,,,,,,,,,,,,,,,,,,,,
1764666886.172822,9001,0,4351.538574,4371.794922,4521.922852,4450.769043,4370.128418,4489.615234,4498.974121,4349.487305,4608.077148,4285.384766,4426.153809,4493.461426,4526.538574,4429.230957,4348.846191,4471.282227,4507.94873,4492.692383,4479.615234,4378.846191,4425.769043,4438.333496,4457.307617,4351.410156,4431.153809,4813.333496,4341.153809,4493.461426,4478.205078,4380.256348,4504.358887,4517.307617,2721,1,17,2574,58719,,,,0,4,4,4,4,4,4,4,4,4,4,4,4,4,4,4,4,4,4,4,4,4,4,4,4,4,4,4,4,4,4,4,4,100,,,,,,,,,,,,,,,,,,,,,,,,,,,,,,,,,,,2250,0,0.497063,-0.481018,-0.364563,0.623413,0.933708,-0.279819,0.040044,5.5,48,-9.333333,,,,,,,,,,,,,,,,,,,,,,,,,,,,,,,,,,,,,,,,,,,,,,,,,,,,,,,,,,,,,,,,,,,,,,,,,,,,,,,,,,,,,,,,,,,,,,,,,,,,,,,,,,,,,,,,,,,,,,,,,,,,,,,,,,,,,,,,,,,,,,,,,,,,,,,,,,,,,,,,
1764666886.176728,9002,1,4351.641113,4370.666504,4518.128418,4450.205078,4363.384766,4487.307617,4497.743652,4344.025879,4607.692383,4301.820313,4434.256348,4494.205078,4527.615234,4422.563965,4350.410156,4472.922852,4508.820313,4494.077148,4477.410156,4372.256348,4413.256348,4443.871582,4459.94873,4362.410156,4418.615234,4814.641113,4346.974121,4499.102539,4479.794922,4383.05127,4506.94873,4516.692383,0,1,17,0,0,,,,0,4,4,4,4,4,4,4,4,4,4,4,4,4,4,4,4,4,4,4,4,4,4,4,4,4,4,4,4,4,4,4,4,100,,,,,,,,,,,,,,,,,,,,,,,,,,,,,,,,,,,,,,,,,,,,,,,,,,,,,,,,,,,,,,,,,,,,,,,,,,,,,,,,,,,,,,,,,,,,,,,,,,,,,,,,,,,,,,,,,,,,,,,,,,,,,,,,,,,,,,,,,,,,,,,,,,,,,,,,,,,,,,,,,,,,,,,,,,,,,,,,,,,,,,,,,,,,,,,,,,,,,,,,,,,,,,
1764666886.180634,9003,1,4351.743652,4369.538574,4514.333496,4449.641113,4356.641113,4485,4496.512695,4338.563965,4607.307617,4318.256348,4442.358887,4494.94873,4528.692383,4415.897461,4351.974121,4474.563965,4509.692383,4495.461426,4475.205078,4365.666504,4400.743652,4449.410156,4462.589844,4373.410156,4406.077148,4815.94873,4352.794922,4504.743652,4481.384766,4385.846191,4509.538574,4516.077148,0,1,17,0,0,,,,0,4,4,4,4,4,4,4,4,4,4,4,4,4,4,4,4,4,4,4,4,4,4,4,4,4,4,4,4,4,4,4,4,100,,,,,,,,,,,,,,,,,,,,,,,,,,,,,,,,,,,,,,,,,,,,,,,,,,,,,,,,,,,,,,,,,,,,,,,,,,,,,,,,,,,,,,,,,,,,,,,,,,,,,,,,,,,,,,,,,,,,,,,,,,,,,,,,,,,,,,,,,,,,,,,,,,,,,,,,,,,,,,,,,,,,,,,,,,,,,,,,,,,,,,,,,,,,,,,,,,,,,,,,,,,,,,
1764666886.184540,9004,1,4351.846191,4368.410156,4510.538574,4449.077148,4349.897461,4482.692383,4495.282227,4333.102539,4606.922852,4334.692383,4450.461426,4495.692383,4529.769043,4409.230957,4353.538574,4476.205078,4510.563965,4496.846191,4473,4359.077148,4388.230957,4454.94873,4465.230957,4384.410156,4393.538574,4817.256348,4358.615234,4510.384766,4482.974121,4388.641113,4512.128418,4515.461426,0,1,17,0,0,,,,0,4,4,4,4,4,4,4,4,4,4,4,4,4,4,4,4,4,4,4,4,4,4,4,4,4,4,4,4,4,4,4,4,100,,,,,,,,,,,,,,,,,,,,,,,,,,,,,,,,,,,,,,,,,,,,,,,,,,,,,,,,,,,,,,,,,,,,,,,,,,,,,,,,,,,,,,,,,,,,,,,,,,,,,,,,,,,,,,,,,,,,,,,,,,,,,,,,,,,,,,,,,,,,,,,,,,,,,,,,,,,,,,,,,,,,,,,,,,,,,,,,,,,,,,,,,,,,,,,,,,,,,,,,,,,,,,
1764666886.188446,9005,1,4351.94873,4367.282227,4506.743652,4448.512695,4343.153809,4480.384766,4494.05127,4327.641113,4606.538574,4351.128418,4458.563965,4496.436035,4530.846191,4402.563965,4355.102539,4477.846191,4511.436035,4498.230957,4470.794922,4352.487305,4375.717773,4460.487305,4467.871582,4395.410156,4381,4818.563965,4364.436035,4516.025879,4484.563965,4391.436035,4514.717773,4514.846191,0,1,17,0,0,,,,0,4,4,4,4,4,4,4,4,4,4,4,4,4,4,4,4,4,4,4,4,4,4,4,4,4,4,4,4,4,4,4,4,100,,,,,,,,,,,,,,,,,,,,,,,,,,,,,,,,,,,,,,,,,,,,,,,,,,,,,,,,,,,,,,,,,,,,,,,,,,,,,,,,,,,,,,,,,,,,,,,,,,,,,,,,,,,,,,,,,,,,,,,,,,,,,,,,,,,,,,,,,,,,,,,,,,,,,,,,,,,,,,,,,,,,,,,,,,,,,,,,,,,,,,,,,,,,,,,,,,,,,,,,,,,,,,
1764666886.192352,9006,0,4352.05127,4366.153809,4502.94873,4447.94873,4336.410156,4478.077148,4492.820313,4322.179688,4606.153809,4367.563965,4466.666504,4497.179688,4531.922852,4395.897461,4356.666504,4479.487305,4512.307617,4499.615234,4468.589844,4345.897461,4363.205078,4466.025879,4470.512695,4406.410156,4368.461426,4819.871582,4370.256348,4521.666504,4486.153809,4394.230957,4517.307617,4514.230957,2700,1,17,2573,58742,,,,0,4,4,4,4,4,4,4,4,4,4,4,4,4,4,4,4,4,4,4,4,4,4,4,4,4,4,4,4,4,4,4,4,100,,,,,,,,,,,,,,,,,,,,,,,,,,,,,,,,,,,,,,,,,,,,,,,,,,,,,,,,,,,,,,,,,,,,,,,,,,,,,,,,,,,,,,,,,,,,,,,,,,,,,,,,,,,,,,,,,,,,,,,,,,,,,,,,,,,,,,,,,,,,,,,,,,,,,,,,,,,,,,,,,,,,,,,,,,,,,,,,,,,,,,,,,,,,,,,,,,,,,,,,,,,,,,
1764666886.196258,9007,0,4363.077148,4379.487305,4513.589844,4457.307617,4349.615234,4491.538574,4505.128418,4339.230957,4623.461426,4402.05127,4472.05127,4507.436035,4543.333496,4417.692383,4374.871582,4492.563965,4522.179688,4520.128418,4484.871582,4361.794922,4376.410156,4477.05127,4482.94873,4417.692383,4392.05127,4814.102539,4383.589844,4531.794922,4495.512695,4410,4529.871582,4518.205078,2485,1,17,2573,58742,,,,0,4,4,4,4,4,4,4,4,4,4,4,4,4,4,4,4,4,4,4,4,4,4,4,4,4,4,4,4,4,4,4,4,100,,,,,,,,,,,,,,,,,,,,,,,,,,,,,,,,,,,,,,,,,,,,,,,,,,,,,,,,,,,,,,,,,,,,,,,,,,,,,,,,,,,,,,,,,,,,,,,,,,,,,,,,,,,,,,,,,,,,,,,,,,,,,,,,,,,,,,,,,,,,,,,,,,,,,,,,,,,,,,,,,,,,,,,,,,,,,,,,,,,,,,,,,,,,,,,,,,,,,,,,,,,,,,
1764666886.200164,9008,0,4382.05127,4397.307617,4527.563965,4472.179688,4370.897461,4510,4527.94873,4370.641113,4630.384766,4418.846191,4486.794922,4525.897461,4562.179688,4433.974121,4385.769043,4499.102539,4537.820313,4530.256348,4489.358887,4370.897461,4393.461426,4504.358887,4505.897461,4443.589844,4404.871582,4821.666504,4406.922852,4555.512695,4510.897461,4428.974121,4551.794922,4530.769043,2880,1,17,2574,58750,,,,0,4,4,4,4,4,4,4,4,4,4,4,4,4,4,4,4,4,4,4,4,4,4,4,4,4,4,4,4,4,4,4,4,100,,,,,,,,,,,,,,,,,,,,,,,,,,,,,,,,,,,,,,,,,,,,,,,,,,,,,,,,,,,,,,,,,,,,,,,,,,,,,,,,,,,,,,,,,,,,,,,,,,,,,,,,,,,,,,,,,,,,,,,,,,,,,,,,,,,,,,,,,,,,,,,,,,,,,,,,,,,,,,,,,,,,,,,,,,,,,,,,,,,,,,,,,,,,,,,,,,,,,,,,,,,,,,
1764666886.204070,9009,0,4401.410156,4413.205078,4540.128418,4487.436035,4392.179688,4526.282227,4552.563965,4403.333496,4628.077148,4402.05127,4503.717773,4544.743652,4580,4437.05127,4385.256348,4498.717773,4553.205078,4530.641113,4484.230957,4371.666504,4389.743652,4533.589844,4528.717773,4476.794922,4418.077148,4842.820313,4431.025879,4582.692383,4525.897461,4442.179688,4574.230957,4546.666504,2849,1,17,2574,58750,,,,0,4,4,4,4,4,4,4,4,4,4,4,4,4,4,4,4,4,4,4,4,4,4,4,4,4,4,4,4,4,4,4,4,100,,,,,,,,,,,,,,,,,,,,,,,,,,,,,,,,,,,2252,0,0.495716,-0.481445,-0.363953,0.624512,0.927848,-0.276889,0.054694,4,47.333332,-9.166667,,,,,,,,,,,,,,,,,,,,,,,,,,,,,,,,,,,,,,,,,,,,,,,,,,,,,,,,,,,,,,,,,,,,,,,,,,,,,,,,,,,,,,,,,,,,,,,,,,,,,,,,,,,,,,,,,,,,,,,,,,,,,,,,,,,,,,,,,,,,,,,,,,,,,,,,,,,,,,,,
1764666886.207976,9010,0,4409.615234,4418.205078,4544.615234,4494.871582,4400.384766,4531.025879,4563.974121,4417.05127,4621.153809,4354.487305,4507.94873,4551.538574,4585,4429.871582,4374.487305,4493.461426,4558.846191,4524.743652,4476.282227,4366.538574,4357.820313,4544.871582,4536.282227,4497.179688,4440.512695,4864.102539,4438.974121,4595.769043,4531.025879,4441.282227,4582.94873,4553.589844,1768,1,17,2569,58758,,,,0,4,4,4,4,4,4,4,4,4,4,4,4,4,4,4,4,4,4,4,4,4,4,4,4,4,4,4,4,4,4,4,4,100,,,,,,,,,,,,,,,,,,,,,,,,,,,,,,,,,,,,,,,,,,,,,,,,,,,,,,,,,,,,,,,,,,,,,,,,,,,,,,,,,,,,,,,,,,,,,,,,,,,,,,,,,,,,,,,,,,,,,,,,,,,,,,,,,,,,,,,,,,,,,,,,,,,,,,,,,,,,,,,,,,,,,,,,,,,,,,,,,,,,,,,,,,,,,,,,,,,,,,,,,,,,,,
1764666886.211882,9011,0,4398.846191,4406.410156,4535,4486.410156,4385.769043,4518.846191,4552.179688,4398.717773,4611.410156,4301.282227,4491.153809,4539.102539,4571.794922,4419.871582,4358.846191,4484.487305,4549.230957,4515.128418,4469.230957,4359.615234,4318.717773,4529.358887,4520.897461,4486.666504,4463.333496,4868.333496,4419.358887,4582.307617,4520.641113,4424.102539,4565.128418,4541.153809,2808,1,17,2569,58758,,,,0,4,4,4,4,4,4,4,4,4,4,4,4,4,4,4,4,4,4,4,4,4,4,4,4,4,4,4,4,4,4,4,4,100,,,,,,,,,,,,,,,,,,,,,,,,,,,,,,,,,,,,,,,,,,,,,,,,,,,,,,,,,,,,,,,,,,,,,,,,,,,,,,,,,,,,,,,,,,,,,,,,,,,,,,,,,,,,,,,,,,,,,,,,,,,,,,,,,,,,,,,,,,,,,,,,,,,,,,,,,,,,,,,,,,,,,,,,,,,,,,,,,,,,,,,,,,,,,,,,,,,,,,,,,,,,,,
1764666886.215788,9012,0,4372.94873,4380.641113,4510.641113,4460.897461,4351.922852,4492.820313,4520.641113,4354.487305,4596.922852,4271.666504,4461.025879,4512.307617,4547.436035,4410,4344.487305,4471.922852,4527.820313,4502.05127,4462.05127,4353.846191,4305.256348,4498.846191,4489.743652,4446.410156,4461.538574,4848.589844,4376.922852,4547.307617,4498.846191,4396.282227,4520.256348,4508.974121,2471,1,17,2569,58766,,,,0,4,4,4,4,4,4,4,4,4,4,4,4,4,4,4,4,4,4,4,4,4,4,4,4,4,4,4,4,4,4,4,4,100,,,,,,,,,,,,,,,,,,,,,,,,,,,,,,,,,,,,,,,,,,,,,,,,,,,,,,,,,,,,,,,,,,,,,,,,,,,,,,,,,,,,,,,,,,,,,,,,,,,,,,,,,,,,,,,,,,,,,,,,,,,,,,,,,,,,,,,,,,,,,,,,,,,,,,,,,,,,,,,,,,,,,,,,,,,,,,,,,,,,,,,,,,,,,,,,,,,,,,,,,,,,,,
1764666886.219694,9013,0,4346.025879,4353.205078,4480.128418,4427.179688,4316.666504,4465.512695,4486.538574,4308.846191,4578.589844,4276.666504,4435.769043,4486.410156,4525.897461,4399.358887,4335.384766,4457.820313,4506.538574,4487.820313,4453.589844,4350,4331.538574,4475.641113,4461.282227,4400.128418,4412.692383,4813.077148,4334.102539,4511.538574,4477.820313,4370.128418,4465.512695,4468.846191,2804,1,17,2569,58766,,,,0,4,4,4,4,4,4,4,4,4,4,4,4,4,4,4,4,4,4,4,4,4,4,4,4,4,4,4,4,4,4,4,4,100,,,,,,,,,,,,,,,,,,,,,,,,,,,,,,,,,,,2253,0,0.494981,-0.481567,-0.364685,0.624573,0.967403,-0.265169,0.038091,7.333333,49.333332,-8.666667,,,,,,,,,,,,,,,,,,,,,,,,,,,,,,,,,,,,,,,,,,,,,,,,,,,,,,,,,,,,,,,,,,,,,,,,,,,,,,,,,,,,,,,,,,,,,,,,,,,,,,,,,,,,,,,,,,,,,,,,,,,,,,,,,,,,,,,,,,,,,,,,,,,,,,,,,,,,,,,,
1764666886.223600,9014,0,4334.230957,4339.871582,4457.94873,4401.538574,4302.179688,4451.922852,4470,4289.615234,4565.256348,4303.461426,4430.384766,4476.666504,4519.358887,4389.743652,4333.333496,4448.461426,4497.692383,4479.358887,4447.94873,4349.230957,4381.794922,4474.871582,4452.307617,4375.512695,4325.128418,4780.128418,4316.153809,4497.94873,4470.128418,4358.589844,4427.820313,4438.077148,2897,1,17,2569,58774,,,,0,4,4,4,4,4,4,4,4,4,4,4,4,4,4,4,4,4,4,4,4,4,4,4,4,4,4,4,4,4,4,4,4,100,,,,,,,,,,,,,,,,,,,,,,,,,,,,,,,,,,,,,,,,,,,,,,,,,,,,,,,,,,,,,,,,,,,,,,,,,,,,,,,,,,,,,,,,,,,,,,,,,,,,,,,,,,,,,,,,,,,,,,,,,,,,,,,,,,,,,,,,,,,,,,,,,,,,,,,,,,,,,,,,,,,,,,,,,,,,,,,,,,,,,,,,,,,,,,,,,,,,,,,,,,,,,,
1764666886.227506,9015,0,4344.230957,4349.230957,4456.922852,4398.333496,4319.871582,4460.769043,4480.897461,4308.717773,4569.358887,4333.589844,4447.563965,4488.461426,4529.743652,4388.589844,4339.487305,4450.641113,4506.153809,4483.717773,4450.769043,4353.846191,4426.666504,4492.436035,4465.384766,4383.205078,4247.692383,4766.666504,4332.692383,4512.94873,4480.128418,4367.94873,4427.820313,4430.769043,2822,1,17,2569,58774,,,,0,4,4,4,4,4,4,4,4,4,4,4,4,4,4,4,4,4,4,4,4,4,4,4,4,4,4,4,4,4,4,4,4,100,,,,,,,,,,,,,,,,,,,,,,,,,,,,,,,,,,,,,,,,,,,,,,,,,,,,,,,,,,,,,,,,,,,,,,,,,,,,,,,,,,,,,,,,,,,,,,,,,,,,,,,,,,,,,,,,,,,,,,,,,,,,,,,,,,,,,,,,,,,,,,,,,,,,,,,,,,,,,,,,,,,,,,,,,,,,,,,,,,,,,,,,,,,,,,,,,,,,,,,,,,,,,,
1764666886.231412,9016,0,4370,4377.307617,4478.717773,4419.615234,4361.922852,4488.205078,4512.436035,4353.846191,4594.743652,4358.717773,4478.077148,4514.615234,4550.256348,4399.615234,4353.205078,4465.512695,4526.410156,4501.538574,4464.487305,4366.025879,4448.077148,4512.94873,4489.487305,4411.282227,4240.897461,4780,4369.743652,4542.94873,4500.769043,4393.077148,4467.179688,4450.512695,2750,1,17,2569,58781,,,,0,4,4,4,4,4,4,4,4,4,4,4,4,4,4,4,4,4,4,4,4,4,4,4,4,4,4,4,4,4,4,4,4,100,,,,,,,,,,,,,,,,,,,,,,,,,,,,,,,,,,,,,,,,,,,,,,,,,,,,,,,,,,,,,,,,,,,,,,,,,,,,,,,,,,,,,,,,,,,,,,,,,,,,,,,,,,,,,,,,,,,,,,,,,,,,,,,,,,,,,,,,,,,,,,,,,,,,,,,,,,,,,,,,,,,,,,,,,,,,,,,,,,,,,,,,,,,,,,,,,,,,,,,,,,,,,,
1764666886.235318,9017,0,4397.436035,4409.358887,4512.05127,4454.102539,4405.641113,4520.128418,4546.666504,4398.077148,4628.205078,4380.128418,4507.94873,4541.410156,4570.384766,4417.05127,4370.512695,4486.666504,4547.94873,4525.512695,4484.230957,4383.846191,4447.692383,4524.230957,4510.256348,4439.871582,4325,4813.717773,4401.922852,4566.410156,4520,4420.641113,4527.436035,4489.358887,2844,1,17,2569,58781,,,,0,4,4,4,4,4,4,4,4,4,4,4,4,4,4,4,4,4,4,4,4,4,4,4,4,4,4,4,4,4,4,4,4,100,,,,,,,,,,,,,,,,,,,,,,,,,,,,,,,,,,,2254,0,0.494449,-0.481506,-0.365173,0.624756,0.961055,-0.267122,0.020022,5.5,48.333332,-9.333333,,,,,,,,,,,,,,,,,,,,,,,,,,,,,,,,,,,,,,,,,,,,,,,,,,,,,,,,,,,,,,,,,,,,,,,,,,,,,,,,,,,,,,,,,,,,,,,,,,,,,,,,,,,,,,,,,,,,,,,,,,,,,,,,,,,,,,,,,,,,,,,,,,,,,,,,,,,,,,,,
1764666886.239225,9018,0,4413.589844,4429.102539,4539.487305,4484.102539,4428.333496,4540.769043,4566.025879,4418.333496,4648.333496,4397.692383,4525,4556.922852,4581.666504,4428.974121,4385.641113,4503.974121,4562.179688,4545.256348,4501.922852,4401.153809,4437.820313,4526.153809,4519.871582,4456.282227,4456.025879,4849.102539,4412.179688,4570.769043,4528.717773,4437.05127,4580.769043,4530.512695,1974,1,17,2568,58789,,,,0,4,4,4,4,4,4,4,4,4,4,4,4,4,4,4,4,4,4,4,4,4,4,4,4,4,4,4,4,4,4,4,4,100,,,,,,,,,,,,,,,,,,,,,,,,,,,,,,,,,,,,,,,,,,,,,,,2.514755,1.397368,1.491613,1.471592,0.854738,2.960506,2.044611,1.947034,1.347331,0.960705,4.887672,1.887318,1.80971,1.505482,1.187438,3.487408,1.474829,1.893678,1.439393,1.043447,3.025695,1.330377,1.913017,1.163438,0.997492,2.223766,1.426842,2.116197,1.403206,0.934718,2.982617,1.241027,1.424123,1.798255,1.245483,3.355181,1.636135,2.354311,1.7973,1.559944,4.188737,1.322543,2.31842,2.182441,1.70918,5.481262,6.671019,4.428798,4.399366,4.290569,2.364526,0.962523,1.196291,1.614985,1.216526,3.092899,1.169889,1.208077,1.608556,0.837466,1.65439,0.69129,0.8272,1.297349,0.929249,3.82463,1.389669,1.066135,0.588653,0.520677,1.000237,0.863333,1.006193,1.244437,0.983546,1.650531,0.974264,0.697856,0.518286,0.478236,3.174768,1.204096,1.245145,1.638648,0.958316,2.689289,2.407861,2.114867,1.267655,1.022605,1.266895,2.226488,1.175778,0.990563,0.898424,1.680443,1.106584,1.556958,1.147633,0.946935,12.892958,2.290987,1.66918,3.343999,1.431384,3.388459,1.391592,2.451521,1.613455,0.695359,3.002179,1.2155,1.920677,1.373004,0.844848,3.920722,2.140945,3.047628,2.146476,0.900186,4.612397,10.514134,6.794676,9.68057,6.282063,5.149737,2.479554,2.431929,1.698077,1.192007,5.066586,1.368045,2.628741,2.331458,1.287237,4.550244,1.520595,2.55416,1.653975,1.041221,1.728248,0.941732,0.793755,0.804867,0.487816,4.980454,1.659209,2.25949,1.593398,1.032723,4.942981,2.160482,1.516462,1.982096,1.040302,5.094894,1.887494,2.095795,1.439913,0.978622
1764666886.243131,9019,0,4413.974121,4428.461426,4549.102539,4496.666504,4421.794922,4542.179688,4563.717773,4409.102539,4642.563965,4402.94873,4523.077148,4556.538574,4581.538574,4428.205078,4392.692383,4510,4565.897461,4554.358887,4511.922852,4409.615234,4428.333496,4526.025879,4518.589844,4459.358887,4554.871582,4866.025879,4401.025879,4559.358887,4525,4435.769043,4603.205078,4557.179688,2580,1,17,2568,58789,,,,0,4,4,4,4,4,4,4,4,4,4,4,4,4,4,4,4,4,4,4,4,4,4,4,4,4,4,4,4,4,4,4,4,100,,,,,,,,,,,,,,,,,,,,,,,,,,,,,,,,,,,,,,,,,,,,,,,,,,,,,,,,,,,,,,,,,,,,,,,,,,,,,,,,,,,,,,,,,,,,,,,,,,,,,,,,,,,,,,,,,,,,,,,,,,,,,,,,,,,,,,,,,,,,,,,,,,,,,,,,,,,,,,,,,,,,,,,,,,,,,,,,,,,,,,,,,,,,,,,,,,,,,,,,,,,,,,
1764666886.247037,9020,0,4402.307617,4411.025879,4541.153809,4490,4395.384766,4527.436035,4546.025879,4383.077148,4617.563965,4387.692383,4505.128418,4543.333496,4572.563965,4417.94873,4389.487305,4504.230957,4560.769043,4551.410156,4512.179688,4404.230957,4421.922852,4527.692383,4510.769043,4453.205078,4567.820313,4855.256348,4380.897461,4543.077148,4513.589844,4419.102539,4587.692383,4561.153809,2684,1,17,2569,58797,,,,0,4,4,4,4,4,4,4,4,4,4,4,4,4,4,4,4,4,4,4,4,4,4,4,4,4,4,4,4,4,4,4,4,100,,,,,,,,,,,,,,,,,,,,,,,,,,,,,,,,,,,,,,,,,,,,,,,,,,,,,,,,,,,,,,,,,,,,,,,,,,,,,,,,,,,,,,,,,,,,,,,,,,,,,,,,,,,,,,,,,,,,,,,,,,,,,,,,,,,,,,,,,,,,,,,,,,,,,,,,,,,,,,,,,,,,,,,,,,,,,,,,,,,,,,,,,,,,,,,,,,,,,,,,,,,,,,
1764666886.250943,9021,0,4386.794922,4388.589844,4524.615234,4471.666504,4366.794922,4507.563965,4526.025879,4357.820313,4591.282227,4355.384766,4481.025879,4525.128418,4559.615234,4406.794922,4378.717773,4491.410156,4550.256348,4538.461426,4502.563965,4385.897461,4415.256348,4527.820313,4500.384766,4441.282227,4501.410156,4824.358887,4364.871582,4530.769043,4501.282227,4396.538574,4546.666504,4546.282227,2474,1,17,2569,58797,,,,0,4,4,4,4,4,4,4,4,4,4,4,4,4,4,4,4,4,4,4,4,4,4,4,4,4,4,4,4,4,4,4,4,100,,,,,,,,,,,,,,,,,,,,,,,,,,,,,,,,,,,2255,0,0.493626,-0.481445,-0.365845,0.625061,0.961055,-0.267122,0.020022,5.666667,49.333332,-10.333333,,,,,,,,,,,,,,,,,,,,,,,,,,,,,,,,,,,,,,,,,,,,,,,,,,,,,,,,,,,,,,,,,,,,,,,,,,,,,,,,,,,,,,,,,,,,,,,,,,,,,,,,,,,,,,,,,,,,,,,,,,,,,,,,,,,,,,,,,,,,,,,,,,,,,,,,,,,,,,,,
1764666886.254849,9022,0,4373.974121,4372.692383,4509.743652,4451.282227,4349.487305,4493.077148,4512.820313,4343.205078,4577.179688,4323.333496,4462.563965,4509.230957,4547.436035,4400.769043,4365.512695,4477.94873,4537.820313,4518.205078,4483.461426,4361.538574,4403.077148,4520.384766,4490.641113,4426.666504,4406.153809,4791.153809,4359.230957,4525.384766,4492.820313,4378.846191,4504.487305,4523.717773,2686,1,17,2570,58805,,,,0,4,4,4,4,4,4,4,4,4,4,4,4,4,4,4,4,4,4,4,4,4,4,4,4,4,4,4,4,4,4,4,4,100,,,,,,,,,,,,,,,,,,,,,,,,,,,,,,,,,,,,,,,,,,,,,,,,,,,,,,,,,,,,,,,,,,,,,,,,,,,,,,,,,,,,,,,,,,,,,,,,,,,,,,,,,,,,,,,,,,,,,,,,,,,,,,,,,,,,,,,,,,,,,,,,,,,,,,,,,,,,,,,,,,,,,,,,,,,,,,,,,,,,,,,,,,,,,,,,,,,,,,,,,,,,,,
1764666886.258755,9023,0,4366.922852,4368.077148,4501.410156,4435.512695,4345.384766,4488.333496,4507.94873,4337.307617,4575.641113,4311.922852,4456.922852,4500.641113,4539.358887,4398.846191,4355.384766,4468.846191,4526.794922,4495.897461,4459.358887,4340.384766,4383.846191,4505.769043,4484.102539,4414.487305,4334.358887,4771.666504,4363.717773,4525.897461,4490,4373.333496,4483.077148,4506.153809,2849,1,17,2570,58805,,,,0,4,4,4,4,4,4,4,4,4,4,4,4,4,4,4,4,4,4,4,4,4,4,4,4,4,4,4,4,4,4,4,4,100,,,,,,,,,,,,,,,,,,,,,,,,,,,,,,,,,,,,,,,,,,,,,,,,,,,,,,,,,,,,,,,,,,,,,,,,,,,,,,,,,,,,,,,,,,,,,,,,,,,,,,,,,,,,,,,,,,,,,,,,,,,,,,,,,,,,,,,,,,,,,,,,,,,,,,,,,,,,,,,,,,,,,,,,,,,,,,,,,,,,,,,,,,,,,,,,,,,,,,,,,,,,,,
1764666886.262661,9024,0,4365.769043,4373.461426,4500,4428.205078,4349.358887,4491.282227,4508.205078,4334.615234,4576.922852,4326.538574,4463.333496,4500.256348,4536.410156,4397.05127,4351.153809,4465.897461,4520.256348,4479.487305,4439.487305,4329.871582,4362.436035,4491.794922,4483.205078,4410.641113,4310.512695,4771.410156,4373.717773,4530.897461,4492.179688,4381.153809,4490,4500.897461,2750,1,17,2571,58813,,,,0,4,4,4,4,4,4,4,4,4,4,4,4,4,4,4,4,4,4,4,4,4,4,4,4,4,4,4,4,4,4,4,4,100,,,,,,,,,,,,,,,,,,,,,,,,,,,,,,,,,,,,,,,,,,,,,,,,,,,,,,,,,,,,,,,,,,,,,,,,,,,,,,,,,,,,,,,,,,,,,,,,,,,,,,,,,,,,,,,,,,,,,,,,,,,,,,,,,,,,,,,,,,,,,,,,,,,,,,,,,,,,,,,,,,,,,,,,,,,,,,,,,,,,,,,,,,,,,,,,,,,,,,,,,,,,,,
1764666886.266567,9025,0,4369.615234,4383.589844,4503.589844,4430.512695,4355.512695,4497.820313,4511.153809,4334.102539,4573.333496,4350.769043,4474.358887,4506.538574,4538.077148,4393.333496,4352.436035,4468.077148,4520.384766,4476.153809,4433.717773,4332.692383,4348.974121,4488.717773,4487.94873,4416.922852,4328.589844,4783.461426,4383.077148,4538.717773,4497.05127,4396.666504,4515,4507.820313,2932,1,17,2571,58813,,,,0,4,4,4,4,4,4,4,4,4,4,4,4,4,4,4,4,4,4,4,4,4,4,4,4,4,4,4,4,4,4,4,4,100,,,,,,,,,,,,,,,,,,,,,,,,,,,,,,,,,,,2256,0,0.493112,-0.481079,-0.366394,0.625427,0.950311,-0.271518,-0.000977,6.333333,48,-11,,,,,,,,,,,,,,,,,,,,,,,,,,,,,,,,,,,,,,,,,,,,,,,,,,,,,,,,,,,,,,,,,,,,,,,,,,,,,,,,,,,,,,,,,,,,,,,,,,,,,,,,,,,,,,,,,,,,,,,,,,,,,,,,,,,,,,,,,,,,,,,,,,,,,,,,,,,,,,,,
1764666886.270473,9026,0,4377.05127,4393.461426,4510.384766,4441.410156,4361.666504,4505,4516.794922,4340.256348,4566.538574,4358.589844,4481.922852,4516.025879,4542.820313,4389.615234,4356.282227,4472.692383,4526.666504,4487.05127,4445.641113,4345.641113,4353.077148,4498.974121,4495.256348,4428.974121,4366.922852,4794.230957,4386.538574,4546.794922,4502.436035,4411.282227,4539.358887,4519.743652,2610,1,17,2572,58820,,,,0,4,4,4,4,4,4,4,4,4,4,4,4,4,4,4,4,4,4,4,4,4,4,4,4,4,4,4,4,4,4,4,4,100,,,,,,,,,,,,,,,,,,,,,,,,,,,,,,,,,,,,,,,,,,,,,,,,,,,,,,,,,,,,,,,,,,,,,,,,,,,,,,,,,,,,,,,,,,,,,,,,,,,,,,,,,,,,,,,,,,,,,,,,,,,,,,,,,,,,,,,,,,,,,,,,,,,,,,,,,,,,,,,,,,,,,,,,,,,,,,,,,,,,,,,,,,,,,,,,,,,,,,,,,,,,,,
1764666886.274379,9027,0,4385.897461,4400.384766,4518.717773,4457.05127,4368.974121,4512.820313,4526.153809,4355.897461,4566.153809,4341.153809,4483.077148,4525.256348,4549.230957,4390.256348,4360,4476.922852,4536.153809,4506.794922,4469.487305,4362.563965,4375,4515.769043,4501.410156,4438.589844,4403.461426,4794.230957,4382.820313,4551.538574,4506.794922,4418.333496,4548.974121,4527.94873,2810,1,17,2572,58820,,,,0,4,4,4,4,4,4,4,4,4,4,4,4,4,4,4,4,4,4,4,4,4,4,4,4,4,4,4,4,4,4,4,4,100,,,,,,,,,,,,,,,,,,,,,,,,,,,,,,,,,,,,,,,,,,,,,,,,,,,,,,,,,,,,,,,,,,,,,,,,,,,,,,,,,,,,,,,,,,,,,,,,,,,,,,,,,,,,,,,,,,,,,,,,,,,,,,,,,,,,,,,,,,,,,,,,,,,,,,,,,,,,,,,,,,,,,,,,,,,,,,,,,,,,,,,,,,,,,,,,,,,,,,,,,,,,,,
1764666886.278285,9028,0,4393.846191,4404.743652,4526.025879,4472.307617,4378.717773,4521.794922,4537.692383,4376.538574,4578.846191,4317.820313,4480.897461,4532.179688,4556.666504,4397.94873,4363.077148,4479.743652,4545.384766,4525.769043,4493.333496,4376.282227,4403.205078,4528.333496,4504.102539,4440.256348,4423.717773,4785.897461,4376.025879,4551.538574,4509.743652,4417.692383,4543.333496,4528.333496,2672,1,17,2573,58828,,,,0,4,4,4,4,4,4,4,4,4,4,4,4,4,4,4,4,4,4,4,4,4,4,4,4,4,4,4,4,4,4,4,4,100,,,,,,,,,,,,,,,,,,,,,,,,,,,,,,,,,,,,,,,,,,,,,,,,,,,,,,,,,,,,,,,,,,,,,,,,,,,,,,,,,,,,,,,,,,,,,,,,,,,,,,,,,,,,,,,,,,,,,,,,,,,,,,,,,,,,,,,,,,,,,,,,,,,,,,,,,,,,,,,,,,,,,,,,,,,,,,,,,,,,,,,,,,,,,,,,,,,,,,,,,,,,,,
1764666886.282191,9029,0,4398.846191,4407.436035,4529.871582,4482.436035,4388.589844,4530.256348,4547.05127,4391.538574,4599.102539,4316.922852,4480.384766,4535.897461,4563.333496,4409.871582,4366.666504,4480.512695,4551.410156,4535.384766,4504.102539,4381.794922,4421.410156,4531.282227,4504.102539,4434.615234,4423.333496,4780.128418,4372.436035,4548.717773,4511.666504,4414.487305,4532.05127,4523.205078,2763,1,17,2573,58828,,,,0,4,4,4,4,4,4,4,4,4,4,4,4,4,4,4,4,4,4,4,4,4,4,4,4,4,4,4,4,4,4,4,4,100,,,,,,,,,,,,,,,,,,,,,,,,,,,,,,,,,,,2257,0,0.49271,-0.48053,-0.366821,0.625916,0.960078,-0.279331,0.019534,6.5,48.166668,-10,,,,,,,,,,,,,,,,,,,,,,,,,,,,,,,,,,,,,,,,,,,,,,,,,,,,,,,,,,,,,,,,,,,,,,,,,,,,,,,,,,,,,,,,,,,,,,,,,,,,,,,,,,,,,,,,,,,,,,,,,,,,,,,,,,,,,,,,,,,,,,,,,,,,,,,,,,,,,,,,
1764666886.286097,9030,0,4399.102539,4408.205078,4528.333496,4484.230957,4393.077148,4533.846191,4548.461426,4391.153809,4611.794922,4345.769043,4481.922852,4535.769043,4565.769043,4418.717773,4370,4478.974121,4552.692383,4530.897461,4495.256348,4377.307617,4418.974121,4527.436035,4503.461426,4426.922852,4408.717773,4783.589844,4375.256348,4547.05127,4512.692383,4413.589844,4525.256348,4517.692383,2785,1,17,2574,58836,,,,0,4,4,4,4,4,4,4,4,4,4,4,4,4,4,4,4,4,4,4,4,4,4,4,4,4,4,4,4,4,4,4,4,100,,,,,,,,,,,,,,,,,,,,,,,,,,,,,,,,,,,,,,,,,,,,,,,,,,,,,,,,,,,,,,,,,,,,,,,,,,,,,,,,,,,,,,,,,,,,,,,,,,,,,,,,,,,,,,,,,,,,,,,,,,,,,,,,,,,,,,,,,,,,,,,,,,,,,,,,,,,,,,,,,,,,,,,,,,,,,,,,,,,,,,,,,,,,,,,,,,,,,,,,,,,,,,
1764666886.290003,9031,0,4394.102539,4405.512695,4521.666504,4477.563965,4387.820313,4529.102539,4539.615234,4375.384766,4604.871582,4381.538574,4482.179688,4531.282227,4560.897461,4418.333496,4370.384766,4475.384766,4549.102539,4515.384766,4472.05127,4365.769043,4398.717773,4523.333496,4502.692383,4424.102539,4391.922852,4791.794922,4381.794922,4549.230957,4512.05127,4415.641113,4526.922852,4515,2951,1,17,2574,58836,,,,0,4,4,4,4,4,4,4,4,4,4,4,4,4,4,4,4,4,4,4,4,4,4,4,4,4,4,4,4,4,4,4,4,100,,,,,,,,,,,,,,,,,,,,,,,,,,,,,,,,,,,,,,,,,,,,,,,,,,,,,,,,,,,,,,,,,,,,,,,,,,,,,,,,,,,,,,,,,,,,,,,,,,,,,,,,,,,,,,,,,,,,,,,,,,,,,,,,,,,,,,,,,,,,,,,,,,,,,,,,,,,,,,,,,,,,,,,,,,,,,,,,,,,,,,,,,,,,,,,,,,,,,,,,,,,,,,
1764666886.293909,9032,0,4386.282227,4399.615234,4512.94873,4466.794922,4375.128418,4518.205078,4525.128418,4355.512695,4581.794922,4393.717773,4478.717773,4523.974121,4549.871582,4408.846191,4365.384766,4471.282227,4542.820313,4497.94873,4449.871582,4354.230957,4373.077148,4523.717773,4501.538574,4430,4382.307617,4794.230957,4387.436035,4554.487305,4509.615234,4417.820313,4533.461426,4515.128418,2868,1,17,2575,58844,,,,0,4,4,4,4,4,4,4,4,4,4,4,4,4,4,4,4,4,4,4,4,4,4,4,4,4,4,4,4,4,4,4,4,100,,,,,,,,,,,,,,,,,,,,,,,,,,,,,,,,,,,,,,,,,,,,,,,,,,,,,,,,,,,,,,,,,,,,,,,,,,,,,,,,,,,,,,,,,,,,,,,,,,,,,,,,,,,,,,,,,,,,,,,,,,,,,,,,,,,,,,,,,,,,,,,,,,,,,,,,,,,,,,,,,,,,,,,,,,,,,,,,,,,,,,,,,,,,,,,,,,,,,,,,,,,,,,
1764666886.297815,9033,0,4380.641113,4393.974121,4506.922852,4459.487305,4363.589844,4507.820313,4513.717773,4345.769043,4560.384766,4373.077148,4473.717773,4517.563965,4538.589844,4396.922852,4357.179688,4469.358887,4537.692383,4488.846191,4442.94873,4349.615234,4355.641113,4528.077148,4499.743652,4442.820313,4382.436035,4785.384766,4388.974121,4560.256348,4506.666504,4417.820313,4538.589844,4516.153809,2701,1,17,2575,58844,,,,0,4,4,4,4,4,4,4,4,4,4,4,4,4,4,4,4,4,4,4,4,4,4,4,4,4,4,4,4,4,4,4,4,100,,,,,,,,,,,,,,,,,,,,,,,,,,,,,,,,,,,2258,0,0.492125,-0.479553,-0.367737,0.626587,0.969845,-0.254426,-0.01172,6.5,47.333332,-9.5,,,,,,,,,,,,,,,,,,,,,,,,,,,,,,,,,,,,,,,,,,,,,,,,,,,,,,,,,,,,,,,,,,,,,,,,,,,,,,,,,,,,,,,,,,,,,,,,,,,,,,,,,,,,,,,,,,,,,,,,,,,,,,,,,,,,,,,,,,,,,,,,,,,,,,,,,,,,,,,,
1764666886.301721,9034,0,4380.384766,4391.538574,4506.282227,4461.153809,4360.897461,4504.615234,4512.307617,4351.794922,4557.820313,4338.717773,4472.179688,4515,4533.846191,4389.743652,4350.769043,4470.256348,4536.282227,4491.538574,4453.589844,4354.743652,4353.974121,4532.179688,4496.794922,4454.743652,4390,4770.897461,4386.153809,4562.820313,4505,4415.512695,4537.05127,4516.282227,1452,1,17,2576,58852,,,,0,4,4,4,4,4,4,4,4,4,4,4,4,4,4,4,4,4,4,4,4,4,4,4,4,4,4,4,4,4,4,4,4,100,,,,,,,,,,,,,,,,,,,,,,,,,,,,,,,,,,,,,,,,,,,,,,,,,,,,,,,,,,,,,,,,,,,,,,,,,,,,,,,,,,,,,,,,,,,,,,,,,,,,,,,,,,,,,,,,,,,,,,,,,,,,,,,,,,,,,,,,,,,,,,,,,,,,,,,,,,,,,,,,,,,,,,,,,,,,,,,,,,,,,,,,,,,,,,,,,,,,,,,,,,,,,,
1764666886.305627,9035,0,4383.205078,4392.179688,4508.461426,4469.230957,4366.666504,4507.94873,4518.717773,4365.256348,4575.641113,4321.153809,4476.794922,4515.641113,4538.333496,4388.974121,4350.512695,4472.05127,4537.05127,4501.025879,4470.897461,4366.153809,4367.307617,4530.897461,4491.794922,4455.384766,4398.846191,4760.897461,4378.077148,4558.205078,4504.487305,4410.897461,4528.205078,4513.974121,2675,1,17,2576,58852,,,,0,4,4,4,4,4,4,4,4,4,4,4,4,4,4,4,4,4,4,4,4,4,4,4,4,4,4,4,4,4,4,4,4,100,,,,,,,,,,,,,,,,,,,,,,,,,,,,,,,,,,,,,,,,,,,,,,,,,,,,,,,,,,,,,,,,,,,,,,,,,,,,,,,,,,,,,,,,,,,,,,,,,,,,,,,,,,,,,,,,,,,,,,,,,,,,,,,,,,,,,,,,,,,,,,,,,,,,,,,,,,,,,,,,,,,,,,,,,,,,,,,,,,,,,,,,,,,,,,,,,,,,,,,,,,,,,,
1764666886.309533,9036,0,4383.846191,4391.666504,4508.077148,4475.384766,4373.589844,4511.538574,4524.487305,4371.538574,4597.94873,4337.307617,4484.871582,4515.897461,4547.94873,4391.153809,4356.666504,4471.922852,4536.410156,4510,4482.94873,4377.05127,4388.717773,4523.077148,4484.743652,4440.256348,4399.615234,4759.871582,4364.487305,4545.256348,4503.077148,4403.333496,4516.538574,4508.974121,2472,1,17,2576,58859,,,,0,4,4,4,4,4,4,4,4,4,4,4,4,4,4,4,4,4,4,4,4,4,4,4,4,4,4,4,4,4,4,4,4,100,,,,,,,,,,,,,,,,,,,,,,,,,,,,,,,,,,,,,,,,,,,,,,,,,,,,,,,,,,,,,,,,,,,,,,,,,,,,,,,,,,,,,,,,,,,,,,,,,,,,,,,,,,,,,,,,,,,,,,,,,,,,,,,,,,,,,,,,,,,,,,,,,,,,,,,,,,,,,,,,,,,,,,,,,,,,,,,,,,,,,,,,,,,,,,,,,,,,,,,,,,,,,,
1764666886.313439,9037,0,4377.94873,4385.897461,4501.410156,4472.563965,4374.230957,4508.846191,4522.436035,4363.077148,4605.128418,4375,4490.256348,4512.436035,4555.512695,4391.410156,4365.384766,4469.871582,4531.666504,4514.615234,4486.153809,4381.282227,4407.179688,4512.307617,4476.153809,4415.897461,4387.05127,4762.94873,4347.563965,4528.333496,4498.717773,4392.436035,4506.922852,4501.666504,2251,1,17,2576,58859,,,,0,4,4,4,4,4,4,4,4,4,4,4,4,4,4,4,4,4,4,4,4,4,4,4,4,4,4,4,4,4,4,4,4,100,,,,,,,,,,,,,,,,,,,,,,,,,,,,,,,,,,,2259,0,0.492125,-0.479553,-0.367737,0.626587,0.991332,-0.260286,-0.001465,7.666667,49,-9.5,,,,,,,,,,,,,,,,,,,,,,,,,,,,,,,,,,,,,,,,,,,,,,,,,,,,,,,,,,,,,,,,,,,,,,,,,,,,,,,,,,,,,,,,,,,,,,,,,,,,,,,,,,,,,,,,,,,,,,,,,,,,,,,,,,,,,,,,,,,,,,,,,,,,,,,,,,,,,,,,
1764666886.317345,9038,0,4366.282227,4374.102539,4488.974121,4461.025879,4365.769043,4498.461426,4512.307617,4345.384766,4588.846191,4401.538574,4487.563965,4504.487305,4554.615234,4388.333496,4371.538574,4467.692383,4522.563965,4514.615234,4483.717773,4376.153809,4412.307617,4503.077148,4467.692383,4395.256348,4371.153809,4761.410156,4332.05127,4514.230957,4491.153809,4378.717773,4499.871582,4491.666504,2678,1,17,2575,58867,,,,0,4,4,4,4,4,4,4,4,4,4,4,4,4,4,4,4,4,4,4,4,4,4,4,4,4,4,4,4,4,4,4,4,100,,,,,,,,,,,,,,,,,,,,,,,,,,,,,,,,,,,,,,,,,,,,,,,,,,,,,,,,,,,,,,,,,,,,,,,,,,,,,,,,,,,,,,,,,,,,,,,,,,,,,,,,,,,,,,,,,,,,,,,,,,,,,,,,,,,,,,,,,,,,,,,,,,,,,,,,,,,,,,,,,,,,,,,,,,,,,,,,,,,,,,,,,,,,,,,,,,,,,,,,,,,,,,
1764666886.321251,9039,0,4353.461426,4360.128418,4475.384766,4447.179688,4351.922852,4484.615234,4499.615234,4330.897461,4558.589844,4389.102539,4475.641113,4494.230957,4544.871582,4383.974121,4371.794922,4467.05127,4512.179688,4511.153809,4480.256348,4363.461426,4400.769043,4497.94873,4460.512695,4389.358887,4372.820313,4751.794922,4322.179688,4507.307617,4482.692383,4364.615234,4491.922852,4479.487305,2446,1,17,2575,58867,,,,0,4,4,4,4,4,4,4,4,4,4,4,4,4,4,4,4,4,4,4,4,4,4,4,4,4,4,4,4,4,4,4,4,100,,,,,,,,,,,,,,,,,,,,,,,,,,,,,,,,,,,,,,,,,,,,,,,,,,,,,,,,,,,,,,,,,,,,,,,,,,,,,,,,,,,,,,,,,,,,,,,,,,,,,,,,,,,,,,,,,,,,,,,,,,,,,,,,,,,,,,,,,,,,,,,,,,,,,,,,,,,,,,,,,,,,,,,,,,,,,,,,,,,,,,,,,,,,,,,,,,,,,,,,,,,,,,
1764666886.325157,9040,0,4345.897461,4349.871582,4466.538574,4439.230957,4339.615234,4474.487305,4491.153809,4327.692383,4534.743652,4338.974121,4459.102539,4486.282227,4532.179688,4381.538574,4367.94873,4468.717773,4505.384766,4505.384766,4476.922852,4348.846191,4378.589844,4498.461426,4457.179688,4400.128418,4400,4739.615234,4321.025879,4508.077148,4477.436035,4354.743652,4483.333496,4467.436035,2855,1,17,2575,58875,,,,0,4,4,4,4,4,4,4,4,4,4,4,4,4,4,4,4,4,4,4,4,4,4,4,4,4,4,4,4,4,4,4,4,100,,,,,,,,,,,,,,,,,,,,,,,,,,,,,,,,,,,,,,,,,,,,,,,,,,,,,,,,,,,,,,,,,,,,,,,,,,,,,,,,,,,,,,,,,,,,,,,,,,,,,,,,,,,,,,,,,,,,,,,,,,,,,,,,,,,,,,,,,,,,,,,,,,,,,,,,,,,,,,,,,,,,,,,,,,,,,,,,,,,,,,,,,,,,,,,,,,,,,,,,,,,,,,
1764666886.329063,9041,0,4347.05127,4348.205078,4465.512695,4441.282227,4334.743652,4472.692383,4489.871582,4334.102539,4532.692383,4282.563965,4445.769043,4484.743652,4524.487305,4383.717773,4365.256348,4472.436035,4506.410156,4500.512695,4473.077148,4339.358887,4357.94873,4504.871582,4460.384766,4420.384766,4431.153809,4733.974121,4329.487305,4515,4478.589844,4353.589844,4479.102539,4460.256348,2961,1,17,2575,58875,,,,0,4,4,4,4,4,4,4,4,4,4,4,4,4,4,4,4,4,4,4,4,4,4,4,4,4,4,4,4,4,4,4,4,100,,,,,,,,,,,,,,,,,,,,,,,,,,,,,,,,,,,2260,0,0.49165,-0.478821,-0.368286,0.627197,0.986449,-0.249542,-0.00293,5.666667,48.166668,-9.5,,,,,,,,,,,,,,,,,,,,,,,,,,,,,,,,,,,,,,,,,,,,,,,,,,,,,,,,,,,,,,,,,,,,,,,,,,,,,,,,,,,,,,,,,,,,,,,,,,,,,,,,,,,,,,,,,,,,,,,,,,,,,,,,,,,,,,,,,,,,,,,,,,,,,,,,,,,,,,,,
1764666886.332969,9042,0,4355.769043,4356.282227,4472.692383,4452.05127,4338.717773,4479.358887,4495.128418,4342.179688,4551.282227,4257.436035,4442.563965,4491.153809,4526.538574,4391.410156,4368.717773,4478.205078,4515.897461,4500.512695,4470.384766,4340.128418,4350.769043,4515.769043,4470.641113,4438.717773,4432.563965,4738.717773,4346.410156,4526.025879,4486.410156,4363.077148,4485.769043,4462.820313,1748,1,17,2572,58883,,,,0,4,4,4,4,4,4,4,4,4,4,4,4,4,4,4,4,4,4,4,4,4,4,4,4,4,4,4,4,4,4,4,4,100,,,,,,,,,,,,,,,,,,,,,,,,,,,,,,,,,,,,,,,,,,,,,,,,,,,,,,,,,,,,,,,,,,,,,,,,,,,,,,,,,,,,,,,,,,,,,,,,,,,,,,,,,,,,,,,,,,,,,,,,,,,,,,,,,,,,,,,,,,,,,,,,,,,,,,,,,,,,,,,,,,,,,,,,,,,,,,,,,,,,,,,,,,,,,,,,,,,,,,,,,,,,,,
1764666886.336875,9043,0,4367.94873,4370.897461,4486.153809,4466.666504,4349.743652,4491.153809,4505.256348,4346.666504,4575.769043,4279.871582,4452.820313,4503.846191,4537.94873,4403.333496,4377.94873,4484.871582,4530.641113,4507.563965,4472.436035,4352.436035,4363.717773,4528.589844,4485.384766,4446.538574,4395.641113,4749.743652,4367.05127,4538.717773,4497.94873,4380,4504.615234,4477.05127,2787,1,17,2572,58883,,,,0,4,4,4,4,4,4,4,4,4,4,4,4,4,4,4,4,4,4,4,4,4,4,4,4,4,4,4,4,4,4,4,4,100,,,,,,,,,,,,,,,,,,,,,,,,,,,,,,,,,,,,,,,,,,,,,,,,,,,,,,,,,,,,,,,,,,,,,,,,,,,,,,,,,,,,,,,,,,,,,,,,,,,,,,,,,,,,,,,,,,,,,,,,,,,,,,,,,,,,,,,,,,,,,,,,,,,,,,,,,,,,,,,,,,,,,,,,,,,,,,,,,,,,,,,,,,,,,,,,,,,,,,,,,,,,,,
1764666886.340781,9044,1,4368.424805,4371.617676,4487.082031,4468.839844,4351.013672,4491.416504,4506.654297,4347.930176,4574.627441,4282.209961,4454.92041,4504.67041,4539.456543,4403.333496,4377.545898,4484.285645,4530.848633,4507.436035,4472.399414,4352.887695,4364.444336,4529.773926,4486.446777,4447.74707,4391.825195,4748.23584,4368.577637,4540.32373,4498.626465,4381.397949,4506.275879,4478.852051,0,1,17,0,0,,,,0,4,4,4,4,4,4,4,4,4,4,4,4,4,4,4,4,4,4,4,4,4,4,4,4,4,4,4,4,4,4,4,4,100,,,,,,,,,,,,,,,,,,,,,,,,,,,,,,,,,,,,,,,,,,,,,,,,,,,,,,,,,,,,,,,,,,,,,,,,,,,,,,,,,,,,,,,,,,,,,,,,,,,,,,,,,,,,,,,,,,,,,,,,,,,,,,,,,,,,,,,,,,,,,,,,,,,,,,,,,,,,,,,,,,,,,,,,,,,,,,,,,,,,,,,,,,,,,,,,,,,,,,,,,,,,,,
1764666886.344687,9045,1,4368.900879,4372.338379,4488.009766,4471.013672,4352.283203,4491.678711,4508.052734,4349.194336,4573.48584,4284.54834,4457.020996,4505.494629,4540.964355,4403.333496,4377.143066,4483.699707,4531.056152,4507.307617,4472.362793,4353.339355,4365.170898,4530.958496,4487.509277,4448.956055,4388.009766,4746.727539,4370.104004,4541.929199,4499.304199,4382.795898,4507.936523,4480.65332,0,1,17,0,0,,,,0,4,4,4,4,4,4,4,4,4,4,4,4,4,4,4,4,4,4,4,4,4,4,4,4,4,4,4,4,4,4,4,4,100,,,,,,,,,,,,,,,,,,,,,,,,,,,,,,,,,,,,,,,,,,,,,,,,,,,,,,,,,,,,,,,,,,,,,,,,,,,,,,,,,,,,,,,,,,,,,,,,,,,,,,,,,,,,,,,,,,,,,,,,,,,,,,,,,,,,,,,,,,,,,,,,,,,,,,,,,,,,,,,,,,,,,,,,,,,,,,,,,,,,,,,,,,,,,,,,,,,,,,,,,,,,,,
1764666886.348593,9046,1,4369.377441,4373.058594,4488.9375,4473.187012,4353.553223,4491.941406,4509.450684,4350.458008,4572.344238,4286.88623,4459.121094,4506.318848,4542.472656,4403.333496,4376.739746,4483.11377,4531.263672,4507.179688,4472.326172,4353.791016,4365.897461,4532.143066,4488.571289,4450.165039,4384.194336,4745.219727,4371.629883,4543.534668,4499.981445,4384.194336,4509.597168,4482.454102,0,1,17,0,0,,,,0,4,4,4,4,4,4,4,4,4,4,4,4,4,4,4,4,4,4,4,4,4,4,4,4,4,4,4,4,4,4,4,4,100,,,,,,,,,,,,,,,,,,,,,,,,,,,,,,,,,,,,,,,,,,,,,,,,,,,,,,,,,,,,,,,,,,,,,,,,,,,,,,,,,,,,,,,,,,,,,,,,,,,,,,,,,,,,,,,,,,,,,,,,,,,,,,,,,,,,,,,,,,,,,,,,,,,,,,,,,,,,,,,,,,,,,,,,,,,,,,,,,,,,,,,,,,,,,,,,,,,,,,,,,,,,,,
1764666886.352499,9047,1,4369.853516,4373.778809,4489.865723,4475.360352,4354.822754,4492.204102,4510.848633,4351.72168,4571.202637,4289.224609,4461.221191,4507.143066,4543.980469,4403.333496,4376.336914,4482.527344,4531.471191,4507.05127,4472.289551,4354.243164,4366.624023,4533.327148,4489.633789,4451.373535,4380.378418,4743.711914,4373.15625,4545.140625,4500.65918,4385.592285,4511.257813,4484.255371,0,1,17,0,0,,,,0,4,4,4,4,4,4,4,4,4,4,4,4,4,4,4,4,4,4,4,4,4,4,4,4,4,4,4,4,4,4,4,4,100,,,,,,,,,,,,,,,,,,,,,,,,,,,,,,,,,,,,,,,,,,,,,,,,,,,,,,,,,,,,,,,,,,,,,,,,,,,,,,,,,,,,,,,,,,,,,,,,,,,,,,,,,,,,,,,,,,,,,,,,,,,,,,,,,,,,,,,,,,,,,,,,,,,,,,,,,,,,,,,,,,,,,,,,,,,,,,,,,,,,,,,,,,,,,,,,,,,,,,,,,,,,,,
1764666886.356405,9048,1,4370.32959,4374.499512,4490.793457,4477.533691,4356.092773,4492.466309,4512.246582,4352.985352,4570.061035,4291.562988,4463.321289,4507.966797,4545.488281,4403.333496,4375.934082,4481.941406,4531.678711,4506.922852,4472.25293,4354.694824,4367.350586,4534.511719,4490.695801,4452.58252,4376.562988,4742.204102,4374.682617,4546.746094,4501.336914,4386.990234,4512.917969,4486.056152,0,1,17,0,0,,,,0,4,4,4,4,4,4,4,4,4,4,4,4,4,4,4,4,4,4,4,4,4,4,4,4,4,4,4,4,4,4,4,4,100,,,,,,,,,,,,,,,,,,,,,,,,,,,,,,,,,,,,,,,,,,,,,,,,,,,,,,,,,,,,,,,,,,,,,,,,,,,,,,,,,,,,,,,,,,,,,,,,,,,,,,,,,,,,,,,,,,,,,,,,,,,,,,,,,,,,,,,,,,,,,,,,,,,,,,,,,,,,,,,,,,,,,,,,,,,,,,,,,,,,,,,,,,,,,,,,,,,,,,,,,,,,,,
1764666886.360311,9049,1,4370.805664,4375.219727,4491.72168,4479.707031,4357.362793,4492.729004,4513.644531,4354.249023,4568.919434,4293.900879,4465.421387,4508.791016,4546.996094,4403.333496,4375.53125,4481.355469,4531.88623,4506.794922,4472.216309,4355.146484,4368.077148,4535.695801,4491.758301,4453.791016,4372.74707,4740.695801,4376.208984,4548.351563,4502.014648,4388.388184,4514.578613,4487.856934,0,1,17,0,0,,,,0,4,4,4,4,4,4,4,4,4,4,4,4,4,4,4,4,4,4,4,4,4,4,4,4,4,4,4,4,4,4,4,4,100,,,,,,,,,,,,,,,,,,,,,,,,,,,,,,,,,,,,,,,,,,,,,,,,,,,,,,,,,,,,,,,,,,,,,,,,,,,,,,,,,,,,,,,,,,,,,,,,,,,,,,,,,,,,,,,,,,,,,,,,,,,,,,,,,,,,,,,,,,,,,,,,,,,,,,,,,,,,,,,,,,,,,,,,,,,,,,,,,,,,,,,,,,,,,,,,,,,,,,,,,,,,,,
1764666886.364217,9050,1,4371.282227,4375.939941,4492.649414,4481.880371,4358.632324,4492.991211,4515.042969,4355.512695,4567.777832,4296.239258,4467.521484,4509.615234,4548.504395,4403.333496,4375.128418,4480.769043,4532.094238,4506.666504,4472.179688,4355.598145,4368.803223,4536.880371,4492.820313,4455,4368.931641,4739.187988,4377.734863,4549.957031,4502.692383,4389.786133,4516.239258,4489.658203,0,1,17,0,0,,,,0,4,4,4,4,4,4,4,4,4,4,4,4,4,4,4,4,4,4,4,4,4,4,4,4,4,4,4,4,4,4,4,4,100,,,,,,,,,,,,,,,,,,,,,,,,,,,,,,,,,,,,,,,,,,,,,,,3.652575,1.281017,1.748267,1.690002,1.11267,4.159005,2.060154,2.077939,1.598898,1.306448,5.883721,2.052366,1.783441,1.690729,1.481017,4.4687,1.700922,1.736237,1.718367,1.415384,4.321776,1.530486,1.994695,1.359691,1.269654,3.157328,1.668817,2.205029,1.620947,1.255276,4.542815,1.498172,1.783744,2.109115,1.621079,4.921157,1.959853,2.326429,2.147086,1.921396,6.281473,1.627011,2.673287,2.636499,2.424867,7.437027,9.451184,5.178005,5.699082,6.418398,3.331267,1.136159,1.541408,2.255502,1.944571,4.388245,1.062159,1.636393,1.7839,1.154741,2.454214,0.691926,1.075739,1.543178,1.300851,6.861251,2.522203,1.671431,0.859342,0.703309,1.454637,0.846272,1.283758,1.424037,1.368645,2.598964,1.01326,0.807297,0.602526,0.763526,4.481664,1.001332,1.604201,1.857765,1.289399,4.035138,2.211981,2.710615,1.43336,1.631324,1.702159,2.424378,1.782403,1.241137,1.473375,2.33586,1.015156,1.721682,1.197232,1.303741,25.066252,3.199217,2.297462,4.862461,2.518791,5.298938,1.523802,3.021084,1.904655,0.895966,4.243644,1.214632,2.322984,1.603946,1.044802,5.54583,2.285985,4.047399,3.116277,1.275569,6.328793,12.143926,7.41318,10.58332,7.859727,7.898033,2.910604,2.736312,1.899956,1.574646,5.624929,1.585475,3.015694,2.998553,1.61656,6.058776,1.874459,2.78817,2.170755,1.387834,2.25635,0.950932,0.88923,0.930868,0.617713,6.285891,1.605889,2.37549,1.865605,1.29022,5.857248,2.435607,2.120579,2.410258,1.36375,5.412889,1.811375,1.926189,1.599567,1.25652
1764666886.368123,9051,1,4371.758301,4376.660645,4493.577637,4484.053711,4359.902344,4493.253906,4516.440918,4356.776367,4566.63623,4298.577637,4469.621582,4510.439453,4550.012207,4403.333496,4374.725098,4480.183105,4532.301758,4506.538574,4472.143066,4356.050293,4369.529785,4538.064941,4493.882813,4456.208984,4365.116211,4737.680176,4379.26123,4551.562988,4503.370117,4391.18457,4517.899902,4491.458984,0,1,17,0,0,,,,0,4,4,4,4,4,4,4,4,4,4,4,4,4,4,4,4,4,4,4,4,4,4,4,4,4,4,4,4,4,4,4,4,100,,,,,,,,,,,,,,,,,,,,,,,,,,,,,,,,,,,,,,,,,,,,,,,,,,,,,,,,,,,,,,,,,,,,,,,,,,,,,,,,,,,,,,,,,,,,,,,,,,,,,,,,,,,,,,,,,,,,,,,,,,,,,,,,,,,,,,,,,,,,,,,,,,,,,,,,,,,,,,,,,,,,,,,,,,,,,,,,,,,,,,,,,,,,,,,,,,,,,,,,,,,,,,
1764666886.372029,9052,1,4372.234375,4377.380859,4494.505371,4486.227051,4361.172363,4493.516602,4517.838867,4358.040527,4565.494629,4300.915527,4471.72168,4511.263672,4551.52002,4403.333496,4374.322266,4479.597168,4532.509277,4506.410156,4472.106445,4356.501953,4370.256348,4539.249023,4494.944824,4457.41748,4361.300293,4736.172363,4380.787598,4553.168457,4504.047852,4392.58252,4519.560547,4493.260254,0,1,17,0,0,,,,0,4,4,4,4,4,4,4,4,4,4,4,4,4,4,4,4,4,4,4,4,4,4,4,4,4,4,4,4,4,4,4,4,100,,,,,,,,,,,,,,,,,,,,,,,,,,,,,,,,,,,,,,,,,,,,,,,,,,,,,,,,,,,,,,,,,,,,,,,,,,,,,,,,,,,,,,,,,,,,,,,,,,,,,,,,,,,,,,,,,,,,,,,,,,,,,,,,,,,,,,,,,,,,,,,,,,,,,,,,,,,,,,,,,,,,,,,,,,,,,,,,,,,,,,,,,,,,,,,,,,,,,,,,,,,,,,
1764666886.375935,9053,1,4372.710449,4378.101563,4495.433594,4488.400391,4362.441895,4493.778809,4519.236816,4359.304199,4564.353027,4303.253906,4473.821777,4512.087891,4553.02832,4403.333496,4373.919434,4479.01123,4532.716797,4506.282227,4472.069824,4356.953613,4370.98291,4540.433594,4496.007324,4458.626465,4357.484863,4734.664063,4382.313965,4554.773926,4504.725098,4393.980469,4521.221191,4495.061035,0,1,17,0,0,,,,0,4,4,4,4,4,4,4,4,4,4,4,4,4,4,4,4,4,4,4,4,4,4,4,4,4,4,4,4,4,4,4,4,100,,,,,,,,,,,,,,,,,,,,,,,,,,,,,,,,,,,,,,,,,,,,,,,,,,,,,,,,,,,,,,,,,,,,,,,,,,,,,,,,,,,,,,,,,,,,,,,,,,,,,,,,,,,,,,,,,,,,,,,,,,,,,,,,,,,,,,,,,,,,,,,,,,,,,,,,,,,,,,,,,,,,,,,,,,,,,,,,,,,,,,,,,,,,,,,,,,,,,,,,,,,,,,
1764666886.379841,9054,1,4373.187012,4378.821777,4496.361328,4490.57373,4363.711914,4494.041504,4520.634766,4360.567871,4563.211426,4305.592285,4475.921875,4512.912109,4554.536133,4403.333496,4373.516602,4478.424805,4532.924316,4506.153809,4472.033203,4357.405273,4371.709473,4541.617676,4497.069824,4459.834961,4353.668945,4733.15625,4383.839844,4556.379883,4505.402832,4395.378418,4522.881348,4496.861816,0,1,17,0,0,,,,0,4,4,4,4,4,4,4,4,4,4,4,4,4,4,4,4,4,4,4,4,4,4,4,4,4,4,4,4,4,4,4,4,100,,,,,,,,,,,,,,,,,,,,,,,,,,,,,,,,,,,,,,,,,,,,,,,,,,,,,,,,,,,,,,,,,,,,,,,,,,,,,,,,,,,,,,,,,,,,,,,,,,,,,,,,,,,,,,,,,,,,,,,,,,,,,,,,,,,,,,,,,,,,,,,,,,,,,,,,,,,,,,,,,,,,,,,,,,,,,,,,,,,,,,,,,,,,,,,,,,,,,,,,,,,,,,
1764666886.383747,9055,1,4373.663086,4379.541992,4497.289551,4492.74707,4364.981445,4494.304199,4522.033203,4361.831543,4562.069824,4307.930176,4478.021973,4513.736328,4556.043945,4403.333496,4373.11377,4477.838867,4533.131836,4506.025879,4471.996094,4357.856934,4372.436035,4542.802246,4498.131836,4461.043945,4349.853516,4731.648438,4385.366211,4557.985352,4506.080566,4396.776367,4524.541992,4498.663086,0,1,17,0,0,,,,0,4,4,4,4,4,4,4,4,4,4,4,4,4,4,4,4,4,4,4,4,4,4,4,4,4,4,4,4,4,4,4,4,100,,,,,,,,,,,,,,,,,,,,,,,,,,,,,,,,,,,2261,1,0.4917,-0.478699,-0.368083,0.62737,0.982135,-0.250193,0.000081,5.666667,48.083332,-9.083333,,,,,,,,,,,,,,,,,,,,,,,,,,,,,,,,,,,,,,,,,,,,,,,,,,,,,,,,,,,,,,,,,,,,,,,,,,,,,,,,,,,,,,,,,,,,,,,,,,,,,,,,,,,,,,,,,,,,,,,,,,,,,,,,,,,,,,,,,,,,,,,,,,,,,,,,,,,,,,,,
1764666886.387653,9056,1,4374.13916,4380.262695,4498.217285,4494.92041,4366.251465,4494.566406,4523.431152,4363.095215,4560.927734,4310.268555,4480.12207,4514.560547,4557.551758,4403.333496,4372.710449,4477.25293,4533.339355,4505.897461,4471.959473,4358.309082,4373.162598,4543.986328,4499.194336,4462.25293,4346.038086,4730.140625,4386.892578,4559.59082,4506.758301,4398.174805,4526.202637,4500.463867,0,1,17,0,0,,,,0,4,4,4,4,4,4,4,4,4,4,4,4,4,4,4,4,4,4,4,4,4,4,4,4,4,4,4,4,4,4,4,4,100,,,,,,,,,,,,,,,,,,,,,,,,,,,,,,,,,,,,,,,,,,,,,,,,,,,,,,,,,,,,,,,,,,,,,,,,,,,,,,,,,,,,,,,,,,,,,,,,,,,,,,,,,,,,,,,,,,,,,,,,,,,,,,,,,,,,,,,,,,,,,,,,,,,,,,,,,,,,,,,,,,,,,,,,,,,,,,,,,,,,,,,,,,,,,,,,,,,,,,,,,,,,,,
1764666886.391559,9057,1,4374.615234,4380.98291,4499.145508,4497.094238,4367.521484,4494.829102,4524.829102,4364.358887,4559.786133,4312.606934,4482.222168,4515.384766,4559.060059,4403.333496,4372.307617,4476.666504,4533.546875,4505.769043,4471.922852,4358.760742,4373.888672,4545.170898,4500.256348,4463.461426,4342.222168,4728.632324,4388.418945,4561.196777,4507.436035,4399.572754,4527.863281,4502.265137,0,1,17,0,0,,,,0,4,4,4,4,4,4,4,4,4,4,4,4,4,4,4,4,4,4,4,4,4,4,4,4,4,4,4,4,4,4,4,4,100,,,,,,,,,,,,,,,,,,,,,,,,,,,,,,,,,,,2262,1,0.49175,-0.478577,-0.367879,0.627543,0.977821,-0.250844,0.003093,5.666667,48,-8.666667,,,,,,,,,,,,,,,,,,,,,,,,,,,,,,,,,,,,,,,,,,,,,,,,,,,,,,,,,,,,,,,,,,,,,,,,,,,,,,,,,,,,,,,,,,,,,,,,,,,,,,,,,,,,,,,,,,,,,,,,,,,,,,,,,,,,,,,,,,,,,,,,,,,,,,,,,,,,,,,,
1764666886.395465,9058,1,4375.091797,4381.703125,4500.073242,4499.267578,4368.791016,4495.091797,4526.227051,4365.622559,4558.644531,4314.944824,4484.322266,4516.208984,4560.567871,4403.333496,4371.904785,4476.080566,4533.754395,4505.641113,4471.88623,4359.212402,4374.615234,4546.355469,4501.318848,4464.67041,4338.406738,4727.124512,4389.944824,4562.802246,4508.11377,4400.970703,4529.523926,4504.065918,0,1,17,0,0,,,,0,4,4,4,4,4,4,4,4,4,4,4,4,4,4,4,4,4,4,4,4,4,4,4,4,4,4,4,4,4,4,4,4,100,,,,,,,,,,,,,,,,,,,,,,,,,,,,,,,,,,,,,,,,,,,,,,,,,,,,,,,,,,,,,,,,,,,,,,,,,,,,,,,,,,,,,,,,,,,,,,,,,,,,,,,,,,,,,,,,,,,,,,,,,,,,,,,,,,,,,,,,,,,,,,,,,,,,,,,,,,,,,,,,,,,,,,,,,,,,,,,,,,,,,,,,,,,,,,,,,,,,,,,,,,,,,,
1764666886.399371,9059,1,4375.567871,4382.423828,4501.001465,4501.440918,4370.061035,4495.354004,4527.625,4366.88623,4557.50293,4317.283203,4486.422363,4517.033203,4562.075684,4403.333496,4371.501953,4475.494629,4533.961914,4505.512695,4471.849609,4359.664063,4375.341797,4547.539551,4502.380859,4465.878906,4334.59082,4725.616699,4391.471191,4564.407715,4508.791016,4402.368652,4531.18457,4505.866699,0,1,17,0,0,,,,0,4,4,4,4,4,4,4,4,4,4,4,4,4,4,4,4,4,4,4,4,4,4,4,4,4,4,4,4,4,4,4,4,100,,,,,,,,,,,,,,,,,,,,,,,,,,,,,,,,,,,2263,1,0.4918,-0.478455,-0.367676,0.627716,0.973508,-0.251496,0.006104,5.666667,47.916668,-8.25,,,,,,,,,,,,,,,,,,,,,,,,,,,,,,,,,,,,,,,,,,,,,,,,,,,,,,,,,,,,,,,,,,,,,,,,,,,,,,,,,,,,,,,,,,,,,,,,,,,,,,,,,,,,,,,,,,,,,,,,,,,,,,,,,,,,,,,,,,,,,,,,,,,,,,,,,,,,,,,,
1764666886.403277,9060,1,4376.043945,4383.144043,4501.929199,4503.614258,4371.331055,4495.616699,4529.023438,4368.150391,4556.361328,4319.621582,4488.522461,4517.856934,4563.583496,4403.333496,4371.099121,4474.908203,4534.169922,4505.384766,4471.812988,4360.116211,4376.068359,4548.724121,4503.443359,4467.087891,4330.775391,4724.108887,4392.997559,4566.013672,4509.46875,4403.766602,4532.844727,4507.667969,0,1,17,0,0,,,,0,4,4,4,4,4,4,4,4,4,4,4,4,4,4,4,4,4,4,4,4,4,4,4,4,4,4,4,4,4,4,4,4,100,,,,,,,,,,,,,,,,,,,,,,,,,,,,,,,,,,,,,,,,,,,,,,,,,,,,,,,,,,,,,,,,,,,,,,,,,,,,,,,,,,,,,,,,,,,,,,,,,,,,,,,,,,,,,,,,,,,,,,,,,,,,,,,,,,,,,,,,,,,,,,,,,,,,,,,,,,,,,,,,,,,,,,,,,,,,,,,,,,,,,,,,,,,,,,,,,,,,,,,,,,,,,,
1764666886.407183,9061,1,4376.52002,4383.864258,4502.856934,4505.787598,4372.600586,4495.878906,4530.421387,4369.414063,4555.219727,4321.959473,4490.622559,4518.681152,4565.091797,4403.333496,4370.695801,4474.322266,4534.377441,4505.256348,4471.776367,4360.567871,4376.794922,4549.908203,4504.505371,4468.296875,4326.959473,4722.600586,4394.523926,4567.619141,4510.146484,4405.165039,4534.505371,4509.46875,0,1,17,0,0,,,,0,4,4,4,4,4,4,4,4,4,4,4,4,4,4,4,4,4,4,4,4,4,4,4,4,4,4,4,4,4,4,4,4,100,,,,,,,,,,,,,,,,,,,,,,,,,,,,,,,,,,,2264,1,0.49185,-0.478333,-0.367472,0.627889,0.969194,-0.252147,0.009116,5.666667,47.833332,-7.833333,,,,,,,,,,,,,,,,,,,,,,,,,,,,,,,,,,,,,,,,,,,,,,,,,,,,,,,,,,,,,,,,,,,,,,,,,,,,,,,,,,,,,,,,,,,,,,,,,,,,,,,,,,,,,,,,,,,,,,,,,,,,,,,,,,,,,,,,,,,,,,,,,,,,,,,,,,,,,,,,
1764666886.411089,9062,1,4376.996094,4384.584961,4503.785156,4507.960938,4373.870605,4496.141602,4531.819336,4370.677734,4554.078125,4324.297852,4492.722656,4519.505371,4566.599609,4403.333496,4370.292969,4473.736328,4534.584961,4505.128418,4471.739746,4361.019531,4377.521484,4551.092773,4505.567871,4469.505371,4323.144043,4721.092773,4396.050293,4569.224609,4510.824219,4406.562988,4536.166016,4511.27002,0,1,17,0,0,,,,0,4,4,4,4,4,4,4,4,4,4,4,4,4,4,4,4,4,4,4,4,4,4,4,4,4,4,4,4,4,4,4,4,100,,,,,,,,,,,,,,,,,,,,,,,,,,,,,,,,,,,,,,,,,,,,,,,,,,,,,,,,,,,,,,,,,,,,,,,,,,,,,,,,,,,,,,,,,,,,,,,,,,,,,,,,,,,,,,,,,,,,,,,,,,,,,,,,,,,,,,,,,,,,,,,,,,,,,,,,,,,,,,,,,,,,,,,,,,,,,,,,,,,,,,,,,,,,,,,,,,,,,,,,,,,,,,
1764666886.414995,9063,1,4377.472656,4385.305176,4504.712891,4510.134277,4375.140625,4496.404297,4533.217285,4371.941406,4552.936523,4326.63623,4494.822754,4520.32959,4568.107422,4403.333496,4369.890137,4473.150391,4534.79248,4505,4471.703125,4361.471191,4378.248047,4552.277344,4506.629883,4470.714355,4319.328613,4719.584961,4397.576172,4570.830078,4511.501953,4407.960938,4537.82666,4513.070801,0,1,17,0,0,,,,0,4,4,4,4,4,4,4,4,4,4,4,4,4,4,4,4,4,4,4,4,4,4,4,4,4,4,4,4,4,4,4,4,100,,,,,,,,,,,,,,,,,,,,,,,,,,,,,,,,,,,2265,1,0.491901,-0.47821,-0.367269,0.628062,0.96488,-0.252798,0.012127,5.666667,47.75,-7.416667,,,,,,,,,,,,,,,,,,,,,,,,,,,,,,,,,,,,,,,,,,,,,,,,,,,,,,,,,,,,,,,,,,,,,,,,,,,,,,,,,,,,,,,,,,,,,,,,,,,,,,,,,,,,,,,,,,,,,,,,,,,,,,,,,,,,,,,,,,,,,,,,,,,,,,,,,,,,,,,,
1764666886.418901,9064,0,4377.94873,4386.025879,4505.641113,4512.307617,4376.410156,4496.666504,4534.615234,4373.205078,4551.794922,4328.974121,4496.922852,4521.153809,4569.615234,4403.333496,4369.487305,4472.563965,4535,4504.871582,4471.666504,4361.922852,4378.974121,4553.461426,4507.692383,4471.922852,4315.512695,4718.077148,4399.102539,4572.436035,4512.179688,4409.358887,4539.487305,4514.871582,2876,1,17,2572,58969,,,,0,4,4,4,4,4,4,4,4,4,4,4,4,4,4,4,4,4,4,4,4,4,4,4,4,4,4,4,4,4,4,4,4,100,,,,,,,,,,,,,,,,,,,,,,,,,,,,,,,,,,,,,,,,,,,,,,,,,,,,,,,,,,,,,,,,,,,,,,,,,,,,,,,,,,,,,,,,,,,,,,,,,,,,,,,,,,,,,,,,,,,,,,,,,,,,,,,,,,,,,,,,,,,,,,,,,,,,,,,,,,,,,,,,,,,,,,,,,,,,,,,,,,,,,,,,,,,,,,,,,,,,,,,,,,,,,,
1764666886.422807,9065,0,4390.384766,4398.717773,4509.358887,4524.102539,4392.563965,4513.589844,4547.436035,4389.102539,4544.358887,4316.282227,4508.589844,4530,4580.256348,4396.794922,4371.794922,4473.205078,4545,4500,4458.974121,4361.922852,4357.179688,4565.769043,4518.717773,4488.205078,4350,4727.05127,4412.820313,4580.769043,4517.307617,4415.128418,4546.666504,4520.256348,2711,1,17,2572,58969,,,,0,4,4,4,4,4,4,4,4,4,4,4,4,4,4,4,4,4,4,4,4,4,4,4,4,4,4,4,4,4,4,4,4,100,,,,,,,,,,,,,,,,,,,,,,,,,,,,,,,,,,,2266,0,0.491951,-0.478088,-0.367065,0.628235,0.960566,-0.253449,0.015139,5.666667,47.666668,-7,,,,,,,,,,,,,,,,,,,,,,,,,,,,,,,,,,,,,,,,,,,,,,,,,,,,,,,,,,,,,,,,,,,,,,,,,,,,,,,,,,,,,,,,,,,,,,,,,,,,,,,,,,,,,,,,,,,,,,,,,,,,,,,,,,,,,,,,,,,,,,,,,,,,,,,,,,,,,,,,
1764666886.426713,9066,0,4397.692383,4405.641113,4513.333496,4531.794922,4397.05127,4522.179688,4550,4390.256348,4552.692383,4331.794922,4508.717773,4530.512695,4582.307617,4390.897461,4369.615234,4474.102539,4549.871582,4495.256348,4449.487305,4358.717773,4336.922852,4571.282227,4522.307617,4498.846191,4398.974121,4727.692383,4420.256348,4582.307617,4519.358887,4414.743652,4552.436035,4523.846191,1452,1,17,2572,58977,,,,0,4,4,4,4,4,4,4,4,4,4,4,4,4,4,4,4,4,4,4,4,4,4,4,4,4,4,4,4,4,4,4,4,100,,,,,,,,,,,,,,,,,,,,,,,,,,,,,,,,,,,,,,,,,,,,,,,,,,,,,,,,,,,,,,,,,,,,,,,,,,,,,,,,,,,,,,,,,,,,,,,,,,,,,,,,,,,,,,,,,,,,,,,,,,,,,,,,,,,,,,,,,,,,,,,,,,,,,,,,,,,,,,,,,,,,,,,,,,,,,,,,,,,,,,,,,,,,,,,,,,,,,,,,,,,,,,
1764666886.430619,9067,0,4392.94873,4400.769043,4512.820313,4526.794922,4383.974121,4516.153809,4537.692383,4372.94873,4566.282227,4364.615234,4494.230957,4520.256348,4572.436035,4387.563965,4363.974121,4474.743652,4543.333496,4492.436035,4449.230957,4353.974121,4330.769043,4561.794922,4512.05127,4490.128418,4441.538574,4714.615234,4409.743652,4570.897461,4514.615234,4406.794922,4548.846191,4522.05127,2689,1,17,2572,58977,,,,0,4,4,4,4,4,4,4,4,4,4,4,4,4,4,4,4,4,4,4,4,4,4,4,4,4,4,4,4,4,4,4,4,100,,,,,,,,,,,,,,,,,,,,,,,,,,,,,,,,,,,,,,,,,,,,,,,,,,,,,,,,,,,,,,,,,,,,,,,,,,,,,,,,,,,,,,,,,,,,,,,,,,,,,,,,,,,,,,,,,,,,,,,,,,,,,,,,,,,,,,,,,,,,,,,,,,,,,,,,,,,,,,,,,,,,,,,,,,,,,,,,,,,,,,,,,,,,,,,,,,,,,,,,,,,,,,
1764666886.434525,9068,0,4378.974121,4387.436035,4507.94873,4511.794922,4361.410156,4499.871582,4517.179688,4347.820313,4574.230957,4394.358887,4473.589844,4504.871582,4556.282227,4389.102539,4360.641113,4476.794922,4528.846191,4494.615234,4459.615234,4352.820313,4348.333496,4541.282227,4492.692383,4462.692383,4465.128418,4694.358887,4382.436035,4549.487305,4504.615234,4396.794922,4534.743652,4515.897461,2484,1,17,2572,58984,,,,0,4,4,4,4,4,4,4,4,4,4,4,4,4,4,4,4,4,4,4,4,4,4,4,4,4,4,4,4,4,4,4,4,100,,,,,,,,,,,,,,,,,,,,,,,,,,,,,,,,,,,,,,,,,,,,,,,,,,,,,,,,,,,,,,,,,,,,,,,,,,,,,,,,,,,,,,,,,,,,,,,,,,,,,,,,,,,,,,,,,,,,,,,,,,,,,,,,,,,,,,,,,,,,,,,,,,,,,,,,,,,,,,,,,,,,,,,,,,,,,,,,,,,,,,,,,,,,,,,,,,,,,,,,,,,,,,
1764666886.438431,9069,0,4365.512695,4375,4503.077148,4497.307617,4344.487305,4485.256348,4501.538574,4330.641113,4573.589844,4406.282227,4461.025879,4494.615234,4544.230957,4394.487305,4364.615234,4481.666504,4516.666504,4504.102539,4476.538574,4359.102539,4385,4522.05127,4476.282227,4431.282227,4465.769043,4679.615234,4352.179688,4528.205078,4495.128418,4392.05127,4516.282227,4509.615234,2270,1,17,2572,58984,,,,0,4,4,4,4,4,4,4,4,4,4,4,4,4,4,4,4,4,4,4,4,4,4,4,4,4,4,4,4,4,4,4,4,100,,,,,,,,,,,,,,,,,,,,,,,,,,,,,,,,,,,2267,0,0.491936,-0.47821,-0.366821,0.628296,0.920523,-0.265657,0.013185,4.833333,48.166668,-9.166667,,,,,,,,,,,,,,,,,,,,,,,,,,,,,,,,,,,,,,,,,,,,,,,,,,,,,,,,,,,,,,,,,,,,,,,,,,,,,,,,,,,,,,,,,,,,,,,,,,,,,,,,,,,,,,,,,,,,,,,,,,,,,,,,,,,,,,,,,,,,,,,,,,,,,,,,,,,,,,,,
1764666886.442337,9070,0,4360.384766,4370.641113,4502.05127,4492.436035,4342.94873,4481.153809,4499.358887,4329.743652,4567.94873,4400.512695,4465,4495.256348,4543.974121,4399.358887,4375.641113,4488.333496,4515,4519.102539,4493.333496,4371.282227,4421.666504,4515.512695,4471.922852,4413.846191,4443.717773,4676.922852,4334.487305,4517.307617,4490.897461,4394.615234,4501.922852,4506.153809,2693,1,17,2573,58992,,,,0,4,4,4,4,4,4,4,4,4,4,4,4,4,4,4,4,4,4,4,4,4,4,4,4,4,4,4,4,4,4,4,4,100,,,,,,,,,,,,,,,,,,,,,,,,,,,,,,,,,,,,,,,,,,,,,,,,,,,,,,,,,,,,,,,,,,,,,,,,,,,,,,,,,,,,,,,,,,,,,,,,,,,,,,,,,,,,,,,,,,,,,,,,,,,,,,,,,,,,,,,,,,,,,,,,,,,,,,,,,,,,,,,,,,,,,,,,,,,,,,,,,,,,,,,,,,,,,,,,,,,,,,,,,,,,,,
1764666886.446243,9071,0,4364.102539,4374.487305,4503.717773,4497.179688,4354.358887,4486.794922,4508.461426,4340.256348,4561.153809,4385.897461,4481.282227,4504.358887,4554.743652,4399.102539,4387.179688,4492.94873,4524.358887,4534.102539,4504.358887,4382.179688,4436.410156,4523.846191,4479.358887,4417.820313,4403.205078,4680.897461,4336.153809,4520,4492.563965,4400.128418,4496.922852,4504.487305,2454,1,17,2573,58992,,,,0,4,4,4,4,4,4,4,4,4,4,4,4,4,4,4,4,4,4,4,4,4,4,4,4,4,4,4,4,4,4,4,4,100,,,,,,,,,,,,,,,,,,,,,,,,,,,,,,,,,,,,,,,,,,,,,,,,,,,,,,,,,,,,,,,,,,,,,,,,,,,,,,,,,,,,,,,,,,,,,,,,,,,,,,,,,,,,,,,,,,,,,,,,,,,,,,,,,,,,,,,,,,,,,,,,,,,,,,,,,,,,,,,,,,,,,,,,,,,,,,,,,,,,,,,,,,,,,,,,,,,,,,,,,,,,,,
1764666886.450149,9072,0,4370.256348,4380.128418,4503.461426,4503.974121,4366.282227,4494.615234,4518.461426,4350,4553.205078,4371.025879,4496.794922,4513.717773,4567.820313,4393.205078,4390.512695,4492.179688,4536.410156,4541.666504,4506.666504,4384.871582,4421.666504,4538.974121,4490,4436.025879,4354.230957,4679.615234,4351.922852,4531.666504,4496.922852,4401.922852,4502.179688,4501.922852,2865,1,17,2574,59000,,,,0,4,4,4,4,4,4,4,4,4,4,4,4,4,4,4,4,4,4,4,4,4,4,4,4,4,4,4,4,4,4,4,4,100,,,,,,,,,,,,,,,,,,,,,,,,,,,,,,,,,,,,,,,,,,,,,,,,,,,,,,,,,,,,,,,,,,,,,,,,,,,,,,,,,,,,,,,,,,,,,,,,,,,,,,,,,,,,,,,,,,,,,,,,,,,,,,,,,,,,,,,,,,,,,,,,,,,,,,,,,,,,,,,,,,,,,,,,,,,,,,,,,,,,,,,,,,,,,,,,,,,,,,,,,,,,,,
1764666886.454055,9073,0,4371.666504,4380.641113,4497.563965,4505,4367.820313,4496.666504,4519.487305,4349.871582,4542.820313,4359.743652,4498.846191,4515.512695,4573.333496,4385.512695,4380.641113,4484.871582,4540.769043,4536.410156,4499.871582,4377.307617,4389.358887,4549.615234,4494.102539,4451.794922,4313.205078,4667.692383,4370.384766,4543.589844,4500,4396.153809,4514.358887,4496.922852,3126,1,17,2574,59000,,,,0,4,4,4,4,4,4,4,4,4,4,4,4,4,4,4,4,4,4,4,4,4,4,4,4,4,4,4,4,4,4,4,4,100,,,,,,,,,,,,,,,,,,,,,,,,,,,,,,,,,,,2268,0,0.492307,-0.478149,-0.366821,0.628052,0.937614,-0.253937,0.018069,5.5,48.666668,-9.333333,,,,,,,,,,,,,,,,,,,,,,,,,,,,,,,,,,,,,,,,,,,,,,,,,,,,,,,,,,,,,,,,,,,,,,,,,,,,,,,,,,,,,,,,,,,,,,,,,,,,,,,,,,,,,,,,,,,,,,,,,,,,,,,,,,,,,,,,,,,,,,,,,,,,,,,,,,,,,,,,
1764666886.457961,9074,0,4367.05127,4375,4487.563965,4499.102539,4357.820313,4491.922852,4509.743652,4340.384766,4531.538574,4354.358887,4485.256348,4508.205078,4567.692383,4381.410156,4362.307617,4473.846191,4533.205078,4519.102539,4485.897461,4365.256348,4362.05127,4549.358887,4488.589844,4453.461426,4299.230957,4653.077148,4381.410156,4548.717773,4500.128418,4385.641113,4527.692383,4491.794922,1759,1,17,2575,59008,,,,0,4,4,4,4,4,4,4,4,4,4,4,4,4,4,4,4,4,4,4,4,4,4,4,4,4,4,4,4,4,4,4,4,100,,,,,,,,,,,,,,,,,,,,,,,,,,,,,,,,,,,,,,,,,,,,,,,,,,,,,,,,,,,,,,,,,,,,,,,,,,,,,,,,,,,,,,,,,,,,,,,,,,,,,,,,,,,,,,,,,,,,,,,,,,,,,,,,,,,,,,,,,,,,,,,,,,,,,,,,,,,,,,,,,,,,,,,,,,,,,,,,,,,,,,,,,,,,,,,,,,,,,,,,,,,,,,
1764666886.461867,9075,0,4361.666504,4368.589844,4479.743652,4492.692383,4346.025879,4486.410156,4496.794922,4330.897461,4526.025879,4356.282227,4466.025879,4497.692383,4556.282227,4384.615234,4348.717773,4465.769043,4519.358887,4499.871582,4470.256348,4357.820313,4356.410156,4541.666504,4479.743652,4443.846191,4326.282227,4651.538574,4382.307617,4546.410156,4498.846191,4377.820313,4537.05127,4491.538574,2798,1,17,2575,59008,,,,0,4,4,4,4,4,4,4,4,4,4,4,4,4,4,4,4,4,4,4,4,4,4,4,4,4,4,4,4,4,4,4,4,100,,,,,,,,,,,,,,,,,,,,,,,,,,,,,,,,,,,,,,,,,,,,,,,,,,,,,,,,,,,,,,,,,,,,,,,,,,,,,,,,,,,,,,,,,,,,,,,,,,,,,,,,,,,,,,,,,,,,,,,,,,,,,,,,,,,,,,,,,,,,,,,,,,,,,,,,,,,,,,,,,,,,,,,,,,,,,,,,,,,,,,,,,,,,,,,,,,,,,,,,,,,,,,
1764666886.465773,9076,0,4362.179688,4368.461426,4479.615234,4493.077148,4343.205078,4487.307617,4491.025879,4330.897461,4532.307617,4363.077148,4454.615234,4492.179688,4548.846191,4394.358887,4353.589844,4468.205078,4510.897461,4492.436035,4461.410156,4360.897461,4372.692383,4537.05127,4476.538574,4437.179688,4391.153809,4671.025879,4376.153809,4541.282227,4498.846191,4378.077148,4540.384766,4497.692383,2543,1,17,2576,59016,,,,0,4,4,4,4,4,4,4,4,4,4,4,4,4,4,4,4,4,4,4,4,4,4,4,4,4,4,4,4,4,4,4,4,100,,,,,,,,,,,,,,,,,,,,,,,,,,,,,,,,,,,,,,,,,,,,,,,,,,,,,,,,,,,,,,,,,,,,,,,,,,,,,,,,,,,,,,,,,,,,,,,,,,,,,,,,,,,,,,,,,,,,,,,,,,,,,,,,,,,,,,,,,,,,,,,,,,,,,,,,,,,,,,,,,,,,,,,,,,,,,,,,,,,,,,,,,,,,,,,,,,,,,,,,,,,,,,
