title:Happy3, start timestamp:1764666578.575158, stop timestamp:1764666590.597861, headset type:FLEX2, headset serial:F30002B4, headset firmware:2f10, channels:283, sampling rate:eeg_256;mot_64;pow_8, samples:3079      , version:2.2, ,,,,,,,,,,,,,,,,,,,,,,,,,,,,,,,,,,,,,,,,,,,,,,,,,,,,,,,,,,,,,,,,,,,,,,,,,,,,,,,,,,,,,,,,,,,,,,,,,,,,,,,,,,,,,,,,,,,,,,,,,,,,,,,,,,,,,,,,,,,,,,,,,,,,,,,,,,,,,,,,,,,,,,,,,,,,,,,,,,,,,,,,,,,,,,,,,,,,,,,,,,,,,,,,,,,,,,,,,,,,,,,,,,,,,,,,,,,,,,,,,,,,,,,,,,,,,,,,,,,,,,,,,,,,,,,,
Timestamp,EEG.Counter,EEG.Interpolated,EEG.Cz,EEG.Fz,EEG.Fp1,EEG.F7,EEG.F3,EEG.FC1,EEG.C3,EEG.FC5,EEG.FT9,EEG.T7,EEG.CP5,EEG.CP1,EEG.P3,EEG.P7,EEG.PO9,EEG.O1,EEG.Pz,EEG.Oz,EEG.O2,EEG.PO10,EEG.P8,EEG.P4,EEG.CP2,EEG.CP6,EEG.T8,EEG.FT10,EEG.FC6,EEG.C4,EEG.FC2,EEG.F4,EEG.F8,EEG.Fp2,EEG.RawCq,EEG.Battery,EEG.BatteryPercent,EEG.FwBufferSize,EEG.FwClockTime,MarkerIndex,MarkerType,MarkerValueInt,EEG.MarkerHardware,CQ.Cz,CQ.Fz,CQ.Fp1,CQ.F7,CQ.F3,CQ.FC1,CQ.C3,CQ.FC5,CQ.FT9,CQ.T7,CQ.CP5,CQ.CP1,CQ.P3,CQ.P7,CQ.PO9,CQ.O1,CQ.Pz,CQ.Oz,CQ.O2,CQ.PO10,CQ.P8,CQ.P4,CQ.CP2,CQ.CP6,CQ.T8,CQ.FT10,CQ.FC6,CQ.C4,CQ.FC2,CQ.F4,CQ.F8,CQ.Fp2,CQ.Overall,EQ.SampleRateQuality,EQ.OVERALL,EQ.Cz,EQ.Fz,EQ.Fp1,EQ.F7,EQ.F3,EQ.FC1,EQ.C3,EQ.FC5,EQ.FT9,EQ.T7,EQ.CP5,EQ.CP1,EQ.P3,EQ.P7,EQ.PO9,EQ.O1,EQ.Pz,EQ.Oz,EQ.O2,EQ.PO10,EQ.P8,EQ.P4,EQ.CP2,EQ.CP6,EQ.T8,EQ.FT10,EQ.FC6,EQ.C4,EQ.FC2,EQ.F4,EQ.F8,EQ.Fp2,MOT.CounterMems,MOT.InterpolatedMems,MOT.Q0,MOT.Q1,MOT.Q2,MOT.Q3,MOT.AccX,MOT.AccY,MOT.AccZ,MOT.MagX,MOT.MagY,MOT.MagZ,POW.Cz.Theta,POW.Cz.Alpha,POW.Cz.BetaL,POW.Cz.BetaH,POW.Cz.Gamma,POW.Fz.Theta,POW.Fz.Alpha,POW.Fz.BetaL,POW.Fz.BetaH,POW.Fz.Gamma,POW.Fp1.Theta,POW.Fp1.Alpha,POW.Fp1.BetaL,POW.Fp1.BetaH,POW.Fp1.Gamma,POW.F7.Theta,POW.F7.Alpha,POW.F7.BetaL,POW.F7.BetaH,POW.F7.Gamma,POW.F3.Theta,POW.F3.Alpha,POW.F3.BetaL,POW.F3.BetaH,POW.F3.Gamma,POW.FC1.Theta,POW.FC1.Alpha,POW.FC1.BetaL,POW.FC1.BetaH,POW.FC1.Gamma,POW.C3.Theta,POW.C3.Alpha,POW.C3.BetaL,POW.C3.BetaH,POW.C3.Gamma,POW.FC5.Theta,POW.FC5.Alpha,POW.FC5.BetaL,POW.FC5.BetaH,POW.FC5.Gamma,POW.FT9.Theta,POW.FT9.Alpha,POW.FT9.BetaL,POW.FT9.BetaH,POW.FT9.Gamma,POW.T7.Theta,POW.T7.Alpha,POW.T7.BetaL,POW.T7.BetaH,POW.T7.Gamma,POW.CP5.Theta,POW.CP5.Alpha,POW.CP5.BetaL,POW.CP5.BetaH,POW.CP5.Gamma,POW.CP1.Theta,POW.CP1.Alpha,POW.CP1.BetaL,POW.CP1.BetaH,POW.CP1.Gamma,POW.P3.Theta,POW.P3.Alpha,POW.P3.BetaL,POW.P3.BetaH,POW.P3.Gamma,POW.P7.Theta,POW.P7.Alpha,POW.P7.BetaL,POW.P7.BetaH,POW.P7.Gamma,POW.PO9.Theta,POW.PO9.Alpha,POW.PO9.BetaL,POW.PO9.BetaH,POW.PO9.Gamma,POW.O1.Theta,POW.O1.Alpha,POW.O1.BetaL,POW.O1.BetaH,POW.O1.Gamma,POW.Pz.Theta,POW.Pz.Alpha,POW.Pz.BetaL,POW.Pz.BetaH,POW.Pz.Gamma,POW.Oz.Theta,POW.Oz.Alpha,POW.Oz.BetaL,POW.Oz.BetaH,POW.Oz.Gamma,POW.O2.Theta,POW.O2.Alpha,POW.O2.BetaL,POW.O2.BetaH,POW.O2.Gamma,POW.PO10.Theta,POW.PO10.Alpha,POW.PO10.BetaL,POW.PO10.BetaH,POW.PO10.Gamma,POW.P8.Theta,POW.P8.Alpha,POW.P8.BetaL,POW.P8.BetaH,POW.P8.Gamma,POW.P4.Theta,POW.P4.Alpha,POW.P4.BetaL,POW.P4.BetaH,POW.P4.Gamma,POW.CP2.Theta,POW.CP2.Alpha,POW.CP2.BetaL,POW.CP2.BetaH,POW.CP2.Gamma,POW.CP6.Theta,POW.CP6.Alpha,POW.CP6.BetaL,POW.CP6.BetaH,POW.CP6.Gamma,POW.T8.Theta,POW.T8.Alpha,POW.T8.BetaL,POW.T8.BetaH,POW.T8.Gamma,POW.FT10.Theta,POW.FT10.Alpha,POW.FT10.BetaL,POW.FT10.BetaH,POW.FT10.Gamma,POW.FC6.Theta,POW.FC6.Alpha,POW.FC6.BetaL,POW.FC6.BetaH,POW.FC6.Gamma,POW.C4.Theta,POW.C4.Alpha,POW.C4.BetaL,POW.C4.BetaH,POW.C4.Gamma,POW.FC2.Theta,POW.FC2.Alpha,POW.FC2.BetaL,POW.FC2.BetaH,POW.FC2.Gamma,POW.F4.Theta,POW.F4.Alpha,POW.F4.BetaL,POW.F4.BetaH,POW.F4.Gamma,POW.F8.Theta,POW.F8.Alpha,POW.F8.BetaL,POW.F8.BetaH,POW.F8.Gamma,POW.Fp2.Theta,POW.Fp2.Alpha,POW.Fp2.BetaL,POW.Fp2.BetaH,POW.Fp2.Gamma
1764666581.215622,61995,0,4381.410156,4401.153809,4460.256348,4506.538574,4418.077148,4511.666504,4527.179688,4387.05127,4570.256348,4380.769043,4490.769043,4511.025879,4556.282227,4388.589844,4374.358887,4497.94873,4528.077148,4534.230957,4518.205078,4388.461426,4402.436035,4560.769043,4509.358887,4493.589844,4364.743652,4570.641113,4380.384766,4551.794922,4509.743652,4406.794922,4526.666504,4480.128418,2732,1,18,2566,15917,1,1,1,0,4,4,4,4,4,4,4,4,4,4,4,4,4,4,4,4,4,4,4,4,4,4,4,4,4,4,4,4,4,4,4,4,100,,,,,,,,,,,,,,,,,,,,,,,,,,,,,,,,,,,,,,,,,,,,,,,,,,,,,,,,,,,,,,,,,,,,,,,,,,,,,,,,,,,,,,,,,,,,,,,,,,,,,,,,,,,,,,,,,,,,,,,,,,,,,,,,,,,,,,,,,,,,,,,,,,,,,,,,,,,,,,,,,,,,,,,,,,,,,,,,,,,,,,,,,,,,,,,,,,,,,,,,,,,,,,
1764666581.219528,61996,0,4382.05127,4402.692383,4457.436035,4508.846191,4422.94873,4515.128418,4532.692383,4392.94873,4570.384766,4363.846191,4492.179688,4511.922852,4555.641113,4387.94873,4379.358887,4500.897461,4526.922852,4531.922852,4513.846191,4389.102539,4402.436035,4558.461426,4510.384766,4490.256348,4375.512695,4572.436035,4385.384766,4553.589844,4510.769043,4400.384766,4528.333496,4480.641113,2537,1,18,2567,15924,,,,0,4,4,4,4,4,4,4,4,4,4,4,4,4,4,4,4,4,4,4,4,4,4,4,4,4,4,4,4,4,4,4,4,100,,,,,,,,,,,,,,,,,,,,,,,,,,,,,,,,,,,,,,,,,,,,,,,,,,,,,,,,,,,,,,,,,,,,,,,,,,,,,,,,,,,,,,,,,,,,,,,,,,,,,,,,,,,,,,,,,,,,,,,,,,,,,,,,,,,,,,,,,,,,,,,,,,,,,,,,,,,,,,,,,,,,,,,,,,,,,,,,,,,,,,,,,,,,,,,,,,,,,,,,,,,,,,
1764666581.223434,61997,0,4378.333496,4398.461426,4468.077148,4509.358887,4415.256348,4514.102539,4534.102539,4391.922852,4567.179688,4357.307617,4491.538574,4509.230957,4553.974121,4387.307617,4383.205078,4501.153809,4524.230957,4527.692383,4504.871582,4385,4397.436035,4554.615234,4507.307617,4483.077148,4393.589844,4571.410156,4386.794922,4550,4507.436035,4393.717773,4528.077148,4484.615234,2330,1,18,2567,15924,,,,0,4,4,4,4,4,4,4,4,4,4,4,4,4,4,4,4,4,4,4,4,4,4,4,4,4,4,4,4,4,4,4,4,100,,,,,,,,,,,,,,,,,,,,,,,,,,,,,,,,,,,48267,0,0.539096,-0.422241,-0.286011,0.670288,0.965938,-0.258332,0.060066,5.666667,44.5,-19.5,,,,,,,,,,,,,,,,,,,,,,,,,,,,,,,,,,,,,,,,,,,,,,,,,,,,,,,,,,,,,,,,,,,,,,,,,,,,,,,,,,,,,,,,,,,,,,,,,,,,,,,,,,,,,,,,,,,,,,,,,,,,,,,,,,,,,,,,,,,,,,,,,,,,,,,,,,,,,,,,
1764666581.227340,61998,0,4372.436035,4389.230957,4484.358887,4505.641113,4400.897461,4508.205078,4529.487305,4381.922852,4560.256348,4364.358887,4488.974121,4504.487305,4552.05127,4386.025879,4382.692383,4499.358887,4520.897461,4524.358887,4498.205078,4377.94873,4389.358887,4551.025879,4501.025879,4474.871582,4402.563965,4565.641113,4382.307617,4542.307617,4501.282227,4389.358887,4523.974121,4489.230957,2728,1,18,2568,15932,,,,0,4,4,4,4,4,4,4,4,4,4,4,4,4,4,4,4,4,4,4,4,4,4,4,4,4,4,4,4,4,4,4,4,100,,,,,,,,,,,,,,,,,,,,,,,,,,,,,,,,,,,,,,,,,,,,,,,,,,,,,,,,,,,,,,,,,,,,,,,,,,,,,,,,,,,,,,,,,,,,,,,,,,,,,,,,,,,,,,,,,,,,,,,,,,,,,,,,,,,,,,,,,,,,,,,,,,,,,,,,,,,,,,,,,,,,,,,,,,,,,,,,,,,,,,,,,,,,,,,,,,,,,,,,,,,,,,
1764666581.231246,61999,0,4368.205078,4378.589844,4497.307617,4498.974121,4387.05127,4499.615234,4520.641113,4367.05127,4552.05127,4376.794922,4486.922852,4500.512695,4550.512695,4382.820313,4377.692383,4495.897461,4518.333496,4521.794922,4497.307617,4371.025879,4382.05127,4549.102539,4494.487305,4469.487305,4393.077148,4556.666504,4374.615234,4535.128418,4495.641113,4388.077148,4516.282227,4490.897461,2526,1,18,2568,15932,,,,0,4,4,4,4,4,4,4,4,4,4,4,4,4,4,4,4,4,4,4,4,4,4,4,4,4,4,4,4,4,4,4,4,100,,,,,,,,,,,,,,,,,,,,,,,,,,,,,,,,,,,,,,,,,,,,,,,,,,,,,,,,,,,,,,,,,,,,,,,,,,,,,,,,,,,,,,,,,,,,,,,,,,,,,,,,,,,,,,,,,,,,,,,,,,,,,,,,,,,,,,,,,,,,,,,,,,,,,,,,,,,,,,,,,,,,,,,,,,,,,,,,,,,,,,,,,,,,,,,,,,,,,,,,,,,,,,
1764666581.235152,62000,0,4368.589844,4372.692383,4503.333496,4493.846191,4378.077148,4493.461426,4513.846191,4355.384766,4546.666504,4383.717773,4488.333496,4500.256348,4551.025879,4377.692383,4371.282227,4491.794922,4518.077148,4519.487305,4500.641113,4368.333496,4379.615234,4549.871582,4492.436035,4470.641113,4373.077148,4549.615234,4369.615234,4533.974121,4494.230957,4390,4508.846191,4489.358887,2889,1,18,2569,15940,,,,0,4,4,4,4,4,4,4,4,4,4,4,4,4,4,4,4,4,4,4,4,4,4,4,4,4,4,4,4,4,4,4,4,100,,,,,,,,,,,,,,,,,,,,,,,,,,,,,,,,,,,,,,,,,,,,,,,,,,,,,,,,,,,,,,,,,,,,,,,,,,,,,,,,,,,,,,,,,,,,,,,,,,,,,,,,,,,,,,,,,,,,,,,,,,,,,,,,,,,,,,,,,,,,,,,,,,,,,,,,,,,,,,,,,,,,,,,,,,,,,,,,,,,,,,,,,,,,,,,,,,,,,,,,,,,,,,
1764666581.239058,62001,0,4375,4376.025879,4504.871582,4495.256348,4374.871582,4494.358887,4515,4354.871582,4548.461426,4383.077148,4494.102539,4504.743652,4554.743652,4373.717773,4368.717773,4488.974121,4521.666504,4518.205078,4504.487305,4371.538574,4383.974121,4554.102539,4497.692383,4480.256348,4362.692383,4550.128418,4371.922852,4541.410156,4498.461426,4396.282227,4508.589844,4488.717773,2918,1,18,2569,15940,,,,0,4,4,4,4,4,4,4,4,4,4,4,4,4,4,4,4,4,4,4,4,4,4,4,4,4,4,4,4,4,4,4,4,100,,,,,,,,,,,,,,,,,,,,,,,,,,,,,,,,,,,48268,0,0.53899,-0.422363,-0.286316,0.670166,0.966427,-0.251007,0.069833,5.5,42.666668,-19.333334,,,,,,,,,,,,,,,,,,,,,,,,,,,,,,,,,,,,,,,,,,,,,,,,,,,,,,,,,,,,,,,,,,,,,,,,,,,,,,,,,,,,,,,,,,,,,,,,,,,,,,,,,,,,,,,,,,,,,,,,,,,,,,,,,,,,,,,,,,,,,,,,,,,,,,,,,,,,,,,,
1764666581.242964,62002,0,4385.256348,4388.717773,4506.922852,4504.743652,4376.922852,4503.461426,4525,4366.538574,4558.717773,4381.153809,4502.307617,4512.307617,4561.025879,4374.615234,4373.461426,4490.769043,4528.717773,4520.897461,4506.538574,4380.128418,4394.102539,4561.666504,4508.717773,4495.641113,4376.538574,4560.256348,4381.922852,4555.128418,4506.922852,4406.922852,4519.230957,4493.333496,1764,1,18,2569,15948,,,,0,4,4,4,4,4,4,4,4,4,4,4,4,4,4,4,4,4,4,4,4,4,4,4,4,4,4,4,4,4,4,4,4,100,,,,,,,,,,,,,,,,,,,,,,,,,,,,,,,,,,,,,,,,,,,,,,,,,,,,,,,,,,,,,,,,,,,,,,,,,,,,,,,,,,,,,,,,,,,,,,,,,,,,,,,,,,,,,,,,,,,,,,,,,,,,,,,,,,,,,,,,,,,,,,,,,,,,,,,,,,,,,,,,,,,,,,,,,,,,,,,,,,,,,,,,,,,,,,,,,,,,,,,,,,,,,,
1764666581.246870,62003,0,4395.384766,4404.871582,4510.897461,4517.820313,4383.846191,4516.538574,4539.230957,4384.487305,4574.102539,4384.743652,4509.102539,4520.256348,4567.820313,4382.179688,4384.615234,4497.94873,4536.922852,4528.333496,4507.179688,4391.025879,4405.769043,4570.897461,4520.384766,4510.769043,4409.358887,4576.153809,4394.743652,4569.230957,4515.256348,4419.743652,4537.692383,4502.179688,2839,1,18,2569,15948,,,,0,4,4,4,4,4,4,4,4,4,4,4,4,4,4,4,4,4,4,4,4,4,4,4,4,4,4,4,4,4,4,4,4,100,,,,,,,,,,,,,,,,,,,,,,,,,,,,,,,,,,,,,,,,,,,,,,,,,,,,,,,,,,,,,,,,,,,,,,,,,,,,,,,,,,,,,,,,,,,,,,,,,,,,,,,,,,,,,,,,,,,,,,,,,,,,,,,,,,,,,,,,,,,,,,,,,,,,,,,,,,,,,,,,,,,,,,,,,,,,,,,,,,,,,,,,,,,,,,,,,,,,,,,,,,,,,,
1764666581.250776,62004,0,4401.666504,4417.307617,4512.94873,4527.307617,4395.641113,4526.922852,4551.025879,4400.128418,4587.692383,4393.846191,4512.436035,4526.538574,4573.205078,4394.871582,4397.05127,4507.307617,4543.461426,4538.461426,4508.717773,4400.769043,4414.743652,4579.615234,4527.179688,4519.743652,4439.102539,4590.512695,4404.230957,4578.077148,4519.615234,4430.512695,4554.615234,4509.871582,2561,1,18,2570,15956,,,,0,4,4,4,4,4,4,4,4,4,4,4,4,4,4,4,4,4,4,4,4,4,4,4,4,4,4,4,4,4,4,4,4,100,,,,,,,,,,,,,,,,,,,,,,,,,,,,,,,,,,,,,,,,,,,,,,,0.974126,1.631316,1.445884,0.554388,0.339683,1.202338,2.226977,1.839981,0.735181,0.531875,12.590038,5.583543,4.089565,2.65778,2.289593,1.845779,2.484234,1.508974,0.925334,0.584196,1.74461,3.750651,2.282502,1.324074,0.508662,1.23406,1.758381,1.656539,0.490182,0.344578,0.696425,1.505741,1.141571,0.669886,0.382061,1.018949,1.4779,1.246345,0.774243,0.532281,0.396889,1.607264,1.546003,0.511324,0.291296,1.958682,2.967885,2.758559,2.146271,1.213136,1.112135,1.388004,0.942839,0.439604,0.311552,0.63806,1.740418,1.282477,0.642757,0.362731,0.303317,1.908328,1.400517,0.599612,0.304751,0.694472,0.942089,0.725456,0.427455,0.237691,0.509722,1.880565,1.255034,0.56916,0.459394,0.306067,1.601844,1.310636,0.499721,0.398399,1.287888,2.451033,1.689123,0.885159,0.498241,0.987196,4.735538,3.284501,1.612466,0.730412,1.06315,3.112858,2.470413,0.978154,0.435931,0.616986,4.073563,2.097152,0.854616,0.558047,1.272143,3.649478,1.84618,1.206742,0.772573,0.908035,4.0158,2.658453,0.895221,0.59196,0.978092,2.607687,1.451235,0.683337,0.44932,1.37922,3.281569,2.220911,0.862618,0.568099,1.440567,2.4236,2.646537,3.460521,1.987395,1.034898,3.113637,1.910244,0.532406,0.336298,1.586776,4.349821,2.558902,0.94114,0.851389,1.468102,2.544185,1.905426,0.684796,0.546142,0.489699,1.135626,1.015242,0.344962,0.197146,1.660699,2.873884,2.024723,0.81763,0.480313,1.854862,4.983959,2.375054,0.981098,1.136616,8.229254,6.436908,2.849634,2.705199,1.577561
1764666581.254682,62005,0,4403.589844,4421.538574,4507.94873,4528.717773,4410.384766,4530.897461,4556.538574,4407.820313,4593.974121,4402.820313,4512.820313,4531.153809,4576.410156,4407.436035,4405,4512.820313,4547.436035,4546.025879,4512.820313,4407.05127,4418.846191,4585.384766,4527.563965,4520.897461,4444.615234,4597.05127,4408.333496,4580.641113,4519.743652,4436.025879,4561.538574,4511.282227,2828,1,18,2570,15956,,,,0,4,4,4,4,4,4,4,4,4,4,4,4,4,4,4,4,4,4,4,4,4,4,4,4,4,4,4,4,4,4,4,4,100,,,,,,,,,,,,,,,,,,,,,,,,,,,,,,,,,,,48269,0,0.538957,-0.422363,-0.286377,0.670166,0.961055,-0.255402,0.053717,4.833333,43.333332,-20,,,,,,,,,,,,,,,,,,,,,,,,,,,,,,,,,,,,,,,,,,,,,,,,,,,,,,,,,,,,,,,,,,,,,,,,,,,,,,,,,,,,,,,,,,,,,,,,,,,,,,,,,,,,,,,,,,,,,,,,,,,,,,,,,,,,,,,,,,,,,,,,,,,,,,,,,,,,,,,,
1764666581.258588,62006,0,4402.94873,4418.846191,4497.179688,4523.589844,4423.846191,4529.102539,4556.666504,4406.922852,4591.794922,4406.282227,4512.179688,4534.487305,4578.333496,4414.487305,4405.897461,4511.025879,4549.615234,4547.563965,4518.333496,4409.487305,4418.974121,4587.05127,4523.589844,4516.922852,4423.205078,4594.743652,4409.230957,4579.487305,4517.94873,4435.769043,4557.05127,4507.179688,2955,1,18,2569,15963,,,,0,4,4,4,4,4,4,4,4,4,4,4,4,4,4,4,4,4,4,4,4,4,4,4,4,4,4,4,4,4,4,4,4,100,,,,,,,,,,,,,,,,,,,,,,,,,,,,,,,,,,,,,,,,,,,,,,,,,,,,,,,,,,,,,,,,,,,,,,,,,,,,,,,,,,,,,,,,,,,,,,,,,,,,,,,,,,,,,,,,,,,,,,,,,,,,,,,,,,,,,,,,,,,,,,,,,,,,,,,,,,,,,,,,,,,,,,,,,,,,,,,,,,,,,,,,,,,,,,,,,,,,,,,,,,,,,,
1764666581.262494,62007,0,4402.436035,4413.974121,4489.358887,4518.077148,4430.384766,4525,4554.615234,4400.769043,4584.615234,4404.230957,4512.307617,4536.666504,4579.871582,4414.230957,4401.794922,4504.230957,4551.153809,4543.333496,4522.436035,4409.102539,4417.692383,4585.256348,4518.974121,4512.563965,4392.692383,4587.563965,4410.384766,4578.589844,4516.538574,4431.282227,4546.922852,4502.820313,2857,1,18,2569,15963,,,,0,4,4,4,4,4,4,4,4,4,4,4,4,4,4,4,4,4,4,4,4,4,4,4,4,4,4,4,4,4,4,4,4,100,,,,,,,,,,,,,,,,,,,,,,,,,,,,,,,,,,,,,,,,,,,,,,,,,,,,,,,,,,,,,,,,,,,,,,,,,,,,,,,,,,,,,,,,,,,,,,,,,,,,,,,,,,,,,,,,,,,,,,,,,,,,,,,,,,,,,,,,,,,,,,,,,,,,,,,,,,,,,,,,,,,,,,,,,,,,,,,,,,,,,,,,,,,,,,,,,,,,,,,,,,,,,,
1764666581.266400,62008,0,4402.436035,4411.025879,4491.922852,4517.05127,4426.794922,4521.153809,4552.820313,4392.436035,4576.410156,4400.128418,4512.94873,4536.666504,4580.897461,4408.333496,4397.05127,4498.461426,4551.922852,4537.179688,4522.436035,4407.820313,4417.179688,4581.666504,4515.641113,4510.769043,4375.384766,4580.897461,4412.05127,4578.717773,4515.641113,4424.230957,4538.333496,4502.436035,2746,1,18,2564,15971,,,,0,4,4,4,4,4,4,4,4,4,4,4,4,4,4,4,4,4,4,4,4,4,4,4,4,4,4,4,4,4,4,4,4,100,,,,,,,,,,,,,,,,,,,,,,,,,,,,,,,,,,,,,,,,,,,,,,,,,,,,,,,,,,,,,,,,,,,,,,,,,,,,,,,,,,,,,,,,,,,,,,,,,,,,,,,,,,,,,,,,,,,,,,,,,,,,,,,,,,,,,,,,,,,,,,,,,,,,,,,,,,,,,,,,,,,,,,,,,,,,,,,,,,,,,,,,,,,,,,,,,,,,,,,,,,,,,,
1764666581.270306,62009,0,4401.922852,4410.384766,4503.461426,4520.641113,4414.487305,4517.692383,4551.025879,4384.230957,4570.128418,4396.666504,4513.205078,4534.102539,4580.256348,4400.641113,4395,4498.461426,4550.641113,4533.846191,4518.333496,4406.153809,4417.436035,4578.077148,4514.102539,4511.282227,4380.641113,4578.461426,4411.025879,4578.077148,4514.487305,4416.666504,4535,4505,2869,1,18,2564,15971,,,,0,4,4,4,4,4,4,4,4,4,4,4,4,4,4,4,4,4,4,4,4,4,4,4,4,4,4,4,4,4,4,4,4,100,,,,,,,,,,,,,,,,,,,,,,,,,,,,,,,,,,,48270,0,0.53882,-0.422607,-0.28656,0.670044,0.96252,-0.264681,0.063484,7.666667,44.5,-18.666666,,,,,,,,,,,,,,,,,,,,,,,,,,,,,,,,,,,,,,,,,,,,,,,,,,,,,,,,,,,,,,,,,,,,,,,,,,,,,,,,,,,,,,,,,,,,,,,,,,,,,,,,,,,,,,,,,,,,,,,,,,,,,,,,,,,,,,,,,,,,,,,,,,,,,,,,,,,,,,,,
1764666581.274212,62010,1,4401.40332,4409.372559,4503.8125,4520.202637,4413.92041,4517.699219,4550.843262,4384.473633,4570.654297,4395.769043,4512.273926,4534.318359,4579.811035,4400.081055,4394.97998,4498.407715,4550.458984,4533.92041,4517.888184,4405.789551,4416.40332,4577.84082,4514.116211,4510.586914,4380.512695,4578.475098,4409.939453,4576.828613,4514.116211,4415.229492,4534.372559,4504.918945,0,1,18,0,0,,,,0,4,4,4,4,4,4,4,4,4,4,4,4,4,4,4,4,4,4,4,4,4,4,4,4,4,4,4,4,4,4,4,4,100,,,,,,,,,,,,,,,,,,,,,,,,,,,,,,,,,,,,,,,,,,,,,,,,,,,,,,,,,,,,,,,,,,,,,,,,,,,,,,,,,,,,,,,,,,,,,,,,,,,,,,,,,,,,,,,,,,,,,,,,,,,,,,,,,,,,,,,,,,,,,,,,,,,,,,,,,,,,,,,,,,,,,,,,,,,,,,,,,,,,,,,,,,,,,,,,,,,,,,,,,,,,,,
1764666581.278118,62011,1,4400.883789,4408.360352,4504.163086,4519.763672,4413.353516,4517.705566,4550.661133,4384.716797,4571.180664,4394.871582,4511.342773,4534.53418,4579.365723,4399.520996,4394.959473,4498.353516,4550.276855,4533.994629,4517.442871,4405.425293,4415.371094,4577.604492,4514.129395,4509.89209,4380.384766,4578.48877,4408.853027,4575.580078,4513.745117,4413.791992,4533.745117,4504.837891,0,1,18,0,0,,,,0,4,4,4,4,4,4,4,4,4,4,4,4,4,4,4,4,4,4,4,4,4,4,4,4,4,4,4,4,4,4,4,4,100,,,,,,,,,,,,,,,,,,,,,,,,,,,,,,,,,,,,,,,,,,,,,,,,,,,,,,,,,,,,,,,,,,,,,,,,,,,,,,,,,,,,,,,,,,,,,,,,,,,,,,,,,,,,,,,,,,,,,,,,,,,,,,,,,,,,,,,,,,,,,,,,,,,,,,,,,,,,,,,,,,,,,,,,,,,,,,,,,,,,,,,,,,,,,,,,,,,,,,,,,,,,,,
1764666581.282024,62012,1,4400.364258,4407.348145,4504.51416,4519.325195,4412.786621,4517.712402,4550.479004,4384.959473,4571.707031,4393.974121,4510.411621,4534.750488,4578.92041,4398.960938,4394.939453,4498.299805,4550.094238,4534.068848,4516.99707,4405.060547,4414.338867,4577.368652,4514.143066,4509.197266,4380.256348,4578.501953,4407.766602,4574.332031,4513.374023,4412.35498,4533.117188,4504.757324,0,1,18,0,0,,,,0,4,4,4,4,4,4,4,4,4,4,4,4,4,4,4,4,4,4,4,4,4,4,4,4,4,4,4,4,4,4,4,4,100,,,,,,,,,,,,,,,,,,,,,,,,,,,,,,,,,,,,,,,,,,,,,,,,,,,,,,,,,,,,,,,,,,,,,,,,,,,,,,,,,,,,,,,,,,,,,,,,,,,,,,,,,,,,,,,,,,,,,,,,,,,,,,,,,,,,,,,,,,,,,,,,,,,,,,,,,,,,,,,,,,,,,,,,,,,,,,,,,,,,,,,,,,,,,,,,,,,,,,,,,,,,,,
1764666581.285930,62013,1,4399.844727,4406.335938,4504.865234,4518.886719,4412.220215,4517.719238,4550.296875,4385.202637,4572.233398,4393.077148,4509.480469,4534.966309,4578.475098,4398.400879,4394.918945,4498.245605,4549.912109,4534.143066,4516.551758,4404.696289,4413.306152,4577.132324,4514.156738,4508.501953,4380.128418,4578.515625,4406.680176,4573.083496,4513.00293,4410.91748,4532.489746,4504.67627,0,1,18,0,0,,,,0,4,4,4,4,4,4,4,4,4,4,4,4,4,4,4,4,4,4,4,4,4,4,4,4,4,4,4,4,4,4,4,4,100,,,,,,,,,,,,,,,,,,,,,,,,,,,,,,,,,,,,,,,,,,,,,,,,,,,,,,,,,,,,,,,,,,,,,,,,,,,,,,,,,,,,,,,,,,,,,,,,,,,,,,,,,,,,,,,,,,,,,,,,,,,,,,,,,,,,,,,,,,,,,,,,,,,,,,,,,,,,,,,,,,,,,,,,,,,,,,,,,,,,,,,,,,,,,,,,,,,,,,,,,,,,,,
1764666581.289836,62014,1,4399.325195,4405.32373,4505.21582,4518.448242,4411.65332,4517.726074,4550.114746,4385.445313,4572.759766,4392.179688,4508.549316,4535.182129,4578.029785,4397.84082,4394.898926,4498.191406,4549.72998,4534.217285,4516.106445,4404.332031,4412.273926,4576.895996,4514.169922,4507.807129,4380,4578.528809,4405.59375,4571.835449,4512.631348,4409.480469,4531.862305,4504.595215,0,1,18,0,0,,,,0,4,4,4,4,4,4,4,4,4,4,4,4,4,4,4,4,4,4,4,4,4,4,4,4,4,4,4,4,4,4,4,4,100,,,,,,,,,,,,,,,,,,,,,,,,,,,,,,,,,,,,,,,,,,,,,,,,,,,,,,,,,,,,,,,,,,,,,,,,,,,,,,,,,,,,,,,,,,,,,,,,,,,,,,,,,,,,,,,,,,,,,,,,,,,,,,,,,,,,,,,,,,,,,,,,,,,,,,,,,,,,,,,,,,,,,,,,,,,,,,,,,,,,,,,,,,,,,,,,,,,,,,,,,,,,,,
1764666581.293742,62015,1,4398.805664,4404.311523,4505.566895,4518.009277,4411.086426,4517.73291,4549.932617,4385.688477,4573.286133,4391.282227,4507.618164,4535.397949,4577.584473,4397.280762,4394.878418,4498.137695,4549.547852,4534.291504,4515.661133,4403.967773,4411.241699,4576.660156,4514.183594,4507.111816,4379.871582,4578.54248,4404.507324,4570.586914,4512.260254,4408.042969,4531.234863,4504.51416,0,1,18,0,0,,,,0,4,4,4,4,4,4,4,4,4,4,4,4,4,4,4,4,4,4,4,4,4,4,4,4,4,4,4,4,4,4,4,4,100,,,,,,,,,,,,,,,,,,,,,,,,,,,,,,,,,,,,,,,,,,,,,,,,,,,,,,,,,,,,,,,,,,,,,,,,,,,,,,,,,,,,,,,,,,,,,,,,,,,,,,,,,,,,,,,,,,,,,,,,,,,,,,,,,,,,,,,,,,,,,,,,,,,,,,,,,,,,,,,,,,,,,,,,,,,,,,,,,,,,,,,,,,,,,,,,,,,,,,,,,,,,,,
1764666581.297648,62016,1,4398.286133,4403.299805,4505.91748,4517.570801,4410.519531,4517.739746,4549.750488,4385.931152,4573.8125,4390.384766,4506.687012,4535.614258,4577.13916,4396.720703,4394.858398,4498.083496,4549.365723,4534.365723,4515.21582,4403.603027,4410.208984,4576.423828,4514.197266,4506.416992,4379.743652,4578.556152,4403.420898,4569.338867,4511.88916,4406.605957,4530.607422,4504.433105,0,1,18,0,0,,,,0,4,4,4,4,4,4,4,4,4,4,4,4,4,4,4,4,4,4,4,4,4,4,4,4,4,4,4,4,4,4,4,4,100,,,,,,,,,,,,,,,,,,,,,,,,,,,,,,,,,,,,,,,,,,,,,,,,,,,,,,,,,,,,,,,,,,,,,,,,,,,,,,,,,,,,,,,,,,,,,,,,,,,,,,,,,,,,,,,,,,,,,,,,,,,,,,,,,,,,,,,,,,,,,,,,,,,,,,,,,,,,,,,,,,,,,,,,,,,,,,,,,,,,,,,,,,,,,,,,,,,,,,,,,,,,,,
1764666581.301554,62017,1,4397.766602,4402.287598,4506.268555,4517.132324,4409.952637,4517.746094,4549.568359,4386.174316,4574.338867,4389.487305,4505.755859,4535.830078,4576.693848,4396.160645,4394.837891,4498.029785,4549.183594,4534.439941,4514.770508,4403.23877,4409.176758,4576.1875,4514.210449,4505.722168,4379.615234,4578.569336,4402.334473,4568.090332,4511.518066,4405.168457,4529.97998,4504.352051,0,1,18,0,0,,,,0,4,4,4,4,4,4,4,4,4,4,4,4,4,4,4,4,4,4,4,4,4,4,4,4,4,4,4,4,4,4,4,4,100,,,,,,,,,,,,,,,,,,,,,,,,,,,,,,,,,,,,,,,,,,,,,,,,,,,,,,,,,,,,,,,,,,,,,,,,,,,,,,,,,,,,,,,,,,,,,,,,,,,,,,,,,,,,,,,,,,,,,,,,,,,,,,,,,,,,,,,,,,,,,,,,,,,,,,,,,,,,,,,,,,,,,,,,,,,,,,,,,,,,,,,,,,,,,,,,,,,,,,,,,,,,,,
1764666581.305460,62018,1,4397.24707,4401.275391,4506.619629,4516.693848,4409.385742,4517.75293,4549.385742,4386.416992,4574.865234,4388.589844,4504.824707,4536.045898,4576.248535,4395.600586,4394.817871,4497.975586,4549.001465,4534.51416,4514.325195,4402.874512,4408.144531,4575.95166,4514.224121,4505.026855,4379.487305,4578.583008,4401.248535,4566.842285,4511.146973,4403.731445,4529.352051,4504.271484,0,1,18,0,0,,,,0,4,4,4,4,4,4,4,4,4,4,4,4,4,4,4,4,4,4,4,4,4,4,4,4,4,4,4,4,4,4,4,4,100,,,,,,,,,,,,,,,,,,,,,,,,,,,,,,,,,,,,,,,,,,,,,,,,,,,,,,,,,,,,,,,,,,,,,,,,,,,,,,,,,,,,,,,,,,,,,,,,,,,,,,,,,,,,,,,,,,,,,,,,,,,,,,,,,,,,,,,,,,,,,,,,,,,,,,,,,,,,,,,,,,,,,,,,,,,,,,,,,,,,,,,,,,,,,,,,,,,,,,,,,,,,,,
1764666581.309366,62019,1,4396.727539,4400.263184,4506.970215,4516.254883,4408.819336,4517.759766,4549.203613,4386.660156,4575.391602,4387.692383,4503.893555,4536.261719,4575.802734,4395.040527,4394.797363,4497.921875,4548.819336,4534.588379,4513.879883,4402.510254,4407.111816,4575.715332,4514.237305,4504.332031,4379.358887,4578.59668,4400.162109,4565.59375,4510.775879,4402.294434,4528.724609,4504.19043,0,1,18,0,0,,,,0,4,4,4,4,4,4,4,4,4,4,4,4,4,4,4,4,4,4,4,4,4,4,4,4,4,4,4,4,4,4,4,4,100,,,,,,,,,,,,,,,,,,,,,,,,,,,,,,,,,,,,,,,,,,,,,,,,,,,,,,,,,,,,,,,,,,,,,,,,,,,,,,,,,,,,,,,,,,,,,,,,,,,,,,,,,,,,,,,,,,,,,,,,,,,,,,,,,,,,,,,,,,,,,,,,,,,,,,,,,,,,,,,,,,,,,,,,,,,,,,,,,,,,,,,,,,,,,,,,,,,,,,,,,,,,,,
1764666581.313272,62020,1,4396.208008,4399.250977,4507.321289,4515.816406,4408.252441,4517.766602,4549.021484,4386.902832,4575.91748,4386.794922,4502.962402,4536.477539,4575.357422,4394.480469,4394.777344,4497.867676,4548.637207,4534.662598,4513.43457,4402.145508,4406.07959,4575.479004,4514.250977,4503.637207,4379.230957,4578.609863,4399.075684,4564.345703,4510.404785,4400.856934,4528.097168,4504.109375,0,1,18,0,0,,,,0,4,4,4,4,4,4,4,4,4,4,4,4,4,4,4,4,4,4,4,4,4,4,4,4,4,4,4,4,4,4,4,4,100,,,,,,,,,,,,,,,,,,,,,,,,,,,,,,,,,,,,,,,,,,,,,,,,,,,,,,,,,,,,,,,,,,,,,,,,,,,,,,,,,,,,,,,,,,,,,,,,,,,,,,,,,,,,,,,,,,,,,,,,,,,,,,,,,,,,,,,,,,,,,,,,,,,,,,,,,,,,,,,,,,,,,,,,,,,,,,,,,,,,,,,,,,,,,,,,,,,,,,,,,,,,,,
1764666581.317178,62021,1,4395.688477,4398.23877,4507.671875,4515.37793,4407.685547,4517.773438,4548.839355,4387.145508,4576.443848,4385.897461,4502.03125,4536.693848,4574.912109,4393.92041,4394.757324,4497.813965,4548.45459,4534.736816,4512.989258,4401.78125,4405.047363,4575.242676,4514.264648,4502.941895,4379.102539,4578.623535,4397.989258,4563.097168,4510.033691,4399.419922,4527.469727,4504.02832,0,1,18,0,0,,,,0,4,4,4,4,4,4,4,4,4,4,4,4,4,4,4,4,4,4,4,4,4,4,4,4,4,4,4,4,4,4,4,4,100,,,,,,,,,,,,,,,,,,,,,,,,,,,,,,,,,,,48271,1,0.538874,-0.422437,-0.286426,0.670166,0.963203,-0.263704,0.064461,7.533333,44.299999,-19.533333,,,,,,,,,,,,,,,,,,,,,,,,,,,,,,,,,,,,,,,,,,,,,,,,,,,,,,,,,,,,,,,,,,,,,,,,,,,,,,,,,,,,,,,,,,,,,,,,,,,,,,,,,,,,,,,,,,,,,,,,,,,,,,,,,,,,,,,,,,,,,,,,,,,,,,,,,,,,,,,,
1764666581.321084,62022,1,4395.168457,4397.226563,4508.022949,4514.939453,4407.118652,4517.779785,4548.657227,4387.388672,4576.970215,4385,4501.100098,4536.909668,4574.466797,4393.360352,4394.736816,4497.759766,4548.272461,4534.811035,4512.543945,4401.416992,4404.014648,4575.006836,4514.277832,4502.24707,4378.974121,4578.637207,4396.902832,4561.848633,4509.662598,4397.982422,4526.842285,4503.947266,0,1,18,0,0,,,,0,4,4,4,4,4,4,4,4,4,4,4,4,4,4,4,4,4,4,4,4,4,4,4,4,4,4,4,4,4,4,4,4,100,,,,,,,,,,,,,,,,,,,,,,,,,,,,,,,,,,,,,,,,,,,,,,,,,,,,,,,,,,,,,,,,,,,,,,,,,,,,,,,,,,,,,,,,,,,,,,,,,,,,,,,,,,,,,,,,,,,,,,,,,,,,,,,,,,,,,,,,,,,,,,,,,,,,,,,,,,,,,,,,,,,,,,,,,,,,,,,,,,,,,,,,,,,,,,,,,,,,,,,,,,,,,,
1764666581.324990,62023,1,4394.648926,4396.214355,4508.374023,4514.500488,4406.551758,4517.786621,4548.475098,4387.631348,4577.496582,4384.102539,4500.168457,4537.125488,4574.021484,4392.800293,4394.716797,4497.705566,4548.090332,4534.885254,4512.098633,4401.052734,4402.982422,4574.770508,4514.291504,4501.551758,4378.846191,4578.650391,4395.816406,4560.600586,4509.291504,4396.54541,4526.214355,4503.866211,0,1,18,0,0,,,,0,4,4,4,4,4,4,4,4,4,4,4,4,4,4,4,4,4,4,4,4,4,4,4,4,4,4,4,4,4,4,4,4,100,,,,,,,,,,,,,,,,,,,,,,,,,,,,,,,,,,,48272,1,0.538927,-0.422266,-0.286292,0.670288,0.963887,-0.262727,0.065438,7.4,44.099998,-20.4,,,,,,,,,,,,,,,,,,,,,,,,,,,,,,,,,,,,,,,,,,,,,,,,,,,,,,,,,,,,,,,,,,,,,,,,,,,,,,,,,,,,,,,,,,,,,,,,,,,,,,,,,,,,,,,,,,,,,,,,,,,,,,,,,,,,,,,,,,,,,,,,,,,,,,,,,,,,,,,,
1764666581.328896,62024,1,4394.129395,4395.202637,4508.724609,4514.062012,4405.985352,4517.793457,4548.292969,4387.874512,4578.022949,4383.205078,4499.237305,4537.341309,4573.576172,4392.240234,4394.696289,4497.651855,4547.908203,4534.959473,4511.65332,4400.688477,4401.950195,4574.53418,4514.305176,4500.856934,4378.717773,4578.664063,4394.72998,4559.352051,4508.92041,4395.10791,4525.586914,4503.785645,0,1,18,0,0,,,,0,4,4,4,4,4,4,4,4,4,4,4,4,4,4,4,4,4,4,4,4,4,4,4,4,4,4,4,4,4,4,4,4,100,,,,,,,,,,,,,,,,,,,,,,,,,,,,,,,,,,,,,,,,,,,,,,,,,,,,,,,,,,,,,,,,,,,,,,,,,,,,,,,,,,,,,,,,,,,,,,,,,,,,,,,,,,,,,,,,,,,,,,,,,,,,,,,,,,,,,,,,,,,,,,,,,,,,,,,,,,,,,,,,,,,,,,,,,,,,,,,,,,,,,,,,,,,,,,,,,,,,,,,,,,,,,,
1764666581.332802,62025,1,4393.609863,4394.19043,4509.075684,4513.623535,4405.418457,4517.800293,4548.11084,4388.117188,4578.549316,4382.307617,4498.306152,4537.557129,4573.130859,4391.680176,4394.67627,4497.597656,4547.726074,4535.033691,4511.208008,4400.32373,4400.91748,4574.29834,4514.318359,4500.162109,4378.589844,4578.677246,4393.643555,4558.104004,4508.549316,4393.670898,4524.959473,4503.70459,0,1,18,0,0,,,,0,4,4,4,4,4,4,4,4,4,4,4,4,4,4,4,4,4,4,4,4,4,4,4,4,4,4,4,4,4,4,4,4,100,,,,,,,,,,,,,,,,,,,,,,,,,,,,,,,,,,,48273,1,0.53898,-0.422095,-0.286157,0.67041,0.964571,-0.261751,0.066414,7.266667,43.900002,-21.266666,,,,,,,,,,,,,,,,,,,,,,,,,,,,,,,,,,,,,,,,,,,,,,,,,,,,,,,,,,,,,,,,,,,,,,,,,,,,,,,,,,,,,,,,,,,,,,,,,,,,,,,,,,,,,,,,,,,,,,,,,,,,,,,,,,,,,,,,,,,,,,,,,,,,,,,,,,,,,,,,
1764666581.336708,62026,1,4393.090332,4393.178223,4509.42627,4513.185059,4404.851563,4517.807129,4547.928711,4388.360352,4579.075684,4381.410156,4497.375,4537.773438,4572.685547,4391.120117,4394.655762,4497.543945,4547.543945,4535.10791,4510.762695,4399.959473,4399.885254,4574.062012,4514.332031,4499.466797,4378.461426,4578.690918,4392.557129,4556.855469,4508.178223,4392.233398,4524.332031,4503.623535,0,1,18,0,0,,,,0,4,4,4,4,4,4,4,4,4,4,4,4,4,4,4,4,4,4,4,4,4,4,4,4,4,4,4,4,4,4,4,4,100,,,,,,,,,,,,,,,,,,,,,,,,,,,,,,,,,,,,,,,,,,,,,,,,,,,,,,,,,,,,,,,,,,,,,,,,,,,,,,,,,,,,,,,,,,,,,,,,,,,,,,,,,,,,,,,,,,,,,,,,,,,,,,,,,,,,,,,,,,,,,,,,,,,,,,,,,,,,,,,,,,,,,,,,,,,,,,,,,,,,,,,,,,,,,,,,,,,,,,,,,,,,,,
1764666581.340614,62027,1,4392.570801,4392.166016,4509.777344,4512.746094,4404.284668,4517.813965,4547.746094,4388.603027,4579.602051,4380.512695,4496.443848,4537.989258,4572.240234,4390.560059,4394.635742,4497.489746,4547.361816,4535.182129,4510.317383,4399.595215,4398.853027,4573.825684,4514.345703,4498.771973,4378.333496,4578.70459,4391.471191,4555.607422,4507.807129,4390.796387,4523.70459,4503.54248,0,1,18,0,0,,,,0,4,4,4,4,4,4,4,4,4,4,4,4,4,4,4,4,4,4,4,4,4,4,4,4,4,4,4,4,4,4,4,4,100,,,,,,,,,,,,,,,,,,,,,,,,,,,,,,,,,,,48274,1,0.539034,-0.421924,-0.286023,0.670532,0.965255,-0.260774,0.067391,7.133333,43.700001,-22.133333,,,,,,,,,,,,,,,,,,,,,,,,,,,,,,,,,,,,,,,,,,,,,,,,,,,,,,,,,,,,,,,,,,,,,,,,,,,,,,,,,,,,,,,,,,,,,,,,,,,,,,,,,,,,,,,,,,,,,,,,,,,,,,,,,,,,,,,,,,,,,,,,,,,,,,,,,,,,,,,,
1764666581.344520,62028,0,4392.05127,4391.153809,4510.128418,4512.307617,4403.717773,4517.820313,4547.563965,4388.846191,4580.128418,4379.615234,4495.512695,4538.205078,4571.794922,4390,4394.615234,4497.436035,4547.179688,4535.256348,4509.871582,4399.230957,4397.820313,4573.589844,4514.358887,4498.077148,4378.205078,4578.717773,4390.384766,4554.358887,4507.436035,4389.358887,4523.077148,4503.461426,2526,1,18,2570,16049,,,,0,4,4,4,4,4,4,4,4,4,4,4,4,4,4,4,4,4,4,4,4,4,4,4,4,4,4,4,4,4,4,4,4,100,,,,,,,,,,,,,,,,,,,,,,,,,,,,,,,,,,,,,,,,,,,,,,,,,,,,,,,,,,,,,,,,,,,,,,,,,,,,,,,,,,,,,,,,,,,,,,,,,,,,,,,,,,,,,,,,,,,,,,,,,,,,,,,,,,,,,,,,,,,,,,,,,,,,,,,,,,,,,,,,,,,,,,,,,,,,,,,,,,,,,,,,,,,,,,,,,,,,,,,,,,,,,,
1764666581.348426,62029,0,4391.794922,4393.589844,4519.487305,4511.666504,4399.102539,4519.615234,4548.077148,4389.102539,4579.743652,4386.666504,4497.436035,4537.94873,4568.846191,4391.410156,4393.717773,4495.897461,4548.333496,4535.641113,4517.94873,4406.922852,4403.461426,4579.358887,4515.128418,4503.846191,4396.025879,4584.230957,4389.102539,4556.025879,4509.743652,4393.333496,4525.256348,4505.384766,2317,1,18,2570,16049,,,,0,4,4,4,4,4,4,4,4,4,4,4,4,4,4,4,4,4,4,4,4,4,4,4,4,4,4,4,4,4,4,4,4,100,,,,,,,,,,,,,,,,,,,,,,,,,,,,,,,,,,,48275,0,0.539087,-0.421753,-0.285889,0.670654,0.965938,-0.259797,0.068368,7,43.5,-23,,,,,,,,,,,,,,,,,,,,,,,,,,,,,,,,,,,,,,,,,,,,,,,,,,,,,,,,,,,,,,,,,,,,,,,,,,,,,,,,,,,,,,,,,,,,,,,,,,,,,,,,,,,,,,,,,,,,,,,,,,,,,,,,,,,,,,,,,,,,,,,,,,,,,,,,,,,,,,,,
1764666581.352332,62030,0,4383.846191,4388.461426,4510.641113,4506.410156,4383.974121,4512.307617,4542.179688,4382.307617,4572.436035,4386.282227,4493.717773,4530.128418,4563.077148,4393.333496,4390.641113,4495.256348,4542.436035,4528.717773,4515,4401.794922,4400,4577.820313,4507.692383,4501.153809,4401.153809,4581.410156,4382.179688,4553.846191,4506.282227,4394.743652,4521.282227,4497.820313,2716,1,18,2571,16057,,,,0,4,4,4,4,4,4,4,4,4,4,4,4,4,4,4,4,4,4,4,4,4,4,4,4,4,4,4,4,4,4,4,4,100,,,,,,,,,,,,,,,,,,,,,,,,,,,,,,,,,,,,,,,,,,,,,,,,,,,,,,,,,,,,,,,,,,,,,,,,,,,,,,,,,,,,,,,,,,,,,,,,,,,,,,,,,,,,,,,,,,,,,,,,,,,,,,,,,,,,,,,,,,,,,,,,,,,,,,,,,,,,,,,,,,,,,,,,,,,,,,,,,,,,,,,,,,,,,,,,,,,,,,,,,,,,,,
1764666581.356238,62031,0,4370.256348,4375.641113,4487.179688,4496.153809,4363.717773,4497.820313,4530.256348,4369.358887,4560.769043,4375.384766,4484.743652,4516.794922,4556.538574,4393.333496,4384.230957,4493.589844,4530.384766,4516.025879,4502.179688,4385.769043,4388.589844,4567.820313,4493.461426,4490.128418,4393.974121,4570.128418,4369.615234,4546.025879,4497.05127,4391.153809,4508.205078,4480.384766,2513,1,18,2571,16057,,,,0,4,4,4,4,4,4,4,4,4,4,4,4,4,4,4,4,4,4,4,4,4,4,4,4,4,4,4,4,4,4,4,4,100,,,,,,,,,,,,,,,,,,,,,,,,,,,,,,,,,,,,,,,,,,,,,,,,,,,,,,,,,,,,,,,,,,,,,,,,,,,,,,,,,,,,,,,,,,,,,,,,,,,,,,,,,,,,,,,,,,,,,,,,,,,,,,,,,,,,,,,,,,,,,,,,,,,,,,,,,,,,,,,,,,,,,,,,,,,,,,,,,,,,,,,,,,,,,,,,,,,,,,,,,,,,,,
1764666581.360144,62032,1,4371.221191,4376.768066,4488.427734,4497.638184,4365.208984,4498.758301,4530.674805,4370.492676,4561.579102,4377.570801,4485.553223,4517.982422,4557.192871,4393.515625,4385.452148,4494.419922,4531.680176,4518.130859,4503.299805,4386.882813,4390.391602,4569.062012,4494.973145,4491.100098,4393.778809,4571.471191,4371.133789,4547.233398,4497.894531,4392.152344,4510.121582,4481.720703,0,1,18,0,0,,,,0,4,4,4,4,4,4,4,4,4,4,4,4,4,4,4,4,4,4,4,4,4,4,4,4,4,4,4,4,4,4,4,4,100,,,,,,,,,,,,,,,,,,,,,,,,,,,,,,,,,,,,,,,,,,,,,,,,,,,,,,,,,,,,,,,,,,,,,,,,,,,,,,,,,,,,,,,,,,,,,,,,,,,,,,,,,,,,,,,,,,,,,,,,,,,,,,,,,,,,,,,,,,,,,,,,,,,,,,,,,,,,,,,,,,,,,,,,,,,,,,,,,,,,,,,,,,,,,,,,,,,,,,,,,,,,,,
1764666581.364050,62033,1,4372.186035,4377.894531,4489.67627,4499.123047,4366.700195,4499.696289,4531.093262,4371.625977,4562.388672,4379.757324,4486.362793,4519.169922,4557.847656,4393.697754,4386.67334,4495.249512,4532.975586,4520.236328,4504.419922,4387.996094,4392.192871,4570.303711,4496.484375,4492.071289,4393.583008,4572.813965,4372.651855,4548.441406,4498.738281,4393.151367,4512.037598,4483.056641,0,1,18,0,0,,,,0,4,4,4,4,4,4,4,4,4,4,4,4,4,4,4,4,4,4,4,4,4,4,4,4,4,4,4,4,4,4,4,4,100,,,,,,,,,,,,,,,,,,,,,,,,,,,,,,,,,,,,,,,,,,,,,,,,,,,,,,,,,,,,,,,,,,,,,,,,,,,,,,,,,,,,,,,,,,,,,,,,,,,,,,,,,,,,,,,,,,,,,,,,,,,,,,,,,,,,,,,,,,,,,,,,,,,,,,,,,,,,,,,,,,,,,,,,,,,,,,,,,,,,,,,,,,,,,,,,,,,,,,,,,,,,,,
1764666581.367956,62034,1,4373.151367,4379.021484,4490.924316,4500.607422,4368.191406,4500.634277,4531.51123,4372.759766,4563.198242,4381.943359,4487.172852,4520.357422,4558.501953,4393.879883,4387.894531,4496.07959,4534.271484,4522.341309,4505.540039,4389.109375,4393.994629,4571.54541,4497.996094,4493.042969,4393.387207,4574.156738,4374.169922,4549.648926,4499.581543,4394.149902,4513.954102,4484.392578,0,1,18,0,0,,,,0,4,4,4,4,4,4,4,4,4,4,4,4,4,4,4,4,4,4,4,4,4,4,4,4,4,4,4,4,4,4,4,4,100,,,,,,,,,,,,,,,,,,,,,,,,,,,,,,,,,,,,,,,,,,,,,,,,,,,,,,,,,,,,,,,,,,,,,,,,,,,,,,,,,,,,,,,,,,,,,,,,,,,,,,,,,,,,,,,,,,,,,,,,,,,,,,,,,,,,,,,,,,,,,,,,,,,,,,,,,,,,,,,,,,,,,,,,,,,,,,,,,,,,,,,,,,,,,,,,,,,,,,,,,,,,,,
1764666581.371862,62035,1,4374.116211,4380.148438,4492.172852,4502.091797,4369.682617,4501.572266,4531.929688,4373.893555,4564.008301,4384.129395,4487.982422,4521.54541,4559.156738,4394.062012,4389.116211,4496.909668,4535.566895,4524.446777,4506.660156,4390.222656,4395.796387,4572.786621,4499.507324,4494.014648,4393.191406,4575.499512,4375.688477,4550.856934,4500.425293,4395.148438,4515.870605,4485.728516,0,1,18,0,0,,,,0,4,4,4,4,4,4,4,4,4,4,4,4,4,4,4,4,4,4,4,4,4,4,4,4,4,4,4,4,4,4,4,4,100,,,,,,,,,,,,,,,,,,,,,,,,,,,,,,,,,,,,,,,,,,,,,,,,,,,,,,,,,,,,,,,,,,,,,,,,,,,,,,,,,,,,,,,,,,,,,,,,,,,,,,,,,,,,,,,,,,,,,,,,,,,,,,,,,,,,,,,,,,,,,,,,,,,,,,,,,,,,,,,,,,,,,,,,,,,,,,,,,,,,,,,,,,,,,,,,,,,,,,,,,,,,,,
1764666581.375768,62036,1,4375.081055,4381.275391,4493.420898,4503.576172,4371.174316,4502.510254,4532.348145,4375.026855,4564.817871,4386.315918,4488.791992,4522.73291,4559.811035,4394.244141,4390.337402,4497.739746,4536.862305,4526.551758,4507.779785,4391.335938,4397.597656,4574.02832,4501.019043,4494.986328,4392.996094,4576.842285,4377.206543,4552.064941,4501.268555,4396.146973,4517.786621,4487.064941,0,1,18,0,0,,,,0,4,4,4,4,4,4,4,4,4,4,4,4,4,4,4,4,4,4,4,4,4,4,4,4,4,4,4,4,4,4,4,4,100,0.652344,58.333332,4,4,3,4,4,4,4,4,4,3,4,4,4,4,4,4,4,4,4,4,4,4,4,4,1,4,4,4,4,4,4,4,,,,,,,,,,,,,1.138198,2.060224,1.870361,0.646316,0.391872,1.47711,2.993404,2.334115,0.824372,0.600574,11.498507,5.939474,5.211684,3.143475,2.940423,1.727842,2.873691,1.97565,1.095562,0.685975,1.81398,4.132234,2.55531,1.688819,0.601709,1.277046,2.475602,2.075972,0.594567,0.386674,0.841863,2.058152,1.532735,0.791669,0.440779,0.979405,1.889188,1.488352,0.978146,0.59952,0.39451,1.909563,2.03503,0.539475,0.350303,1.76626,2.885734,3.289902,2.713528,1.320658,1.033429,1.704506,1.275119,0.521964,0.328962,0.784659,2.275247,1.574719,0.689705,0.391872,0.33084,2.558226,1.780933,0.669323,0.347664,0.79898,1.061502,0.893046,0.484711,0.240411,0.447214,2.21336,1.582155,0.588844,0.512559,0.288041,1.958211,1.696424,0.579733,0.474406,1.540214,3.11009,2.058762,1.022792,0.580306,0.924533,5.849594,3.839026,1.715636,0.901537,0.999265,3.789001,2.976918,1.037156,0.568961,0.595826,4.883154,2.638446,1.012932,0.670059,1.315566,4.243211,2.279543,1.472201,0.917436,1.031083,4.737141,3.288668,1.025763,0.683981,1.187852,3.134406,1.778123,0.771746,0.546508,1.476904,4.012954,2.746791,0.966262,0.64982,1.562371,2.385278,2.652436,4.0484,2.427684,1.097807,3.947996,2.406031,0.622503,0.385499,1.621616,4.91068,2.956966,0.922022,0.993886,1.677996,3.221176,2.371366,0.760332,0.617093,0.582183,1.442294,1.259005,0.370802,0.214996,1.73155,3.471874,2.476038,0.989622,0.564559,1.662786,5.482621,2.712382,1.025546,1.370127,7.007322,6.064099,3.448662,3.598466,1.839479
1764666581.379674,62037,1,4376.045898,4382.402344,4494.669434,4505.060547,4372.665527,4503.448242,4532.766602,4376.160645,4565.627441,4388.501953,4489.602051,4523.92041,4560.46582,4394.42627,4391.558594,4498.569336,4538.157715,4528.657227,4508.899902,4392.449219,4399.399414,4575.27002,4502.530273,4495.958008,4392.800293,4578.185059,4378.724609,4553.272461,4502.111816,4397.145508,4519.703125,4488.400879,0,1,18,0,0,,,,0,4,4,4,4,4,4,4,4,4,4,4,4,4,4,4,4,4,4,4,4,4,4,4,4,4,4,4,4,4,4,4,4,100,,,,,,,,,,,,,,,,,,,,,,,,,,,,,,,,,,,,,,,,,,,,,,,,,,,,,,,,,,,,,,,,,,,,,,,,,,,,,,,,,,,,,,,,,,,,,,,,,,,,,,,,,,,,,,,,,,,,,,,,,,,,,,,,,,,,,,,,,,,,,,,,,,,,,,,,,,,,,,,,,,,,,,,,,,,,,,,,,,,,,,,,,,,,,,,,,,,,,,,,,,,,,,
1764666581.383580,62038,1,4377.010742,4383.528809,4495.91748,4506.54541,4374.156738,4504.385742,4533.185059,4377.294434,4566.437012,4390.688477,4490.411621,4525.10791,4561.120117,4394.608398,4392.779785,4499.399414,4539.453613,4530.762695,4510.02002,4393.562988,4401.201172,4576.51123,4504.041992,4496.929688,4392.604492,4579.527832,4380.242676,4554.480469,4502.955566,4398.144531,4521.619629,4489.736816,0,1,18,0,0,,,,0,4,4,4,4,4,4,4,4,4,4,4,4,4,4,4,4,4,4,4,4,4,4,4,4,4,4,4,4,4,4,4,4,100,,,,,,,,,,,,,,,,,,,,,,,,,,,,,,,,,,,,,,,,,,,,,,,,,,,,,,,,,,,,,,,,,,,,,,,,,,,,,,,,,,,,,,,,,,,,,,,,,,,,,,,,,,,,,,,,,,,,,,,,,,,,,,,,,,,,,,,,,,,,,,,,,,,,,,,,,,,,,,,,,,,,,,,,,,,,,,,,,,,,,,,,,,,,,,,,,,,,,,,,,,,,,,
1764666581.387486,62039,1,4377.975586,4384.655762,4497.166016,4508.029785,4375.647949,4505.32373,4533.603027,4378.427734,4567.24707,4392.874512,4491.221191,4526.29541,4561.774414,4394.791016,4394.001465,4500.229492,4540.749023,4532.867676,4511.140137,4394.67627,4403.00293,4577.75293,4505.553223,4497.901367,4392.408691,4580.870605,4381.76123,4555.688477,4503.798828,4399.143066,4523.535645,4491.072754,0,1,18,0,0,,,,0,4,4,4,4,4,4,4,4,4,4,4,4,4,4,4,4,4,4,4,4,4,4,4,4,4,4,4,4,4,4,4,4,100,,,,,,,,,,,,,,,,,,,,,,,,,,,,,,,,,,,,,,,,,,,,,,,,,,,,,,,,,,,,,,,,,,,,,,,,,,,,,,,,,,,,,,,,,,,,,,,,,,,,,,,,,,,,,,,,,,,,,,,,,,,,,,,,,,,,,,,,,,,,,,,,,,,,,,,,,,,,,,,,,,,,,,,,,,,,,,,,,,,,,,,,,,,,,,,,,,,,,,,,,,,,,,
1764666581.391392,62040,1,4378.94043,4385.782715,4498.414063,4509.51416,4377.13916,4506.261719,4534.021484,4379.561523,4568.056641,4395.060547,4492.03125,4527.48291,4562.429199,4394.973145,4395.222656,4501.05957,4542.044434,4534.973145,4512.260254,4395.789551,4404.804199,4578.994629,4507.064941,4498.873047,4392.213379,4582.213379,4383.279297,4556.895996,4504.642578,4400.141602,4525.452148,4492.408691,0,1,18,0,0,,,,0,4,4,4,4,4,4,4,4,4,4,4,4,4,4,4,4,4,4,4,4,4,4,4,4,4,4,4,4,4,4,4,4,100,,,,,,,,,,,,,,,,,,,,,,,,,,,,,,,,,,,,,,,,,,,,,,,,,,,,,,,,,,,,,,,,,,,,,,,,,,,,,,,,,,,,,,,,,,,,,,,,,,,,,,,,,,,,,,,,,,,,,,,,,,,,,,,,,,,,,,,,,,,,,,,,,,,,,,,,,,,,,,,,,,,,,,,,,,,,,,,,,,,,,,,,,,,,,,,,,,,,,,,,,,,,,,
1764666581.395298,62041,1,4379.905762,4386.909668,4499.662598,4510.998535,4378.630371,4507.199707,4534.439941,4380.694824,4568.866211,4397.24707,4492.84082,4528.670898,4563.083496,4395.155273,4396.443848,4501.88916,4543.339844,4537.078125,4513.380371,4396.902832,4406.605957,4580.236328,4508.576172,4499.844727,4392.017578,4583.556152,4384.797363,4558.104004,4505.48584,4401.140137,4527.368652,4493.745117,0,1,18,0,0,,,,0,4,4,4,4,4,4,4,4,4,4,4,4,4,4,4,4,4,4,4,4,4,4,4,4,4,4,4,4,4,4,4,4,100,,,,,,,,,,,,,,,,,,,,,,,,,,,,,,,,,,,,,,,,,,,,,,,,,,,,,,,,,,,,,,,,,,,,,,,,,,,,,,,,,,,,,,,,,,,,,,,,,,,,,,,,,,,,,,,,,,,,,,,,,,,,,,,,,,,,,,,,,,,,,,,,,,,,,,,,,,,,,,,,,,,,,,,,,,,,,,,,,,,,,,,,,,,,,,,,,,,,,,,,,,,,,,
1764666581.399204,62042,1,4380.870605,4388.036621,4500.911133,4512.48291,4380.121582,4508.137695,4534.858398,4381.828613,4569.67627,4399.433105,4493.650391,4529.858398,4563.738281,4395.337402,4397.665527,4502.719238,4544.635742,4539.183594,4514.500488,4398.016113,4408.407715,4581.477539,4510.087891,4500.816406,4391.821777,4584.898926,4386.315918,4559.311523,4506.329102,4402.13916,4529.284668,4495.081055,0,1,18,0,0,,,,0,4,4,4,4,4,4,4,4,4,4,4,4,4,4,4,4,4,4,4,4,4,4,4,4,4,4,4,4,4,4,4,4,100,,,,,,,,,,,,,,,,,,,,,,,,,,,,,,,,,,,,,,,,,,,,,,,,,,,,,,,,,,,,,,,,,,,,,,,,,,,,,,,,,,,,,,,,,,,,,,,,,,,,,,,,,,,,,,,,,,,,,,,,,,,,,,,,,,,,,,,,,,,,,,,,,,,,,,,,,,,,,,,,,,,,,,,,,,,,,,,,,,,,,,,,,,,,,,,,,,,,,,,,,,,,,,
1764666581.403110,62043,1,4381.835449,4389.163086,4502.15918,4513.967773,4381.612793,4509.075684,4535.276855,4382.962402,4570.48584,4401.619629,4494.459961,4531.045898,4564.392578,4395.519531,4398.886719,4503.549316,4545.931152,4541.288574,4515.620605,4399.129395,4410.208984,4582.719238,4511.599121,4501.788086,4391.625977,4586.241699,4387.833984,4560.519531,4507.172852,4403.137695,4531.201172,4496.416992,0,1,18,0,0,,,,0,4,4,4,4,4,4,4,4,4,4,4,4,4,4,4,4,4,4,4,4,4,4,4,4,4,4,4,4,4,4,4,4,100,,,,,,,,,,,,,,,,,,,,,,,,,,,,,,,,,,,,,,,,,,,,,,,,,,,,,,,,,,,,,,,,,,,,,,,,,,,,,,,,,,,,,,,,,,,,,,,,,,,,,,,,,,,,,,,,,,,,,,,,,,,,,,,,,,,,,,,,,,,,,,,,,,,,,,,,,,,,,,,,,,,,,,,,,,,,,,,,,,,,,,,,,,,,,,,,,,,,,,,,,,,,,,
1764666581.407016,62044,1,4382.800293,4390.290039,4503.407715,4515.452148,4383.104004,4510.013672,4535.694824,4384.095703,4571.29541,4403.805664,4495.27002,4532.233398,4565.047363,4395.70166,4400.10791,4504.379395,4547.226563,4543.394043,4516.740723,4400.242676,4412.010742,4583.960938,4513.11084,4502.759766,4391.430664,4587.584473,4389.352051,4561.727539,4508.016113,4404.13623,4533.117188,4497.75293,0,1,18,0,0,,,,0,4,4,4,4,4,4,4,4,4,4,4,4,4,4,4,4,4,4,4,4,4,4,4,4,4,4,4,4,4,4,4,4,100,,,,,,,,,,,,,,,,,,,,,,,,,,,,,,,,,,,,,,,,,,,,,,,,,,,,,,,,,,,,,,,,,,,,,,,,,,,,,,,,,,,,,,,,,,,,,,,,,,,,,,,,,,,,,,,,,,,,,,,,,,,,,,,,,,,,,,,,,,,,,,,,,,,,,,,,,,,,,,,,,,,,,,,,,,,,,,,,,,,,,,,,,,,,,,,,,,,,,,,,,,,,,,
1764666581.410922,62045,1,4383.765137,4391.416992,4504.655762,4516.936523,4384.595215,4510.95166,4536.113281,4385.229492,4572.105469,4405.991699,4496.07959,4533.420898,4565.70166,4395.883789,4401.329102,4505.208984,4548.522461,4545.499512,4517.86084,4401.356445,4413.8125,4585.202637,4514.62207,4503.731445,4391.234863,4588.927246,4390.870605,4562.935059,4508.859863,4405.134766,4535.033691,4499.088867,0,1,18,0,0,,,,0,4,4,4,4,4,4,4,4,4,4,4,4,4,4,4,4,4,4,4,4,4,4,4,4,4,4,4,4,4,4,4,4,100,,,,,,,,,,,,,,,,,,,,,,,,,,,,,,,,,,,,,,,,,,,,,,,,,,,,,,,,,,,,,,,,,,,,,,,,,,,,,,,,,,,,,,,,,,,,,,,,,,,,,,,,,,,,,,,,,,,,,,,,,,,,,,,,,,,,,,,,,,,,,,,,,,,,,,,,,,,,,,,,,,,,,,,,,,,,,,,,,,,,,,,,,,,,,,,,,,,,,,,,,,,,,,
1764666581.414828,62046,1,4384.72998,4392.543945,4505.904297,4518.420898,4386.086426,4511.88916,4536.531738,4386.362793,4572.915039,4408.178223,4496.88916,4534.608398,4566.356445,4396.065918,4402.550781,4506.039063,4549.817871,4547.604492,4518.980957,4402.469727,4415.614258,4586.443848,4516.133789,4504.703125,4391.039063,4590.27002,4392.388672,4564.143066,4509.703125,4406.133789,4536.950195,4500.425293,0,1,18,0,0,,,,0,4,4,4,4,4,4,4,4,4,4,4,4,4,4,4,4,4,4,4,4,4,4,4,4,4,4,4,4,4,4,4,4,100,,,,,,,,,,,,,,,,,,,,,,,,,,,,,,,,,,,,,,,,,,,,,,,,,,,,,,,,,,,,,,,,,,,,,,,,,,,,,,,,,,,,,,,,,,,,,,,,,,,,,,,,,,,,,,,,,,,,,,,,,,,,,,,,,,,,,,,,,,,,,,,,,,,,,,,,,,,,,,,,,,,,,,,,,,,,,,,,,,,,,,,,,,,,,,,,,,,,,,,,,,,,,,
1764666581.418734,62047,1,4385.694824,4393.670898,4507.152344,4519.905762,4387.577637,4512.827148,4536.950195,4387.496582,4573.724609,4410.364258,4497.699219,4535.796387,4567.010742,4396.248535,4403.771973,4506.869141,4551.113281,4549.709961,4520.101074,4403.583008,4417.415527,4587.685547,4517.64502,4505.674805,4390.843262,4591.612793,4393.906738,4565.351074,4510.546387,4407.132324,4538.866211,4501.76123,0,1,18,0,0,,,,0,4,4,4,4,4,4,4,4,4,4,4,4,4,4,4,4,4,4,4,4,4,4,4,4,4,4,4,4,4,4,4,4,100,,,,,,,,,,,,,,,,,,,,,,,,,,,,,,,,,,,,,,,,,,,,,,,,,,,,,,,,,,,,,,,,,,,,,,,,,,,,,,,,,,,,,,,,,,,,,,,,,,,,,,,,,,,,,,,,,,,,,,,,,,,,,,,,,,,,,,,,,,,,,,,,,,,,,,,,,,,,,,,,,,,,,,,,,,,,,,,,,,,,,,,,,,,,,,,,,,,,,,,,,,,,,,
1764666581.422640,62048,1,4386.660156,4394.797363,4508.400879,4521.390137,4389.068848,4513.765137,4537.368652,4388.630371,4574.53418,4412.550781,4498.508789,4536.983887,4567.665527,4396.430664,4404.993164,4507.699219,4552.408691,4551.814941,4521.221191,4404.696289,4419.217285,4588.927246,4519.156738,4506.646484,4390.647949,4592.955566,4395.425293,4566.558594,4511.390137,4408.130859,4540.782715,4503.097168,0,1,18,0,0,,,,0,4,4,4,4,4,4,4,4,4,4,4,4,4,4,4,4,4,4,4,4,4,4,4,4,4,4,4,4,4,4,4,4,100,,,,,,,,,,,,,,,,,,,,,,,,,,,,,,,,,,,,,,,,,,,,,,,,,,,,,,,,,,,,,,,,,,,,,,,,,,,,,,,,,,,,,,,,,,,,,,,,,,,,,,,,,,,,,,,,,,,,,,,,,,,,,,,,,,,,,,,,,,,,,,,,,,,,,,,,,,,,,,,,,,,,,,,,,,,,,,,,,,,,,,,,,,,,,,,,,,,,,,,,,,,,,,
1764666581.426546,62049,1,4387.625,4395.924316,4509.648926,4522.874512,4390.560059,4514.703125,4537.786621,4389.763672,4575.344238,4414.736816,4499.318359,4538.171387,4568.319824,4396.612793,4406.214355,4508.528809,4553.70459,4553.92041,4522.341309,4405.80957,4421.019043,4590.168457,4520.667969,4507.618164,4390.452148,4594.29834,4396.943359,4567.766602,4512.233398,4409.129395,4542.699219,4504.433105,0,1,18,0,0,,,,0,4,4,4,4,4,4,4,4,4,4,4,4,4,4,4,4,4,4,4,4,4,4,4,4,4,4,4,4,4,4,4,4,100,,,,,,,,,,,,,,,,,,,,,,,,,,,,,,,,,,,,,,,,,,,,,,,,,,,,,,,,,,,,,,,,,,,,,,,,,,,,,,,,,,,,,,,,,,,,,,,,,,,,,,,,,,,,,,,,,,,,,,,,,,,,,,,,,,,,,,,,,,,,,,,,,,,,,,,,,,,,,,,,,,,,,,,,,,,,,,,,,,,,,,,,,,,,,,,,,,,,,,,,,,,,,,
1764666581.430452,62050,0,4388.589844,4397.05127,4510.897461,4524.358887,4392.05127,4515.641113,4538.205078,4390.897461,4576.153809,4416.922852,4500.128418,4539.358887,4568.974121,4396.794922,4407.436035,4509.358887,4555,4556.025879,4523.461426,4406.922852,4422.820313,4591.410156,4522.179688,4508.589844,4390.256348,4595.641113,4398.461426,4568.974121,4513.077148,4410.128418,4544.615234,4505.769043,2634,1,18,2576,16135,,,,0,4,4,4,4,4,4,4,4,4,4,4,4,4,4,4,4,4,4,4,4,4,4,4,4,4,4,4,4,4,4,4,4,100,,,,,,,,,,,,,,,,,,,,,,,,,,,,,,,,,,,,,,,,,,,,,,,,,,,,,,,,,,,,,,,,,,,,,,,,,,,,,,,,,,,,,,,,,,,,,,,,,,,,,,,,,,,,,,,,,,,,,,,,,,,,,,,,,,,,,,,,,,,,,,,,,,,,,,,,,,,,,,,,,,,,,,,,,,,,,,,,,,,,,,,,,,,,,,,,,,,,,,,,,,,,,,
1764666581.434358,62051,0,4385.769043,4394.743652,4512.563965,4520.897461,4395.256348,4510.512695,4537.179688,4381.794922,4573.333496,4416.922852,4496.538574,4534.615234,4565.128418,4393.461426,4406.666504,4512.05127,4557.563965,4555.384766,4524.871582,4407.179688,4419.358887,4590.897461,4521.025879,4508.717773,4397.179688,4596.282227,4398.974121,4565.384766,4509.871582,4407.307617,4545.512695,4505.512695,2848,1,18,2576,16135,,,,0,4,4,4,4,4,4,4,4,4,4,4,4,4,4,4,4,4,4,4,4,4,4,4,4,4,4,4,4,4,4,4,4,100,,,,,,,,,,,,,,,,,,,,,,,,,,,,,,,,,,,,,,,,,,,,,,,,,,,,,,,,,,,,,,,,,,,,,,,,,,,,,,,,,,,,,,,,,,,,,,,,,,,,,,,,,,,,,,,,,,,,,,,,,,,,,,,,,,,,,,,,,,,,,,,,,,,,,,,,,,,,,,,,,,,,,,,,,,,,,,,,,,,,,,,,,,,,,,,,,,,,,,,,,,,,,,
1764666581.438264,62052,0,4385.128418,4393.974121,4509.871582,4518.846191,4399.487305,4505.769043,4537.05127,4378.974121,4570.128418,4406.666504,4491.666504,4528.589844,4559.743652,4387.179688,4398.717773,4507.05127,4555.384766,4546.410156,4523.717773,4404.487305,4416.153809,4589.871582,4516.922852,4510.384766,4414.871582,4597.94873,4396.794922,4562.179688,4506.794922,4404.743652,4541.153809,4504.358887,2746,1,18,2576,16143,,,,0,4,4,4,4,4,4,4,4,4,4,4,4,4,4,4,4,4,4,4,4,4,4,4,4,4,4,4,4,4,4,4,4,100,,,,,,,,,,,,,,,,,,,,,,,,,,,,,,,,,,,,,,,,,,,,,,,,,,,,,,,,,,,,,,,,,,,,,,,,,,,,,,,,,,,,,,,,,,,,,,,,,,,,,,,,,,,,,,,,,,,,,,,,,,,,,,,,,,,,,,,,,,,,,,,,,,,,,,,,,,,,,,,,,,,,,,,,,,,,,,,,,,,,,,,,,,,,,,,,,,,,,,,,,,,,,,
1764666581.442170,62053,0,4386.153809,4394.230957,4502.436035,4517.436035,4404.230957,4503.461426,4537.307617,4383.333496,4566.922852,4389.871582,4487.820313,4522.94873,4555.641113,4381.410156,4387.179688,4496.666504,4548.846191,4533.461426,4520.512695,4399.358887,4413.333496,4588.077148,4512.179688,4511.666504,4429.487305,4600.128418,4392.563965,4559.615234,4505,4403.077148,4534.358887,4501.538574,2794,1,18,2576,16143,,,,0,4,4,4,4,4,4,4,4,4,4,4,4,4,4,4,4,4,4,4,4,4,4,4,4,4,4,4,4,4,4,4,4,100,,,,,,,,,,,,,,,,,,,,,,,,,,,,,,,,,,,48281,0,0.539618,-0.421448,-0.285767,0.670471,0.970822,-0.2471,0.060554,4.833333,43.666668,-21.166666,,,,,,,,,,,,,,,,,,,,,,,,,,,,,,,,,,,,,,,,,,,,,,,,,,,,,,,,,,,,,,,,,,,,,,,,,,,,,,,,,,,,,,,,,,,,,,,,,,,,,,,,,,,,,,,,,,,,,,,,,,,,,,,,,,,,,,,,,,,,,,,,,,,,,,,,,,,,,,,,
1764666581.446076,62054,0,4388.077148,4394.487305,4493.461426,4515.769043,4408.846191,4504.487305,4537.307617,4390.384766,4564.871582,4374.358887,4486.153809,4519.102539,4555.769043,4379.487305,4378.717773,4488.077148,4541.794922,4525.256348,4517.436035,4393.974121,4409.615234,4586.282227,4510,4511.538574,4428.974121,4601.282227,4388.717773,4557.692383,4505.769043,4403.461426,4527.94873,4497.692383,2810,1,18,2576,16151,,,,0,4,4,4,4,4,4,4,4,4,4,4,4,4,4,4,4,4,4,4,4,4,4,4,4,4,4,4,4,4,4,4,4,100,,,,,,,,,,,,,,,,,,,,,,,,,,,,,,,,,,,,,,,,,,,,,,,,,,,,,,,,,,,,,,,,,,,,,,,,,,,,,,,,,,,,,,,,,,,,,,,,,,,,,,,,,,,,,,,,,,,,,,,,,,,,,,,,,,,,,,,,,,,,,,,,,,,,,,,,,,,,,,,,,,,,,,,,,,,,,,,,,,,,,,,,,,,,,,,,,,,,,,,,,,,,,,
1764666581.449982,62055,0,4390.512695,4395.256348,4488.205078,4515.128418,4412.563965,4507.820313,4537.307617,4394.743652,4565,4367.307617,4486.410156,4518.333496,4561.025879,4382.94873,4378.846191,4487.563965,4538.717773,4527.307617,4516.410156,4391.538574,4405,4585.769043,4511.538574,4510.384766,4413.589844,4600,4388.461426,4556.666504,4508.717773,4406.153809,4523.461426,4495.128418,2986,1,18,2576,16151,,,,0,4,4,4,4,4,4,4,4,4,4,4,4,4,4,4,4,4,4,4,4,4,4,4,4,4,4,4,4,4,4,4,4,100,,,,,,,,,,,,,,,,,,,,,,,,,,,,,,,,,,,,,,,,,,,,,,,,,,,,,,,,,,,,,,,,,,,,,,,,,,,,,,,,,,,,,,,,,,,,,,,,,,,,,,,,,,,,,,,,,,,,,,,,,,,,,,,,,,,,,,,,,,,,,,,,,,,,,,,,,,,,,,,,,,,,,,,,,,,,,,,,,,,,,,,,,,,,,,,,,,,,,,,,,,,,,,
1764666581.453888,62056,0,4392.692383,4396.794922,4490.384766,4517.820313,4414.487305,4511.410156,4537.692383,4394.615234,4567.436035,4371.025879,4487.563965,4520.769043,4568.846191,4389.358887,4386.794922,4495.256348,4541.538574,4537.179688,4516.922852,4393.333496,4400.512695,4586.282227,4515.256348,4509.102539,4395.512695,4596.282227,4392.563965,4556.794922,4512.563965,4408.974121,4521.025879,4496.025879,2893,1,18,2576,16159,,,,0,4,4,4,4,4,4,4,4,4,4,4,4,4,4,4,4,4,4,4,4,4,4,4,4,4,4,4,4,4,4,4,4,100,,,,,,,,,,,,,,,,,,,,,,,,,,,,,,,,,,,,,,,,,,,,,,,,,,,,,,,,,,,,,,,,,,,,,,,,,,,,,,,,,,,,,,,,,,,,,,,,,,,,,,,,,,,,,,,,,,,,,,,,,,,,,,,,,,,,,,,,,,,,,,,,,,,,,,,,,,,,,,,,,,,,,,,,,,,,,,,,,,,,,,,,,,,,,,,,,,,,,,,,,,,,,,
1764666581.457794,62057,0,4394.230957,4398.589844,4499.487305,4524.487305,4413.589844,4512.692383,4537.94873,4392.05127,4570.512695,4382.692383,4488.589844,4525.512695,4574.487305,4394.230957,4396.538574,4505,4547.820313,4546.282227,4516.794922,4397.436035,4397.94873,4585.769043,4518.333496,4508.333496,4387.820313,4591.666504,4398.205078,4558.461426,4515.256348,4410,4521.025879,4500.256348,2722,1,18,2576,16159,,,,0,4,4,4,4,4,4,4,4,4,4,4,4,4,4,4,4,4,4,4,4,4,4,4,4,4,4,4,4,4,4,4,4,100,,,,,,,,,,,,,,,,,,,,,,,,,,,,,,,,,,,48282,0,0.539622,-0.421387,-0.285706,0.670532,0.961055,-0.251496,0.079111,4.833333,42.5,-20,,,,,,,,,,,,,,,,,,,,,,,,,,,,,,,,,,,,,,,,,,,,,,,,,,,,,,,,,,,,,,,,,,,,,,,,,,,,,,,,,,,,,,,,,,,,,,,,,,,,,,,,,,,,,,,,,,,,,,,,,,,,,,,,,,,,,,,,,,,,,,,,,,,,,,,,,,,,,,,,
1764666581.461700,62058,0,4394.743652,4399.230957,4509.743652,4531.410156,4408.717773,4510.769043,4537.563965,4390.512695,4572.820313,4395.769043,4488.461426,4530.641113,4575,4395,4401.410156,4509.615234,4552.820313,4547.692383,4515.128418,4400.256348,4399.102539,4582.563965,4518.846191,4507.563965,4394.615234,4588.589844,4401.153809,4561.282227,4515.897461,4409.358887,4523.974121,4505.641113,1472,1,18,2576,16167,,,,0,4,4,4,4,4,4,4,4,4,4,4,4,4,4,4,4,4,4,4,4,4,4,4,4,4,4,4,4,4,4,4,4,100,,,,,,,,,,,,,,,,,,,,,,,,,,,,,,,,,,,,,,,,,,,,,,,,,,,,,,,,,,,,,,,,,,,,,,,,,,,,,,,,,,,,,,,,,,,,,,,,,,,,,,,,,,,,,,,,,,,,,,,,,,,,,,,,,,,,,,,,,,,,,,,,,,,,,,,,,,,,,,,,,,,,,,,,,,,,,,,,,,,,,,,,,,,,,,,,,,,,,,,,,,,,,,
1764666581.465606,62059,0,4394.358887,4397.820313,4513.846191,4533.077148,4401.282227,4506.794922,4536.153809,4391.153809,4573.205078,4402.94873,4487.307617,4533.846191,4571.410156,4391.794922,4399.102539,4505.897461,4553.846191,4541.794922,4514.358887,4400.128418,4404.358887,4576.922852,4517.692383,4506.410156,4408.846191,4588.589844,4399.743652,4563.846191,4515,4409.358887,4529.615234,4508.717773,2724,1,18,2576,16167,,,,0,4,4,4,4,4,4,4,4,4,4,4,4,4,4,4,4,4,4,4,4,4,4,4,4,4,4,4,4,4,4,4,4,100,,,,,,,,,,,,,,,,,,,,,,,,,,,,,,,,,,,,,,,,,,,,,,,,,,,,,,,,,,,,,,,,,,,,,,,,,,,,,,,,,,,,,,,,,,,,,,,,,,,,,,,,,,,,,,,,,,,,,,,,,,,,,,,,,,,,,,,,,,,,,,,,,,,,,,,,,,,,,,,,,,,,,,,,,,,,,,,,,,,,,,,,,,,,,,,,,,,,,,,,,,,,,,
1764666581.469512,62060,0,4393.846191,4395.641113,4508.205078,4526.794922,4394.230957,4504.102539,4535.384766,4393.077148,4572.307617,4400.769043,4486.025879,4534.487305,4568.333496,4387.94873,4392.820313,4497.436035,4551.922852,4535.512695,4517.179688,4398.461426,4411.282227,4571.538574,4517.563965,4505.384766,4419.358887,4591.922852,4396.025879,4565.512695,4513.846191,4411.282227,4536.282227,4507.94873,2528,1,18,2574,16174,,,,0,4,4,4,4,4,4,4,4,4,4,4,4,4,4,4,4,4,4,4,4,4,4,4,4,4,4,4,4,4,4,4,4,100,,,,,,,,,,,,,,,,,,,,,,,,,,,,,,,,,,,,,,,,,,,,,,,,,,,,,,,,,,,,,,,,,,,,,,,,,,,,,,,,,,,,,,,,,,,,,,,,,,,,,,,,,,,,,,,,,,,,,,,,,,,,,,,,,,,,,,,,,,,,,,,,,,,,,,,,,,,,,,,,,,,,,,,,,,,,,,,,,,,,,,,,,,,,,,,,,,,,,,,,,,,,,,
1764666581.473418,62061,0,4394.230957,4395.769043,4496.794922,4516.666504,4391.410156,4505.897461,4536.794922,4395.384766,4571.922852,4392.05127,4486.282227,4533.846191,4569.358887,4387.179688,4388.205078,4491.410156,4550.769043,4535.641113,4522.563965,4397.820313,4415.512695,4570.769043,4520.897461,4505.641113,4419.358887,4597.307617,4393.974121,4566.538574,4513.461426,4414.615234,4540.769043,4503.846191,2325,1,18,2574,16174,,,,0,4,4,4,4,4,4,4,4,4,4,4,4,4,4,4,4,4,4,4,4,4,4,4,4,4,4,4,4,4,4,4,4,100,,,,,,,,,,,,,,,,,,,,,,,,,,,,,,,,,,,48283,0,0.539683,-0.421448,-0.285645,0.670471,0.961055,-0.251496,0.079111,4,41.833332,-20.833334,,,,,,,,,,,,,,,,,,,,,,,,,,,,,,,,,,,,,,,,,,,,,,,,,,,,,,,,,,,,,,,,,,,,,,,,,,,,,,,,,,,,,,,,,,,,,,,,,,,,,,,,,,,,,,,,,,,,,,,,,,,,,,,,,,,,,,,,,,,,,,,,,,,,,,,,,,,,,,,,
1764666581.477324,62062,0,4396.282227,4399.871582,4488.717773,4511.410156,4394.487305,4512.179688,4541.153809,4398.589844,4573.974121,4385.128418,4488.846191,4534.230957,4575.256348,4390.769043,4389.615234,4493.077148,4553.205078,4543.205078,4526.922852,4400.256348,4415.128418,4576.538574,4527.94873,4508.717773,4411.922852,4602.692383,4396.410156,4568.205078,4514.615234,4417.692383,4542.05127,4499.743652,2718,1,18,2575,16182,,,,0,4,4,4,4,4,4,4,4,4,4,4,4,4,4,4,4,4,4,4,4,4,4,4,4,4,4,4,4,4,4,4,4,100,,,,,,,,,,,,,,,,,,,,,,,,,,,,,,,,,,,,,,,,,,,,,,,,,,,,,,,,,,,,,,,,,,,,,,,,,,,,,,,,,,,,,,,,,,,,,,,,,,,,,,,,,,,,,,,,,,,,,,,,,,,,,,,,,,,,,,,,,,,,,,,,,,,,,,,,,,,,,,,,,,,,,,,,,,,,,,,,,,,,,,,,,,,,,,,,,,,,,,,,,,,,,,
1764666581.481230,62063,0,4399.487305,4406.794922,4491.153809,4517.307617,4401.922852,4519.871582,4547.307617,4403.205078,4578.589844,4386.922852,4493.333496,4536.538574,4582.436035,4395.897461,4395.512695,4501.025879,4558.974121,4553.333496,4526.922852,4405.256348,4411.666504,4586.282227,4535.769043,4514.615234,4407.563965,4606.794922,4402.820313,4570.897461,4517.179688,4419.102539,4541.153809,4499.102539,2515,1,18,2575,16182,,,,0,4,4,4,4,4,4,4,4,4,4,4,4,4,4,4,4,4,4,4,4,4,4,4,4,4,4,4,4,4,4,4,4,100,,,,,,,,,,,,,,,,,,,,,,,,,,,,,,,,,,,,,,,,,,,,,,,,,,,,,,,,,,,,,,,,,,,,,,,,,,,,,,,,,,,,,,,,,,,,,,,,,,,,,,,,,,,,,,,,,,,,,,,,,,,,,,,,,,,,,,,,,,,,,,,,,,,,,,,,,,,,,,,,,,,,,,,,,,,,,,,,,,,,,,,,,,,,,,,,,,,,,,,,,,,,,,
1764666581.485136,62064,0,4401.794922,4412.563965,4502.563965,4531.794922,4409.102539,4524.743652,4552.563965,4408.077148,4584.615234,4398.077148,4498.333496,4539.487305,4586.538574,4398.717773,4401.282227,4509.487305,4564.487305,4559.615234,4522.820313,4410.641113,4409.358887,4594.102539,4540,4520.512695,4415.641113,4608.461426,4409.102539,4572.94873,4519.615234,4417.563965,4540.641113,4502.563965,2881,1,18,2576,16190,,,,0,4,4,4,4,4,4,4,4,4,4,4,4,4,4,4,4,4,4,4,4,4,4,4,4,4,4,4,4,4,4,4,4,100,,,,,,,,,,,,,,,,,,,,,,,,,,,,,,,,,,,,,,,,,,,,,,,,,,,,,,,,,,,,,,,,,,,,,,,,,,,,,,,,,,,,,,,,,,,,,,,,,,,,,,,,,,,,,,,,,,,,,,,,,,,,,,,,,,,,,,,,,,,,,,,,,,,,,,,,,,,,,,,,,,,,,,,,,,,,,,,,,,,,,,,,,,,,,,,,,,,,,,,,,,,,,,
1764666581.489042,62065,0,4400.512695,4413.205078,4513.589844,4544.743652,4411.153809,4524.230957,4554.102539,4410,4588.717773,4411.922852,4501.794922,4540.769043,4585.384766,4397.05127,4402.94873,4513.333496,4565.897461,4559.487305,4517.307617,4414.102539,4410.769043,4595.128418,4537.692383,4521.922852,4433.717773,4607.563965,4410.384766,4571.794922,4519.871582,4412.94873,4541.666504,4507.179688,2915,1,18,2576,16190,,,,0,4,4,4,4,4,4,4,4,4,4,4,4,4,4,4,4,4,4,4,4,4,4,4,4,4,4,4,4,4,4,4,4,100,,,,,,,,,,,,,,,,,,,,,,,,,,,,,,,,,,,48284,0,0.539691,-0.421326,-0.285522,0.670593,0.966427,-0.254426,0.067391,4.333333,43,-19.5,,,,,,,,,,,,,,,,,,,,,,,,,,,,,,,,,,,,,,,,,,,,,,,,,,,,,,,,,,,,,,,,,,,,,,,,,,,,,,,,,,,,,,,,,,,,,,,,,,,,,,,,,,,,,,,,,,,,,,,,,,,,,,,,,,,,,,,,,,,,,,,,,,,,,,,,,,,,,,,,
1764666581.492948,62066,0,4394.487305,4407.307617,4514.358887,4545.769043,4405.897461,4518.717773,4550.641113,4406.666504,4587.692383,4419.230957,4501.666504,4538.205078,4579.743652,4391.794922,4400.384766,4511.538574,4561.025879,4554.102539,4512.94873,4413.333496,4414.487305,4588.205078,4528.974121,4515.897461,4447.436035,4603.333496,4404.615234,4566.666504,4516.538574,4406.282227,4541.922852,4508.333496,1763,1,18,2576,16198,,,,0,4,4,4,4,4,4,4,4,4,4,4,4,4,4,4,4,4,4,4,4,4,4,4,4,4,4,4,4,4,4,4,4,100,,,,,,,,,,,,,,,,,,,,,,,,,,,,,,,,,,,,,,,,,,,,,,,,,,,,,,,,,,,,,,,,,,,,,,,,,,,,,,,,,,,,,,,,,,,,,,,,,,,,,,,,,,,,,,,,,,,,,,,,,,,,,,,,,,,,,,,,,,,,,,,,,,,,,,,,,,,,,,,,,,,,,,,,,,,,,,,,,,,,,,,,,,,,,,,,,,,,,,,,,,,,,,
1764666581.496854,62067,0,4385.384766,4396.794922,4503.077148,4533.077148,4395,4510.897461,4543.333496,4398.717773,4581.282227,4413.589844,4497.436035,4531.666504,4572.05127,4385.897461,4396.282227,4506.153809,4551.666504,4545.897461,4510.384766,4407.820313,4416.153809,4576.538574,4517.692383,4503.974121,4442.436035,4596.025879,4394.102539,4559.230957,4510.897461,4400,4538.333496,4502.94873,2828,1,18,2576,16198,,,,0,4,4,4,4,4,4,4,4,4,4,4,4,4,4,4,4,4,4,4,4,4,4,4,4,4,4,4,4,4,4,4,4,100,,,,,,,,,,,,,,,,,,,,,,,,,,,,,,,,,,,,,,,,,,,,,,,,,,,,,,,,,,,,,,,,,,,,,,,,,,,,,,,,,,,,,,,,,,,,,,,,,,,,,,,,,,,,,,,,,,,,,,,,,,,,,,,,,,,,,,,,,,,,,,,,,,,,,,,,,,,,,,,,,,,,,,,,,,,,,,,,,,,,,,,,,,,,,,,,,,,,,,,,,,,,,,
1764666581.500760,62068,0,4377.179688,4385.897461,4487.563965,4513.974121,4382.820313,4503.717773,4535.256348,4389.743652,4572.307617,4396.282227,4490.897461,4522.563965,4564.487305,4381.538574,4392.307617,4499.743652,4541.282227,4536.282227,4507.820313,4399.102539,4412.563965,4565.128418,4508.461426,4491.666504,4417.307617,4587.307617,4383.974121,4552.436035,4505.512695,4395.512695,4530,4492.820313,2550,1,18,2576,16206,,,,0,4,4,4,4,4,4,4,4,4,4,4,4,4,4,4,4,4,4,4,4,4,4,4,4,4,4,4,4,4,4,4,4,100,,,,,,,,,,,,,,,,,,,,,,,,,,,,,,,,,,,,,,,,,,,,,,,1.348497,2.377358,2.266212,0.716625,0.450522,1.827824,3.703546,2.830955,0.901184,0.670516,9.537935,6.207881,6.28106,3.485773,3.526412,1.544606,3.196983,2.411644,1.317513,0.787826,1.928383,4.30587,2.696182,2.081783,0.7348,1.429778,3.144352,2.446529,0.708639,0.424458,1.055115,2.524942,1.909,0.908074,0.506784,1.030676,2.231969,1.737342,1.230192,0.687062,0.497738,2.164519,2.492556,0.555089,0.426682,1.410049,2.727509,3.831609,3.351899,1.412615,1.045632,1.906258,1.581708,0.627949,0.348677,0.978964,2.695452,1.842291,0.715982,0.421093,0.408754,3.076516,2.124735,0.730162,0.398037,0.919571,1.133798,1.101064,0.550188,0.262071,0.42484,2.396696,1.914355,0.636088,0.575108,0.304727,2.166622,2.056966,0.664119,0.552906,1.784381,3.559953,2.354762,1.123055,0.652413,0.843253,6.562393,4.284389,1.762063,1.061274,0.887847,4.184179,3.269403,1.026553,0.694467,0.611703,5.373043,3.025887,1.117384,0.763771,1.344679,4.577638,2.634509,1.666637,1.005271,1.149584,5.194006,3.745866,1.122298,0.771237,1.400898,3.415082,2.01905,0.819004,0.638068,1.526406,4.490938,3.227751,1.021277,0.73228,1.715212,2.39421,2.931468,4.881274,2.892417,1.19543,4.550728,2.889132,0.711801,0.443021,1.666526,5.203884,3.265476,0.869868,1.148914,1.883223,3.719209,2.732037,0.809667,0.679241,0.690811,1.678357,1.451689,0.376599,0.235612,1.808376,3.829107,2.88971,1.159895,0.650927,1.645458,5.782037,3.077634,1.069335,1.583108,5.615004,5.5372,4.104556,4.488386,2.014871
1764666581.504666,62069,0,4373.717773,4378.717773,4478.974121,4500.256348,4374.615234,4499.487305,4529.615234,4383.846191,4565.128418,4375.897461,4485.512695,4514.487305,4558.974121,4380.128418,4388.717773,4494.102539,4533.589844,4527.05127,4504.102539,4390.512695,4404.871582,4558.333496,4505.512695,4485,4386.153809,4580.897461,4378.717773,4548.717773,4502.307617,4394.102539,4520.128418,4484.615234,2833,1,18,2576,16206,,,,0,4,4,4,4,4,4,4,4,4,4,4,4,4,4,4,4,4,4,4,4,4,4,4,4,4,4,4,4,4,4,4,4,100,,,,,,,,,,,,,,,,,,,,,,,,,,,,,,,,,,,48285,0,0.539667,-0.421509,-0.285583,0.670471,0.966427,-0.263216,0.084483,4.333333,43,-19.5,,,,,,,,,,,,,,,,,,,,,,,,,,,,,,,,,,,,,,,,,,,,,,,,,,,,,,,,,,,,,,,,,,,,,,,,,,,,,,,,,,,,,,,,,,,,,,,,,,,,,,,,,,,,,,,,,,,,,,,,,,,,,,,,,,,,,,,,,,,,,,,,,,,,,,,,,,,,,,,,
1764666581.508572,62070,0,4376.922852,4377.94873,4484.358887,4499.487305,4374.102539,4499.615234,4528.333496,4383.461426,4563.205078,4363.205078,4485.384766,4511.282227,4557.563965,4381.666504,4385.256348,4491.025879,4531.410156,4521.282227,4500,4385.769043,4397.436035,4558.461426,4509.487305,4487.05127,4366.922852,4580.641113,4380.128418,4549.743652,4503.077148,4396.666504,4515.384766,4485.512695,2934,1,18,2576,16213,,,,0,4,4,4,4,4,4,4,4,4,4,4,4,4,4,4,4,4,4,4,4,4,4,4,4,4,4,4,4,4,4,4,4,100,,,,,,,,,,,,,,,,,,,,,,,,,,,,,,,,,,,,,,,,,,,,,,,,,,,,,,,,,,,,,,,,,,,,,,,,,,,,,,,,,,,,,,,,,,,,,,,,,,,,,,,,,,,,,,,,,,,,,,,,,,,,,,,,,,,,,,,,,,,,,,,,,,,,,,,,,,,,,,,,,,,,,,,,,,,,,,,,,,,,,,,,,,,,,,,,,,,,,,,,,,,,,,
1764666581.512478,62071,0,4386.153809,4383.717773,4502.05127,4510.897461,4381.922852,4505,4532.307617,4388.077148,4567.692383,4365,4492.179688,4515,4562.05127,4385.769043,4383.333496,4491.922852,4536.153809,4523.333496,4499.487305,4387.436035,4395.897461,4565.769043,4518.461426,4496.922852,4368.846191,4588.205078,4387.179688,4555.641113,4508.205078,4403.717773,4521.282227,4498.589844,2839,1,18,2576,16213,,,,0,4,4,4,4,4,4,4,4,4,4,4,4,4,4,4,4,4,4,4,4,4,4,4,4,4,4,4,4,4,4,4,4,100,,,,,,,,,,,,,,,,,,,,,,,,,,,,,,,,,,,,,,,,,,,,,,,,,,,,,,,,,,,,,,,,,,,,,,,,,,,,,,,,,,,,,,,,,,,,,,,,,,,,,,,,,,,,,,,,,,,,,,,,,,,,,,,,,,,,,,,,,,,,,,,,,,,,,,,,,,,,,,,,,,,,,,,,,,,,,,,,,,,,,,,,,,,,,,,,,,,,,,,,,,,,,,
1764666581.516384,62072,0,4398.333496,4394.487305,4523.846191,4527.307617,4395.512695,4515.897461,4540.641113,4395.256348,4576.794922,4380.128418,4504.230957,4524.487305,4572.179688,4391.538574,4384.871582,4497.05127,4546.410156,4534.615234,4505.897461,4395.512695,4402.436035,4578.333496,4529.102539,4510.897461,4387.05127,4601.025879,4398.205078,4565.512695,4516.794922,4413.974121,4537.94873,4520.128418,2738,1,18,2576,16221,,,,0,4,4,4,4,4,4,4,4,4,4,4,4,4,4,4,4,4,4,4,4,4,4,4,4,4,4,4,4,4,4,4,4,100,,,,,,,,,,,,,,,,,,,,,,,,,,,,,,,,,,,,,,,,,,,,,,,,,,,,,,,,,,,,,,,,,,,,,,,,,,,,,,,,,,,,,,,,,,,,,,,,,,,,,,,,,,,,,,,,,,,,,,,,,,,,,,,,,,,,,,,,,,,,,,,,,,,,,,,,,,,,,,,,,,,,,,,,,,,,,,,,,,,,,,,,,,,,,,,,,,,,,,,,,,,,,,
1764666581.520290,62073,0,4409.230957,4406.794922,4539.743652,4540.512695,4409.871582,4529.358887,4550.897461,4402.692383,4586.794922,4400.384766,4517.179688,4535.384766,4584.615234,4397.179688,4389.871582,4504.871582,4558.333496,4550.897461,4518.333496,4406.666504,4413.461426,4591.282227,4537.820313,4524.102539,4407.94873,4612.307617,4410.384766,4576.666504,4525.769043,4424.358887,4556.666504,4540.512695,2857,1,18,2576,16221,,,,0,4,4,4,4,4,4,4,4,4,4,4,4,4,4,4,4,4,4,4,4,4,4,4,4,4,4,4,4,4,4,4,4,100,,,,,,,,,,,,,,,,,,,,,,,,,,,,,,,,,,,48286,0,0.539531,-0.421753,-0.285767,0.670349,0.962031,-0.251496,0.078135,4.833333,44.166668,-19.5,,,,,,,,,,,,,,,,,,,,,,,,,,,,,,,,,,,,,,,,,,,,,,,,,,,,,,,,,,,,,,,,,,,,,,,,,,,,,,,,,,,,,,,,,,,,,,,,,,,,,,,,,,,,,,,,,,,,,,,,,,,,,,,,,,,,,,,,,,,,,,,,,,,,,,,,,,,,,,,,
1764666581.524196,62074,0,4415,4416.153809,4543.717773,4545.641113,4420.256348,4539.871582,4558.846191,4408.461426,4593.205078,4416.025879,4525.512695,4542.820313,4593.589844,4400.769043,4395.769043,4511.282227,4566.922852,4562.820313,4530.641113,4415.256348,4421.538574,4598.846191,4542.05127,4531.410156,4419.871582,4615.384766,4419.615234,4584.871582,4531.025879,4430.512695,4566.153809,4549.230957,1957,1,18,2576,16229,,,,0,4,4,4,4,4,4,4,4,4,4,4,4,4,4,4,4,4,4,4,4,4,4,4,4,4,4,4,4,4,4,4,4,100,,,,,,,,,,,,,,,,,,,,,,,,,,,,,,,,,,,,,,,,,,,,,,,,,,,,,,,,,,,,,,,,,,,,,,,,,,,,,,,,,,,,,,,,,,,,,,,,,,,,,,,,,,,,,,,,,,,,,,,,,,,,,,,,,,,,,,,,,,,,,,,,,,,,,,,,,,,,,,,,,,,,,,,,,,,,,,,,,,,,,,,,,,,,,,,,,,,,,,,,,,,,,,
1764666581.528102,62075,0,4413.846191,4419.230957,4536.153809,4543.333496,4423.974121,4541.538574,4560.769043,4410.897461,4592.94873,4422.05127,4525.897461,4544.102539,4595,4400.897461,4398.974121,4512.179688,4568.589844,4562.692383,4534.871582,4415.512695,4420.512695,4596.922852,4540,4529.487305,4420,4608.077148,4421.666504,4585.769043,4529.871582,4429.358887,4560.641113,4542.692383,2623,1,18,2576,16229,,,,0,4,4,4,4,4,4,4,4,4,4,4,4,4,4,4,4,4,4,4,4,4,4,4,4,4,4,4,4,4,4,4,4,100,,,,,,,,,,,,,,,,,,,,,,,,,,,,,,,,,,,,,,,,,,,,,,,,,,,,,,,,,,,,,,,,,,,,,,,,,,,,,,,,,,,,,,,,,,,,,,,,,,,,,,,,,,,,,,,,,,,,,,,,,,,,,,,,,,,,,,,,,,,,,,,,,,,,,,,,,,,,,,,,,,,,,,,,,,,,,,,,,,,,,,,,,,,,,,,,,,,,,,,,,,,,,,
1764666581.532008,62076,0,4406.922852,4414.871582,4522.436035,4536.794922,4421.282227,4533.333496,4555.384766,4409.230957,4586.153809,4419.615234,4519.102539,4540.128418,4588.717773,4398.333496,4398.077148,4506.666504,4563.461426,4550.641113,4528.846191,4406.153809,4410.512695,4585.897461,4532.307617,4518.717773,4415.641113,4595,4415.128418,4578.077148,4523.333496,4421.794922,4543.717773,4525.897461,2731,1,18,2576,16237,,,,0,4,4,4,4,4,4,4,4,4,4,4,4,4,4,4,4,4,4,4,4,4,4,4,4,4,4,4,4,4,4,4,4,100,,,,,,,,,,,,,,,,,,,,,,,,,,,,,,,,,,,,,,,,,,,,,,,,,,,,,,,,,,,,,,,,,,,,,,,,,,,,,,,,,,,,,,,,,,,,,,,,,,,,,,,,,,,,,,,,,,,,,,,,,,,,,,,,,,,,,,,,,,,,,,,,,,,,,,,,,,,,,,,,,,,,,,,,,,,,,,,,,,,,,,,,,,,,,,,,,,,,,,,,,,,,,,
1764666581.535914,62077,0,4398.077148,4405.384766,4509.102539,4529.743652,4415.384766,4520,4545.384766,4404.358887,4576.025879,4412.94873,4509.615234,4535,4578.974121,4395.512695,4395.384766,4499.230957,4555.641113,4536.282227,4518.205078,4392.436035,4398.717773,4571.794922,4522.05127,4504.102539,4416.538574,4584.358887,4402.436035,4565.256348,4515.384766,4412.179688,4526.153809,4508.974121,2574,1,18,2576,16237,,,,0,4,4,4,4,4,4,4,4,4,4,4,4,4,4,4,4,4,4,4,4,4,4,4,4,4,4,4,4,4,4,4,4,100,,,,,,,,,,,,,,,,,,,,,,,,,,,,,,,,,,,48287,0,0.539564,-0.421753,-0.285706,0.670349,0.963008,-0.261262,0.072763,4.666667,43.5,-20.166666,,,,,,,,,,,,,,,,,,,,,,,,,,,,,,,,,,,,,,,,,,,,,,,,,,,,,,,,,,,,,,,,,,,,,,,,,,,,,,,,,,,,,,,,,,,,,,,,,,,,,,,,,,,,,,,,,,,,,,,,,,,,,,,,,,,,,,,,,,,,,,,,,,,,,,,,,,,,,,,,
1764666581.539821,62078,0,4391.410156,4395.512695,4500.769043,4525.384766,4410.512695,4509.615234,4536.794922,4398.589844,4567.179688,4405,4502.563965,4532.692383,4571.922852,4394.615234,4394.487305,4496.025879,4550.384766,4530.256348,4511.410156,4382.820313,4393.589844,4562.307617,4514.487305,4492.820313,4425.769043,4581.794922,4390,4553.589844,4510.384766,4406.025879,4517.179688,4499.743652,2705,1,18,2576,16245,,,,0,4,4,4,4,4,4,4,4,4,4,4,4,4,4,4,4,4,4,4,4,4,4,4,4,4,4,4,4,4,4,4,4,100,,,,,,,,,,,,,,,,,,,,,,,,,,,,,,,,,,,,,,,,,,,,,,,,,,,,,,,,,,,,,,,,,,,,,,,,,,,,,,,,,,,,,,,,,,,,,,,,,,,,,,,,,,,,,,,,,,,,,,,,,,,,,,,,,,,,,,,,,,,,,,,,,,,,,,,,,,,,,,,,,,,,,,,,,,,,,,,,,,,,,,,,,,,,,,,,,,,,,,,,,,,,,,
1764666581.543727,62079,0,4389.743652,4390.512695,4499.358887,4525.641113,4409.230957,4507.179688,4534.487305,4395.128418,4563.717773,4396.794922,4501.025879,4533.846191,4570.641113,4395.641113,4396.794922,4499.743652,4550.384766,4535.897461,4512.563965,4382.436035,4397.94873,4561.282227,4513.205078,4489.743652,4436.922852,4587.05127,4383.077148,4548.205078,4510.384766,4405.641113,4518.205078,4499.358887,2832,1,18,2576,16245,,,,0,4,4,4,4,4,4,4,4,4,4,4,4,4,4,4,4,4,4,4,4,4,4,4,4,4,4,4,4,4,4,4,4,100,,,,,,,,,,,,,,,,,,,,,,,,,,,,,,,,,,,,,,,,,,,,,,,,,,,,,,,,,,,,,,,,,,,,,,,,,,,,,,,,,,,,,,,,,,,,,,,,,,,,,,,,,,,,,,,,,,,,,,,,,,,,,,,,,,,,,,,,,,,,,,,,,,,,,,,,,,,,,,,,,,,,,,,,,,,,,,,,,,,,,,,,,,,,,,,,,,,,,,,,,,,,,,
1764666581.547633,62080,0,4392.05127,4392.179688,4503.717773,4530.128418,4410.384766,4511.922852,4538.333496,4394.743652,4566.410156,4390.384766,4504.230957,4535.897461,4573.846191,4397.05127,4400.384766,4507.179688,4554.102539,4546.794922,4518.205078,4389.358887,4406.794922,4566.410156,4518.205078,4493.974121,4439.487305,4594.230957,4382.820313,4549.358887,4513.461426,4409.102539,4523.589844,4502.179688,2791,1,18,2576,16253,,,,0,4,4,4,4,4,4,4,4,4,4,4,4,4,4,4,4,4,4,4,4,4,4,4,4,4,4,4,4,4,4,4,4,100,,,,,,,,,,,,,,,,,,,,,,,,,,,,,,,,,,,,,,,,,,,,,,,,,,,,,,,,,,,,,,,,,,,,,,,,,,,,,,,,,,,,,,,,,,,,,,,,,,,,,,,,,,,,,,,,,,,,,,,,,,,,,,,,,,,,,,,,,,,,,,,,,,,,,,,,,,,,,,,,,,,,,,,,,,,,,,,,,,,,,,,,,,,,,,,,,,,,,,,,,,,,,,
1764666581.551539,62081,0,4395.641113,4397.820313,4510,4535.769043,4409.743652,4518.077148,4543.461426,4395.512695,4573.717773,4388.846191,4508.461426,4535.769043,4577.436035,4397.563965,4402.307617,4512.307617,4557.436035,4553.333496,4522.05127,4396.410156,4411.794922,4571.538574,4525,4500.641113,4429.358887,4597.179688,4386.410156,4554.102539,4516.538574,4412.563965,4526.538574,4502.307617,2940,1,18,2576,16253,,,,0,4,4,4,4,4,4,4,4,4,4,4,4,4,4,4,4,4,4,4,4,4,4,4,4,4,4,4,4,4,4,4,4,100,,,,,,,,,,,,,,,,,,,,,,,,,,,,,,,,,,,48288,0,0.539615,-0.421631,-0.285645,0.67041,0.974728,-0.255891,0.065438,5,44.333332,-21.833334,,,,,,,,,,,,,,,,,,,,,,,,,,,,,,,,,,,,,,,,,,,,,,,,,,,,,,,,,,,,,,,,,,,,,,,,,,,,,,,,,,,,,,,,,,,,,,,,,,,,,,,,,,,,,,,,,,,,,,,,,,,,,,,,,,,,,,,,,,,,,,,,,,,,,,,,,,,,,,,,
1764666581.555445,62082,0,4397.820313,4402.94873,4513.589844,4538.205078,4404.230957,4520.128418,4544.358887,4394.615234,4582.307617,4394.230957,4510.641113,4532.692383,4578.846191,4397.563965,4401.410156,4511.922852,4557.436035,4551.153809,4521.538574,4397.820313,4408.717773,4572.436035,4528.717773,4504.743652,4412.563965,4593.974121,4390,4558.461426,4517.94873,4413.461426,4525.512695,4497.94873,2643,1,18,2571,16260,,,,0,4,4,4,4,4,4,4,4,4,4,4,4,4,4,4,4,4,4,4,4,4,4,4,4,4,4,4,4,4,4,4,4,100,,,,,,,,,,,,,,,,,,,,,,,,,,,,,,,,,,,,,,,,,,,,,,,,,,,,,,,,,,,,,,,,,,,,,,,,,,,,,,,,,,,,,,,,,,,,,,,,,,,,,,,,,,,,,,,,,,,,,,,,,,,,,,,,,,,,,,,,,,,,,,,,,,,,,,,,,,,,,,,,,,,,,,,,,,,,,,,,,,,,,,,,,,,,,,,,,,,,,,,,,,,,,,
1764666581.559351,62083,0,4397.692383,4404.230957,4511.025879,4534.743652,4395.641113,4517.05127,4540.769043,4391.025879,4588.205078,4403.974121,4509.615234,4528.846191,4577.94873,4397.94873,4398.846191,4507.436035,4554.487305,4544.615234,4519.615234,4394.102539,4401.025879,4570.128418,4527.307617,4504.743652,4399.230957,4588.077148,4392.179688,4560.769043,4518.077148,4412.179688,4523.717773,4492.436035,2862,1,18,2571,16260,,,,0,4,4,4,4,4,4,4,4,4,4,4,4,4,4,4,4,4,4,4,4,4,4,4,4,4,4,4,4,4,4,4,4,100,,,,,,,,,,,,,,,,,,,,,,,,,,,,,,,,,,,,,,,,,,,,,,,,,,,,,,,,,,,,,,,,,,,,,,,,,,,,,,,,,,,,,,,,,,,,,,,,,,,,,,,,,,,,,,,,,,,,,,,,,,,,,,,,,,,,,,,,,,,,,,,,,,,,,,,,,,,,,,,,,,,,,,,,,,,,,,,,,,,,,,,,,,,,,,,,,,,,,,,,,,,,,,
1764666581.563257,62084,0,4395.769043,4401.794922,4502.563965,4527.436035,4390.641113,4512.563965,4536.794922,4387.94873,4589.487305,4411.025879,4507.179688,4527.94873,4577.179688,4399.102539,4396.538574,4503.589844,4551.282227,4541.410156,4520.897461,4390,4395.641113,4569.230957,4523.205078,4502.307617,4393.974121,4584.871582,4393.205078,4561.794922,4517.820313,4409.871582,4524.871582,4491.025879,2748,1,18,2567,16268,,,,0,4,4,4,4,4,4,4,4,4,4,4,4,4,4,4,4,4,4,4,4,4,4,4,4,4,4,4,4,4,4,4,4,100,,,,,,,,,,,,,,,,,,,,,,,,,,,,,,,,,,,,,,,,,,,,,,,,,,,,,,,,,,,,,,,,,,,,,,,,,,,,,,,,,,,,,,,,,,,,,,,,,,,,,,,,,,,,,,,,,,,,,,,,,,,,,,,,,,,,,,,,,,,,,,,,,,,,,,,,,,,,,,,,,,,,,,,,,,,,,,,,,,,,,,,,,,,,,,,,,,,,,,,,,,,,,,
1764666581.567163,62085,0,4394.230957,4398.974121,4493.461426,4521.538574,4395.512695,4511.538574,4537.436035,4389.615234,4586.410156,4407.692383,4506.025879,4531.153809,4578.461426,4400.641113,4395.128418,4504.102539,4550.897461,4545.897461,4526.410156,4390.384766,4397.179688,4573.461426,4520.256348,4500.769043,4394.358887,4587.94873,4394.230957,4563.461426,4517.563965,4407.94873,4529.487305,4495.256348,2794,1,18,2567,16268,,,,0,4,4,4,4,4,4,4,4,4,4,4,4,4,4,4,4,4,4,4,4,4,4,4,4,4,4,4,4,4,4,4,4,100,,,,,,,,,,,,,,,,,,,,,,,,,,,,,,,,,,,48289,0,0.539564,-0.421753,-0.285706,0.670349,0.968868,-0.247589,0.075204,5.5,44,-18.833334,,,,,,,,,,,,,,,,,,,,,,,,,,,,,,,,,,,,,,,,,,,,,,,,,,,,,,,,,,,,,,,,,,,,,,,,,,,,,,,,,,,,,,,,,,,,,,,,,,,,,,,,,,,,,,,,,,,,,,,,,,,,,,,,,,,,,,,,,,,,,,,,,,,,,,,,,,,,,,,,
1764666581.571069,62086,0,4395.384766,4399.102539,4491.794922,4522.05127,4410.512695,4516.410156,4543.589844,4398.205078,4582.179688,4392.307617,4507.692383,4536.922852,4582.563965,4401.922852,4393.205078,4508.333496,4553.717773,4555.512695,4533.333496,4396.025879,4405.512695,4581.922852,4521.153809,4502.820313,4396.410156,4596.922852,4396.282227,4566.666504,4517.820313,4408.205078,4534.743652,4502.692383,2810,1,18,2563,16276,,,,0,4,4,4,4,4,4,4,4,4,4,4,4,4,4,4,4,4,4,4,4,4,4,4,4,4,4,4,4,4,4,4,4,100,,,,,,,,,,,,,,,,,,,,,,,,,,,,,,,,,,,,,,,,,,,,,,,,,,,,,,,,,,,,,,,,,,,,,,,,,,,,,,,,,,,,,,,,,,,,,,,,,,,,,,,,,,,,,,,,,,,,,,,,,,,,,,,,,,,,,,,,,,,,,,,,,,,,,,,,,,,,,,,,,,,,,,,,,,,,,,,,,,,,,,,,,,,,,,,,,,,,,,,,,,,,,,
1764666581.574975,62087,0,4400,4403.333496,4501.153809,4529.615234,4427.692383,4525.384766,4551.666504,4411.153809,4580.384766,4372.692383,4510.897461,4541.794922,4587.692383,4401.794922,4388.717773,4511.410156,4558.205078,4562.307617,4536.922852,4403.974121,4415.897461,4589.743652,4525.512695,4507.820313,4398.846191,4607.692383,4399.358887,4570.384766,4518.846191,4411.410156,4537.307617,4509.230957,2993,1,18,2563,16276,,,,0,4,4,4,4,4,4,4,4,4,4,4,4,4,4,4,4,4,4,4,4,4,4,4,4,4,4,4,4,4,4,4,4,100,,,,,,,,,,,,,,,,,,,,,,,,,,,,,,,,,,,,,,,,,,,,,,,,,,,,,,,,,,,,,,,,,,,,,,,,,,,,,,,,,,,,,,,,,,,,,,,,,,,,,,,,,,,,,,,,,,,,,,,,,,,,,,,,,,,,,,,,,,,,,,,,,,,,,,,,,,,,,,,,,,,,,,,,,,,,,,,,,,,,,,,,,,,,,,,,,,,,,,,,,,,,,,
1764666581.578881,62088,0,4405.897461,4409.615234,4515.769043,4539.230957,4435.384766,4533.974121,4556.410156,4420.897461,4582.307617,4362.307617,4512.94873,4543.589844,4590.641113,4400.769043,4382.307617,4508.974121,4561.025879,4559.615234,4534.102539,4409.358887,4422.307617,4591.538574,4530,4511.666504,4402.179688,4615.128418,4402.94873,4572.179688,4520.256348,4416.538574,4536.666504,4512.436035,2902,1,18,2304,16284,,,,0,4,4,4,4,4,4,4,4,4,4,4,4,4,4,4,4,4,4,4,4,4,4,4,4,4,4,4,4,4,4,4,4,100,,,,,,,,,,,,,,,,,,,,,,,,,,,,,,,,,,,,,,,,,,,,,,,,,,,,,,,,,,,,,,,,,,,,,,,,,,,,,,,,,,,,,,,,,,,,,,,,,,,,,,,,,,,,,,,,,,,,,,,,,,,,,,,,,,,,,,,,,,,,,,,,,,,,,,,,,,,,,,,,,,,,,,,,,,,,,,,,,,,,,,,,,,,,,,,,,,,,,,,,,,,,,,
1764666581.582787,62089,0,4408.974121,4413.974121,4523.461426,4543.974121,4427.692383,4537.563965,4554.102539,4420.641113,4585.641113,4369.743652,4511.922852,4542.05127,4589.358887,4399.871582,4377.563965,4501.794922,4559.871582,4546.794922,4525.641113,4408.974121,4420.769043,4585.641113,4531.410156,4510,4404.487305,4616.282227,4404.871582,4570.641113,4520.512695,4421.153809,4534.358887,4511.922852,2732,1,18,2304,16284,,,,0,4,4,4,4,4,4,4,4,4,4,4,4,4,4,4,4,4,4,4,4,4,4,4,4,4,4,4,4,4,4,4,4,100,,,,,,,,,,,,,,,,,,,,,,,,,,,,,,,,,,,48290,0,0.539432,-0.421936,-0.285828,0.670288,0.968868,-0.247589,0.075204,4.666667,45.166668,-21.833334,,,,,,,,,,,,,,,,,,,,,,,,,,,,,,,,,,,,,,,,,,,,,,,,,,,,,,,,,,,,,,,,,,,,,,,,,,,,,,,,,,,,,,,,,,,,,,,,,,,,,,,,,,,,,,,,,,,,,,,,,,,,,,,,,,,,,,,,,,,,,,,,,,,,,,,,,,,,,,,,
1764666581.586693,62090,0,4407.05127,4413.461426,4516.922852,4541.153809,4408.846191,4534.871582,4545.769043,4410,4587.820313,4390.384766,4508.461426,4538.589844,4584.102539,4400.641113,4378.461426,4495.384766,4555.769043,4530.512695,4515.256348,4402.563965,4412.307617,4575.769043,4528.974121,4502.563965,4402.820313,4611.410156,4403.974121,4566.922852,4519.230957,4423.333496,4532.820313,4508.846191,1476,1,18,1024,16292,,,,0,4,4,4,4,4,4,4,4,4,4,4,4,4,4,4,4,4,4,4,4,4,4,4,4,4,4,4,4,4,4,4,4,100,,,,,,,,,,,,,,,,,,,,,,,,,,,,,,,,,,,,,,,,,,,,,,,,,,,,,,,,,,,,,,,,,,,,,,,,,,,,,,,,,,,,,,,,,,,,,,,,,,,,,,,,,,,,,,,,,,,,,,,,,,,,,,,,,,,,,,,,,,,,,,,,,,,,,,,,,,,,,,,,,,,,,,,,,,,,,,,,,,,,,,,,,,,,,,,,,,,,,,,,,,,,,,
1764666581.590599,62091,0,4401.538574,4408.589844,4500.897461,4534.615234,4390.256348,4528.461426,4536.538574,4396.282227,4588.077148,4409.102539,4504.615234,4535.641113,4578.205078,4403.589844,4385.256348,4493.846191,4551.538574,4519.358887,4507.05127,4393.461426,4401.282227,4568.077148,4524.487305,4493.461426,4397.94873,4604.487305,4401.410156,4563.846191,4517.563965,4422.692383,4533.205078,4504.615234,2720,1,18,1024,16292,,,,0,4,4,4,4,4,4,4,4,4,4,4,4,4,4,4,4,4,4,4,4,4,4,4,4,4,4,4,4,4,4,4,4,100,,,,,,,,,,,,,,,,,,,,,,,,,,,,,,,,,,,,,,,,,,,,,,,,,,,,,,,,,,,,,,,,,,,,,,,,,,,,,,,,,,,,,,,,,,,,,,,,,,,,,,,,,,,,,,,,,,,,,,,,,,,,,,,,,,,,,,,,,,,,,,,,,,,,,,,,,,,,,,,,,,,,,,,,,,,,,,,,,,,,,,,,,,,,,,,,,,,,,,,,,,,,,,
1764666581.594505,62092,0,4396.153809,4403.077148,4490.641113,4531.282227,4382.436035,4523.205078,4532.94873,4389.487305,4587.563965,4412.179688,4502.05127,4535.128418,4574.871582,4407.436035,4393.846191,4496.666504,4549.487305,4518.077148,4503.461426,4386.794922,4392.820313,4566.922852,4520.769043,4488.461426,4396.025879,4600.384766,4399.615234,4563.333496,4516.794922,4420,4534.615234,4501.410156,2530,1,18,512,16299,,,,0,4,4,4,4,4,4,4,4,4,4,4,4,4,4,4,4,4,4,4,4,4,4,4,4,4,4,4,4,4,4,4,4,100,,,,,,,,,,,,,,,,,,,,,,,,,,,,,,,,,,,,,,,,,,,,,,,,,,,,,,,,,,,,,,,,,,,,,,,,,,,,,,,,,,,,,,,,,,,,,,,,,,,,,,,,,,,,,,,,,,,,,,,,,,,,,,,,,,,,,,,,,,,,,,,,,,,,,,,,,,,,,,,,,,,,,,,,,,,,,,,,,,,,,,,,,,,,,,,,,,,,,,,,,,,,,,
1764666581.598411,62093,0,4394.358887,4401.025879,4497.820313,4534.487305,4388.974121,4522.179688,4537.05127,4394.358887,4588.333496,4399.102539,4501.153809,4538.077148,4575.897461,4410.641113,4398.077148,4499.743652,4550.384766,4525.256348,4504.615234,4386.025879,4390.256348,4571.666504,4519.487305,4490.769043,4403.589844,4601.666504,4401.153809,4565.512695,4517.307617,4417.179688,4536.538574,4502.307617,2319,1,18,512,16299,,,,0,4,4,4,4,4,4,4,4,4,4,4,4,4,4,4,4,4,4,4,4,4,4,4,4,4,4,4,4,4,4,4,4,100,,,,,,,,,,,,,,,,,,,,,,,,,,,,,,,,,,,48291,0,0.539544,-0.421875,-0.285706,0.670288,0.951288,-0.260774,0.079111,4.666667,44,-21,,,,,,,,,,,,,,,,,,,,,,,,,,,,,,,,,,,,,,,,,,,,,,,,,,,,,,,,,,,,,,,,,,,,,,,,,,,,,,,,,,,,,,,,,,,,,,,,,,,,,,,,,,,,,,,,,,,,,,,,,,,,,,,,,,,,,,,,,,,,,,,,,,,,,,,,,,,,,,,,
1764666581.602317,62094,0,4396.922852,4404.230957,4520.897461,4542.05127,4405.512695,4525.128418,4546.025879,4407.94873,4591.153809,4381.922852,4501.410156,4543.333496,4580.384766,4412.05127,4395.512695,4500.256348,4553.589844,4535.769043,4509.358887,4392.179688,4393.846191,4578.077148,4520,4498.077148,4420.512695,4607.820313,4406.282227,4568.589844,4519.358887,4417.05127,4539.871582,4510,2722,1,18,768,16307,,,,0,4,4,4,4,4,4,4,4,4,4,4,4,4,4,4,4,4,4,4,4,4,4,4,4,4,4,4,4,4,4,4,4,100,,,,,,,,,,,,,,,,,,,,,,,,,,,,,,,,,,,,,,,,,,,,,,,,,,,,,,,,,,,,,,,,,,,,,,,,,,,,,,,,,,,,,,,,,,,,,,,,,,,,,,,,,,,,,,,,,,,,,,,,,,,,,,,,,,,,,,,,,,,,,,,,,,,,,,,,,,,,,,,,,,,,,,,,,,,,,,,,,,,,,,,,,,,,,,,,,,,,,,,,,,,,,,
1764666581.606223,62095,0,4402.05127,4410.512695,4545.512695,4549.102539,4423.717773,4530.128418,4553.974121,4421.666504,4594.615234,4374.743652,4501.794922,4548.589844,4585.641113,4412.179688,4388.974121,4499.743652,4557.436035,4545.128418,4516.282227,4401.922852,4402.179688,4582.436035,4520.897461,4505.769043,4439.487305,4615,4413.205078,4571.282227,4522.05127,4421.410156,4547.05127,4523.717773,2520,1,18,768,16307,,,,0,4,4,4,4,4,4,4,4,4,4,4,4,4,4,4,4,4,4,4,4,4,4,4,4,4,4,4,4,4,4,4,4,100,,,,,,,,,,,,,,,,,,,,,,,,,,,,,,,,,,,,,,,,,,,,,,,,,,,,,,,,,,,,,,,,,,,,,,,,,,,,,,,,,,,,,,,,,,,,,,,,,,,,,,,,,,,,,,,,,,,,,,,,,,,,,,,,,,,,,,,,,,,,,,,,,,,,,,,,,,,,,,,,,,,,,,,,,,,,,,,,,,,,,,,,,,,,,,,,,,,,,,,,,,,,,,
1764666581.610129,62096,0,4406.666504,4415.256348,4556.025879,4552.692383,4435.512695,4534.358887,4556.153809,4428.589844,4595.769043,4381.025879,4501.538574,4551.410156,4589.358887,4412.179688,4383.974121,4502.05127,4559.743652,4551.410156,4524.102539,4410.641113,4411.538574,4584.102539,4520.897461,4510.128418,4450.769043,4619.615234,4418.717773,4573.205078,4524.358887,4429.358887,4557.179688,4538.974121,2884,1,18,1024,16315,,,,0,4,4,4,4,4,4,4,4,4,4,4,4,4,4,4,4,4,4,4,4,4,4,4,4,4,4,4,4,4,4,4,4,100,,,,,,,,,,,,,,,,,,,,,,,,,,,,,,,,,,,,,,,,,,,,,,,,,,,,,,,,,,,,,,,,,,,,,,,,,,,,,,,,,,,,,,,,,,,,,,,,,,,,,,,,,,,,,,,,,,,,,,,,,,,,,,,,,,,,,,,,,,,,,,,,,,,,,,,,,,,,,,,,,,,,,,,,,,,,,,,,,,,,,,,,,,,,,,,,,,,,,,,,,,,,,,
1764666581.614035,62097,0,4407.94873,4415.128418,4548.077148,4553.846191,4437.563965,4536.025879,4552.05127,4426.666504,4592.563965,4392.307617,4500,4550.641113,4590.256348,4412.436035,4384.358887,4508.205078,4559.871582,4554.615234,4530.512695,4414.743652,4418.205078,4584.615234,4519.615234,4511.025879,4449.615234,4620.128418,4420,4574.743652,4525,4436.410156,4566.025879,4548.846191,2901,1,18,1024,16315,,,,0,4,4,4,4,4,4,4,4,4,4,4,4,4,4,4,4,4,4,4,4,4,4,4,4,4,4,4,4,4,4,4,4,100,,,,,,,,,,,,,,,,,,,,,,,,,,,,,,,,,,,48292,0,0.539552,-0.421753,-0.285583,0.67041,0.951288,-0.260774,0.079111,5.833333,42.333332,-20.5,,,,,,,,,,,,,,,,,,,,,,,,,,,,,,,,,,,,,,,,,,,,,,,,,,,,,,,,,,,,,,,,,,,,,,,,,,,,,,,,,,,,,,,,,,,,,,,,,,,,,,,,,,,,,,,,,,,,,,,,,,,,,,,,,,,,,,,,,,,,,,,,,,,,,,,,,,,,,,,,
1764666581.617941,62098,0,4405.256348,4409.871582,4530.641113,4554.615234,4431.410156,4534.615234,4545.384766,4419.615234,4586.025879,4397.179688,4498.333496,4546.538574,4588.717773,4412.692383,4389.102539,4514.102539,4558.333496,4554.358887,4532.179688,4412.94873,4418.717773,4585.512695,4517.563965,4510.384766,4439.743652,4618.205078,4415.769043,4575.128418,4523.461426,4437.94873,4567.179688,4548.974121,1761,1,18,1280,16323,,,,0,4,4,4,4,4,4,4,4,4,4,4,4,4,4,4,4,4,4,4,4,4,4,4,4,4,4,4,4,4,4,4,4,100,,,,,,,,,,,,,,,,,,,,,,,,,,,,,,,,,,,,,,,,,,,,,,,,,,,,,,,,,,,,,,,,,,,,,,,,,,,,,,,,,,,,,,,,,,,,,,,,,,,,,,,,,,,,,,,,,,,,,,,,,,,,,,,,,,,,,,,,,,,,,,,,,,,,,,,,,,,,,,,,,,,,,,,,,,,,,,,,,,,,,,,,,,,,,,,,,,,,,,,,,,,,,,
1764666581.621847,62099,0,4400,4402.563965,4518.333496,4555.384766,4421.538574,4531.282227,4540.512695,4412.307617,4580.641113,4391.282227,4497.05127,4541.025879,4586.282227,4411.794922,4393.846191,4514.102539,4556.282227,4550,4526.922852,4406.410156,4412.94873,4586.025879,4514.615234,4509.358887,4429.743652,4616.025879,4408.205078,4573.333496,4520.128418,4432.563965,4558.589844,4540.512695,2837,1,18,1280,16323,,,,0,4,4,4,4,4,4,4,4,4,4,4,4,4,4,4,4,4,4,4,4,4,4,4,4,4,4,4,4,4,4,4,4,100,,,,,,,,,,,,,,,,,,,,,,,,,,,,,,,,,,,,,,,,,,,,,,,,,,,,,,,,,,,,,,,,,,,,,,,,,,,,,,,,,,,,,,,,,,,,,,,,,,,,,,,,,,,,,,,,,,,,,,,,,,,,,,,,,,,,,,,,,,,,,,,,,,,,,,,,,,,,,,,,,,,,,,,,,,,,,,,,,,,,,,,,,,,,,,,,,,,,,,,,,,,,,,
1764666581.625753,62100,0,4394.487305,4396.794922,4518.974121,4554.487305,4412.307617,4527.94873,4538.846191,4407.307617,4579.615234,4379.230957,4496.153809,4536.666504,4584.102539,4409.230957,4394.743652,4506.922852,4554.102539,4542.436035,4516.282227,4397.820313,4403.589844,4583.974121,4510.641113,4507.94873,4426.410156,4614.743652,4401.025879,4568.717773,4516.282227,4423.461426,4545.512695,4528.717773,2553,1,18,1536,16331,,,,0,4,4,4,4,4,4,4,4,4,4,4,4,4,4,4,4,4,4,4,4,4,4,4,4,4,4,4,4,4,4,4,4,100,,,,,,,,,,,,,,,,,,,,,,,,,,,,,,,,,,,,,,,,,,,,,,,1.608513,2.499477,2.543916,0.754799,0.50517,2.190372,4.159343,3.209751,0.957244,0.7361,7.146984,6.259418,7.16665,3.599127,3.855425,1.338035,3.351811,2.733846,1.568516,0.870606,2.120367,4.207491,2.685244,2.435388,0.904067,1.659583,3.577181,2.685047,0.814096,0.454364,1.324265,2.777493,2.194333,1.002653,0.573727,1.128267,2.407032,1.955076,1.49294,0.784632,0.666925,2.257644,2.848359,0.56817,0.512572,1.010776,2.518187,4.313827,3.872671,1.479087,1.162902,1.970271,1.816733,0.746762,0.361888,1.226332,2.89581,2.04405,0.731395,0.446958,0.56026,3.306555,2.360162,0.779263,0.445952,1.025247,1.151144,1.297656,0.613771,0.301782,0.416002,2.370411,2.189969,0.692859,0.63318,0.313123,2.156214,2.313707,0.737977,0.617665,1.993449,3.673714,2.527576,1.174938,0.698813,0.738043,6.658782,4.510756,1.764794,1.182468,0.758338,4.16503,3.260468,0.968938,0.798401,0.658806,5.389874,3.19344,1.153575,0.825554,1.351583,4.519495,2.829,1.743102,1.021459,1.233967,5.243883,3.926804,1.172766,0.8331,1.559178,3.373081,2.110412,0.821824,0.705256,1.510413,4.584954,3.593448,1.022895,0.796687,1.770427,2.405483,3.459827,5.809109,3.267079,1.272342,4.730362,3.277171,0.784579,0.50653,1.722873,5.128575,3.419968,0.803893,1.276269,2.044972,3.919538,2.918412,0.826701,0.722501,0.791504,1.780558,1.543127,0.365407,0.254809,1.799734,3.834999,3.167476,1.290531,0.721193,1.773217,5.734,3.414153,1.088465,1.712621,4.361842,4.940334,4.723303,5.149601,2.03595
1764666581.629659,62101,0,4390.769043,4395.128418,4528.461426,4550.384766,4407.307617,4525.769043,4539.615234,4404.102539,4582.94873,4369.487305,4495,4534.615234,4582.436035,4406.153809,4391.538574,4497.307617,4551.922852,4535.128418,4506.538574,4391.410156,4396.282227,4579.230957,4506.666504,4505.641113,4429.487305,4613.333496,4397.820313,4562.307617,4513.717773,4416.410156,4536.794922,4519.871582,2838,1,18,1536,16331,,,,0,4,4,4,4,4,4,4,4,4,4,4,4,4,4,4,4,4,4,4,4,4,4,4,4,4,4,4,4,4,4,4,4,100,,,,,,,,,,,,,,,,,,,,,,,,,,,,,,,,,,,48293,0,0.539768,-0.421448,-0.285339,0.670532,0.958125,-0.261262,0.059089,6.666667,43.5,-20.5,,,,,,,,,,,,,,,,,,,,,,,,,,,,,,,,,,,,,,,,,,,,,,,,,,,,,,,,,,,,,,,,,,,,,,,,,,,,,,,,,,,,,,,,,,,,,,,,,,,,,,,,,,,,,,,,,,,,,,,,,,,,,,,,,,,,,,,,,,,,,,,,,,,,,,,,,,,,,,,,
1764666581.633565,62102,0,4389.743652,4397.05127,4535.769043,4542.820313,4407.179688,4524.615234,4541.153809,4401.282227,4586.410156,4367.94873,4493.461426,4535.512695,4581.538574,4404.743652,4387.436035,4493.077148,4550.128418,4533.205078,4504.487305,4391.153809,4395.256348,4574.358887,4505,4502.307617,4431.410156,4610.512695,4399.615234,4556.922852,4513.077148,4415.128418,4537.436035,4516.794922,2928,1,18,1792,16338,,,,0,4,4,4,4,4,4,4,4,4,4,4,4,4,4,4,4,4,4,4,4,4,4,4,4,4,4,4,4,4,4,4,4,100,,,,,,,,,,,,,,,,,,,,,,,,,,,,,,,,,,,,,,,,,,,,,,,,,,,,,,,,,,,,,,,,,,,,,,,,,,,,,,,,,,,,,,,,,,,,,,,,,,,,,,,,,,,,,,,,,,,,,,,,,,,,,,,,,,,,,,,,,,,,,,,,,,,,,,,,,,,,,,,,,,,,,,,,,,,,,,,,,,,,,,,,,,,,,,,,,,,,,,,,,,,,,,
1764666581.637471,62103,0,4391.153809,4400.128418,4533.589844,4533.846191,4410.512695,4523.717773,4542.05127,4398.974121,4585.769043,4373.717773,4492.436035,4537.820313,4581.538574,4406.410156,4385.897461,4498.205078,4550.128418,4538.846191,4512.820313,4397.94873,4400.769043,4572.692383,4507.179688,4499.615234,4425.128418,4606.025879,4404.487305,4555.128418,4513.846191,4419.230957,4543.333496,4518.589844,2835,1,18,1792,16338,,,,0,4,4,4,4,4,4,4,4,4,4,4,4,4,4,4,4,4,4,4,4,4,4,4,4,4,4,4,4,4,4,4,4,100,,,,,,,,,,,,,,,,,,,,,,,,,,,,,,,,,,,,,,,,,,,,,,,,,,,,,,,,,,,,,,,,,,,,,,,,,,,,,,,,,,,,,,,,,,,,,,,,,,,,,,,,,,,,,,,,,,,,,,,,,,,,,,,,,,,,,,,,,,,,,,,,,,,,,,,,,,,,,,,,,,,,,,,,,,,,,,,,,,,,,,,,,,,,,,,,,,,,,,,,,,,,,,
1764666581.641377,62104,0,4394.358887,4402.05127,4524.230957,4527.05127,4413.846191,4523.205078,4542.307617,4398.333496,4580.384766,4380.641113,4492.692383,4540,4583.077148,4410.897461,4387.820313,4509.871582,4552.307617,4549.615234,4526.666504,4409.230957,4409.230957,4575.897461,4512.692383,4500.128418,4411.538574,4602.179688,4409.743652,4558.717773,4515.128418,4425.384766,4546.153809,4521.666504,2735,1,18,2048,16346,,,,0,4,4,4,4,4,4,4,4,4,4,4,4,4,4,4,4,4,4,4,4,4,4,4,4,4,4,4,4,4,4,4,4,100,,,,,,,,,,,,,,,,,,,,,,,,,,,,,,,,,,,,,,,,,,,,,,,,,,,,,,,,,,,,,,,,,,,,,,,,,,,,,,,,,,,,,,,,,,,,,,,,,,,,,,,,,,,,,,,,,,,,,,,,,,,,,,,,,,,,,,,,,,,,,,,,,,,,,,,,,,,,,,,,,,,,,,,,,,,,,,,,,,,,,,,,,,,,,,,,,,,,,,,,,,,,,,
1764666581.645283,62105,0,4398.205078,4402.820313,4517.05127,4526.538574,4414.102539,4523.717773,4542.05127,4400.512695,4573.205078,4382.436035,4494.743652,4540.256348,4585.128418,4415.384766,4390.641113,4520.256348,4555.512695,4558.846191,4536.794922,4420.256348,4415.897461,4581.794922,4518.461426,4504.743652,4400.769043,4602.05127,4413.077148,4566.153809,4516.282227,4430.128418,4541.666504,4523.333496,2857,1,18,2048,16346,,,,0,4,4,4,4,4,4,4,4,4,4,4,4,4,4,4,4,4,4,4,4,4,4,4,4,4,4,4,4,4,4,4,4,100,,,,,,,,,,,,,,,,,,,,,,,,,,,,,,,,,,,48294,0,0.539692,-0.421448,-0.285339,0.670593,0.966427,-0.263216,0.070321,6.666667,43.5,-20.5,,,,,,,,,,,,,,,,,,,,,,,,,,,,,,,,,,,,,,,,,,,,,,,,,,,,,,,,,,,,,,,,,,,,,,,,,,,,,,,,,,,,,,,,,,,,,,,,,,,,,,,,,,,,,,,,,,,,,,,,,,,,,,,,,,,,,,,,,,,,,,,,,,,,,,,,,,,,,,,,
1764666581.649189,62106,0,4401.666504,4403.205078,4518.333496,4533.205078,4410.384766,4525.384766,4541.922852,4404.230957,4568.205078,4377.179688,4497.94873,4537.94873,4585.769043,4416.794922,4391.282227,4522.94873,4556.922852,4560.897461,4536.410156,4426.025879,4417.820313,4586.410156,4521.153809,4510.769043,4401.666504,4606.025879,4414.487305,4573.461426,4517.307617,4431.538574,4532.94873,4523.333496,1955,1,18,2304,16354,,,,0,4,4,4,4,4,4,4,4,4,4,4,4,4,4,4,4,4,4,4,4,4,4,4,4,4,4,4,4,4,4,4,4,100,,,,,,,,,,,,,,,,,,,,,,,,,,,,,,,,,,,,,,,,,,,,,,,,,,,,,,,,,,,,,,,,,,,,,,,,,,,,,,,,,,,,,,,,,,,,,,,,,,,,,,,,,,,,,,,,,,,,,,,,,,,,,,,,,,,,,,,,,,,,,,,,,,,,,,,,,,,,,,,,,,,,,,,,,,,,,,,,,,,,,,,,,,,,,,,,,,,,,,,,,,,,,,
1764666581.653095,62107,0,4402.563965,4403.717773,4524.871582,4543.333496,4404.743652,4526.794922,4542.179688,4407.05127,4567.820313,4369.358887,4500.384766,4533.846191,4582.94873,4413.461426,4388.461426,4517.307617,4554.230957,4555,4526.025879,4423.974121,4414.615234,4585.897461,4519.230957,4513.717773,4412.307617,4610.641113,4413.589844,4576.410156,4517.94873,4429.358887,4526.410156,4521.538574,2621,1,18,2304,16354,,,,0,4,4,4,4,4,4,4,4,4,4,4,4,4,4,4,4,4,4,4,4,4,4,4,4,4,4,4,4,4,4,4,4,100,,,,,,,,,,,,,,,,,,,,,,,,,,,,,,,,,,,,,,,,,,,,,,,,,,,,,,,,,,,,,,,,,,,,,,,,,,,,,,,,,,,,,,,,,,,,,,,,,,,,,,,,,,,,,,,,,,,,,,,,,,,,,,,,,,,,,,,,,,,,,,,,,,,,,,,,,,,,,,,,,,,,,,,,,,,,,,,,,,,,,,,,,,,,,,,,,,,,,,,,,,,,,,
1764666581.657001,62108,0,4399.615234,4402.94873,4526.794922,4550.897461,4400.897461,4526.922852,4542.820313,4406.538574,4570.769043,4365.128418,4500.384766,4529.615234,4576.922852,4406.666504,4384.102539,4507.94873,4547.692383,4545,4512.692383,4415.384766,4407.820313,4579.743652,4514.230957,4510.128418,4420.512695,4611.025879,4409.871582,4573.077148,4517.563965,4424.615234,4526.153809,4517.179688,2727,1,18,2560,16362,,,,0,4,4,4,4,4,4,4,4,4,4,4,4,4,4,4,4,4,4,4,4,4,4,4,4,4,4,4,4,4,4,4,4,100,,,,,,,,,,,,,,,,,,,,,,,,,,,,,,,,,,,,,,,,,,,,,,,,,,,,,,,,,,,,,,,,,,,,,,,,,,,,,,,,,,,,,,,,,,,,,,,,,,,,,,,,,,,,,,,,,,,,,,,,,,,,,,,,,,,,,,,,,,,,,,,,,,,,,,,,,,,,,,,,,,,,,,,,,,,,,,,,,,,,,,,,,,,,,,,,,,,,,,,,,,,,,,
1764666581.660907,62109,0,4393.461426,4400.384766,4517.692383,4551.282227,4401.025879,4525.897461,4543.205078,4402.94873,4574.102539,4367.05127,4497.563965,4526.922852,4570.897461,4400,4381.153809,4500.897461,4541.025879,4536.922852,4503.974121,4404.230957,4400,4570.897461,4508.974121,4501.153809,4416.153809,4604.743652,4402.692383,4565.897461,4515.641113,4419.487305,4530.512695,4509.743652,2570,1,18,2560,16362,,,,0,4,4,4,4,4,4,4,4,4,4,4,4,4,4,4,4,4,4,4,4,4,4,4,4,4,4,4,4,4,4,4,4,100,,,,,,,,,,,,,,,,,,,,,,,,,,,,,,,,,,,48295,0,0.539677,-0.421509,-0.285278,0.670593,0.969845,-0.251496,0.071298,4.833333,42.5,-21.166666,,,,,,,,,,,,,,,,,,,,,,,,,,,,,,,,,,,,,,,,,,,,,,,,,,,,,,,,,,,,,,,,,,,,,,,,,,,,,,,,,,,,,,,,,,,,,,,,,,,,,,,,,,,,,,,,,,,,,,,,,,,,,,,,,,,,,,,,,,,,,,,,,,,,,,,,,,,,,,,,
1764666581.664813,62110,0,4387.179688,4396.538574,4500.769043,4544.230957,4403.974121,4524.743652,4542.05127,4398.846191,4575.641113,4372.436035,4492.563965,4526.410156,4568.333496,4396.410156,4380.769043,4498.846191,4537.563965,4533.717773,4503.077148,4395.512695,4393.333496,4563.589844,4506.025879,4491.666504,4400,4594.230957,4393.461426,4558.974121,4513.333496,4415.256348,4534.615234,4500.641113,2702,1,18,2560,16370,,,,0,4,4,4,4,4,4,4,4,4,4,4,4,4,4,4,4,4,4,4,4,4,4,4,4,4,4,4,4,4,4,4,4,100,,,,,,,,,,,,,,,,,,,,,,,,,,,,,,,,,,,,,,,,,,,,,,,,,,,,,,,,,,,,,,,,,,,,,,,,,,,,,,,,,,,,,,,,,,,,,,,,,,,,,,,,,,,,,,,,,,,,,,,,,,,,,,,,,,,,,,,,,,,,,,,,,,,,,,,,,,,,,,,,,,,,,,,,,,,,,,,,,,,,,,,,,,,,,,,,,,,,,,,,,,,,,,
1764666581.668719,62111,0,4383.333496,4392.307617,4485.512695,4533.717773,4406.410156,4523.846191,4537.820313,4395.897461,4574.487305,4376.025879,4486.025879,4526.794922,4569.230957,4396.282227,4381.025879,4499.102539,4537.94873,4534.102539,4507.179688,4391.282227,4388.846191,4560,4505.641113,4486.282227,4382.436035,4584.871582,4384.487305,4554.358887,4511.025879,4411.153809,4534.230957,4493.846191,2830,1,18,2560,16370,,,,0,4,4,4,4,4,4,4,4,4,4,4,4,4,4,4,4,4,4,4,4,4,4,4,4,4,4,4,4,4,4,4,4,100,,,,,,,,,,,,,,,,,,,,,,,,,,,,,,,,,,,,,,,,,,,,,,,,,,,,,,,,,,,,,,,,,,,,,,,,,,,,,,,,,,,,,,,,,,,,,,,,,,,,,,,,,,,,,,,,,,,,,,,,,,,,,,,,,,,,,,,,,,,,,,,,,,,,,,,,,,,,,,,,,,,,,,,,,,,,,,,,,,,,,,,,,,,,,,,,,,,,,,,,,,,,,,
1764666581.672625,62112,0,4381.794922,4387.94873,4479.102539,4523.717773,4404.615234,4522.05127,4529.871582,4392.94873,4570.384766,4374.487305,4479.487305,4525.384766,4570.128418,4397.179688,4379.615234,4498.077148,4539.230957,4533.333496,4510.256348,4389.743652,4385.769043,4559.102539,4505.256348,4485.384766,4375.256348,4580.769043,4377.94873,4551.410156,4508.589844,4405.384766,4527.94873,4491.794922,2789,1,18,2561,16378,,,,0,4,4,4,4,4,4,4,4,4,4,4,4,4,4,4,4,4,4,4,4,4,4,4,4,4,4,4,4,4,4,4,4,100,,,,,,,,,,,,,,,,,,,,,,,,,,,,,,,,,,,,,,,,,,,,,,,,,,,,,,,,,,,,,,,,,,,,,,,,,,,,,,,,,,,,,,,,,,,,,,,,,,,,,,,,,,,,,,,,,,,,,,,,,,,,,,,,,,,,,,,,,,,,,,,,,,,,,,,,,,,,,,,,,,,,,,,,,,,,,,,,,,,,,,,,,,,,,,,,,,,,,,,,,,,,,,
1764666581.676531,62113,0,4380.512695,4383.205078,4481.794922,4515.897461,4397.692383,4517.692383,4519.358887,4387.563965,4563.717773,4366.794922,4475,4520,4567.307617,4396.538574,4375.897461,4494.487305,4537.563965,4528.461426,4507.692383,4386.922852,4382.563965,4558.077148,4502.307617,4486.153809,4381.153809,4581.153809,4374.230957,4547.94873,4505.256348,4397.307617,4517.05127,4492.436035,2934,1,18,2561,16378,,,,0,4,4,4,4,4,4,4,4,4,4,4,4,4,4,4,4,4,4,4,4,4,4,4,4,4,4,4,4,4,4,4,4,100,,,,,,,,,,,,,,,,,,,,,,,,,,,,,,,,,,,48296,0,0.539761,-0.421387,-0.285156,0.670654,0.969357,-0.249542,0.076181,4,44.166668,-21.666666,,,,,,,,,,,,,,,,,,,,,,,,,,,,,,,,,,,,,,,,,,,,,,,,,,,,,,,,,,,,,,,,,,,,,,,,,,,,,,,,,,,,,,,,,,,,,,,,,,,,,,,,,,,,,,,,,,,,,,,,,,,,,,,,,,,,,,,,,,,,,,,,,,,,,,,,,,,,,,,,
1764666581.680437,62114,0,4377.307617,4378.589844,4488.205078,4510.769043,4388.589844,4511.153809,4509.871582,4379.871582,4556.153809,4355.512695,4473.974121,4511.666504,4560.256348,4394.102539,4372.05127,4490.769043,4532.05127,4521.410156,4500.128418,4381.538574,4378.717773,4555.256348,4496.410156,4485,4392.820313,4582.307617,4372.692383,4543.333496,4501.666504,4390,4505.384766,4490.897461,2639,1,18,2562,16385,,,,0,4,4,4,4,4,4,4,4,4,4,4,4,4,4,4,4,4,4,4,4,4,4,4,4,4,4,4,4,4,4,4,4,100,,,,,,,,,,,,,,,,,,,,,,,,,,,,,,,,,,,,,,,,,,,,,,,,,,,,,,,,,,,,,,,,,,,,,,,,,,,,,,,,,,,,,,,,,,,,,,,,,,,,,,,,,,,,,,,,,,,,,,,,,,,,,,,,,,,,,,,,,,,,,,,,,,,,,,,,,,,,,,,,,,,,,,,,,,,,,,,,,,,,,,,,,,,,,,,,,,,,,,,,,,,,,,
1764666581.684343,62115,0,4372.563965,4374.871582,4493.077148,4509.102539,4381.410156,4505,4505.641113,4372.307617,4550.512695,4345.512695,4475.641113,4503.717773,4552.05127,4391.410156,4370.128418,4490,4524.871582,4516.794922,4492.179688,4375.128418,4375.641113,4551.922852,4489.615234,4481.025879,4399.230957,4581.025879,4372.692383,4538.974121,4498.717773,4387.436035,4497.563965,4483.717773,2860,1,18,2562,16385,,,,0,4,4,4,4,4,4,4,4,4,4,4,4,4,4,4,4,4,4,4,4,4,4,4,4,4,4,4,4,4,4,4,4,100,,,,,,,,,,,,,,,,,,,,,,,,,,,,,,,,,,,,,,,,,,,,,,,,,,,,,,,,,,,,,,,,,,,,,,,,,,,,,,,,,,,,,,,,,,,,,,,,,,,,,,,,,,,,,,,,,,,,,,,,,,,,,,,,,,,,,,,,,,,,,,,,,,,,,,,,,,,,,,,,,,,,,,,,,,,,,,,,,,,,,,,,,,,,,,,,,,,,,,,,,,,,,,
1764666581.688249,62116,0,4367.94873,4372.94873,4495,4511.538574,4378.974121,4501.538574,4507.692383,4368.205078,4549.230957,4343.205078,4477.179688,4500,4547.05127,4390.384766,4370.641113,4492.563965,4519.615234,4516.794922,4487.820313,4371.538574,4374.487305,4549.871582,4485.256348,4475.897461,4394.487305,4578.077148,4374.487305,4536.794922,4497.307617,4391.794922,4496.794922,4473.846191,2739,1,18,2048,16393,,,,0,4,4,4,4,4,4,4,4,4,4,4,4,4,4,4,4,4,4,4,4,4,4,4,4,4,4,4,4,4,4,4,4,100,,,,,,,,,,,,,,,,,,,,,,,,,,,,,,,,,,,,,,,,,,,,,,,,,,,,,,,,,,,,,,,,,,,,,,,,,,,,,,,,,,,,,,,,,,,,,,,,,,,,,,,,,,,,,,,,,,,,,,,,,,,,,,,,,,,,,,,,,,,,,,,,,,,,,,,,,,,,,,,,,,,,,,,,,,,,,,,,,,,,,,,,,,,,,,,,,,,,,,,,,,,,,,
1764666581.692155,62117,0,4365.769043,4373.717773,4495.384766,4517.692383,4380.384766,4501.538574,4513.461426,4368.333496,4552.94873,4351.282227,4476.922852,4501.282227,4547.436035,4390,4371.922852,4495.512695,4518.589844,4519.743652,4487.820313,4372.436035,4375.384766,4549.615234,4485.384766,4472.563965,4382.307617,4576.538574,4378.077148,4537.179688,4497.563965,4400.897461,4503.461426,4468.974121,2792,1,18,2048,16393,,,,0,4,4,4,4,4,4,4,4,4,4,4,4,4,4,4,4,4,4,4,4,4,4,4,4,4,4,4,4,4,4,4,4,100,,,,,,,,,,,,,,,,,,,,,,,,,,,,,,,,,,,48297,0,0.539841,-0.421326,-0.285095,0.670654,0.968868,-0.268099,0.079111,4.666667,43.5,-22.166666,,,,,,,,,,,,,,,,,,,,,,,,,,,,,,,,,,,,,,,,,,,,,,,,,,,,,,,,,,,,,,,,,,,,,,,,,,,,,,,,,,,,,,,,,,,,,,,,,,,,,,,,,,,,,,,,,,,,,,,,,,,,,,,,,,,,,,,,,,,,,,,,,,,,,,,,,,,,,,,,
1764666581.696061,62118,0,4366.666504,4376.794922,4495.897461,4525.769043,4383.589844,4503.589844,4518.974121,4371.282227,4560.641113,4366.794922,4476.025879,4505.256348,4551.538574,4388.846191,4372.692383,4496.282227,4521.282227,4522.307617,4490,4377.179688,4377.307617,4550.384766,4489.487305,4473.077148,4372.94873,4578.717773,4382.692383,4539.230957,4498.717773,4410.641113,4514.358887,4474.871582,2806,1,18,768,16401,,,,0,4,4,4,4,4,4,4,4,4,4,4,4,4,4,4,4,4,4,4,4,4,4,4,4,4,4,4,4,4,4,4,4,100,,,,,,,,,,,,,,,,,,,,,,,,,,,,,,,,,,,,,,,,,,,,,,,,,,,,,,,,,,,,,,,,,,,,,,,,,,,,,,,,,,,,,,,,,,,,,,,,,,,,,,,,,,,,,,,,,,,,,,,,,,,,,,,,,,,,,,,,,,,,,,,,,,,,,,,,,,,,,,,,,,,,,,,,,,,,,,,,,,,,,,,,,,,,,,,,,,,,,,,,,,,,,,
1764666581.699967,62119,0,4370.256348,4380.897461,4496.282227,4532.436035,4387.563965,4505.897461,4521.922852,4375,4568.846191,4381.666504,4477.05127,4508.461426,4555.641113,4386.153809,4373.333496,4494.743652,4525.128418,4523.077148,4492.436035,4383.333496,4379.487305,4551.922852,4495.256348,4477.179688,4374.615234,4583.333496,4386.410156,4541.538574,4500.384766,4417.179688,4524.102539,4488.846191,2987,1,18,768,16401,,,,0,4,4,4,4,4,4,4,4,4,4,4,4,4,4,4,4,4,4,4,4,4,4,4,4,4,4,4,4,4,4,4,4,100,,,,,,,,,,,,,,,,,,,,,,,,,,,,,,,,,,,,,,,,,,,,,,,,,,,,,,,,,,,,,,,,,,,,,,,,,,,,,,,,,,,,,,,,,,,,,,,,,,,,,,,,,,,,,,,,,,,,,,,,,,,,,,,,,,,,,,,,,,,,,,,,,,,,,,,,,,,,,,,,,,,,,,,,,,,,,,,,,,,,,,,,,,,,,,,,,,,,,,,,,,,,,,
1764666581.703873,62120,0,4374.358887,4383.717773,4494.871582,4534.871582,4392.563965,4506.666504,4522.436035,4377.692383,4573.974121,4387.820313,4481.025879,4508.974121,4557.05127,4383.333496,4375,4493.077148,4527.05127,4522.94873,4495.512695,4389.102539,4381.666504,4553.461426,4499.871582,4482.179688,4387.05127,4586.025879,4387.307617,4542.563965,4502.05127,4418.589844,4527.05127,4501.794922,2899,1,18,512,16409,,,,0,4,4,4,4,4,4,4,4,4,4,4,4,4,4,4,4,4,4,4,4,4,4,4,4,4,4,4,4,4,4,4,4,100,,,,,,,,,,,,,,,,,,,,,,,,,,,,,,,,,,,,,,,,,,,,,,,,,,,,,,,,,,,,,,,,,,,,,,,,,,,,,,,,,,,,,,,,,,,,,,,,,,,,,,,,,,,,,,,,,,,,,,,,,,,,,,,,,,,,,,,,,,,,,,,,,,,,,,,,,,,,,,,,,,,,,,,,,,,,,,,,,,,,,,,,,,,,,,,,,,,,,,,,,,,,,,
1764666581.707779,62121,0,4376.666504,4383.846191,4490.769043,4532.436035,4398.461426,4506.282227,4523.077148,4378.974121,4573.846191,4383.077148,4486.282227,4507.179688,4555.512695,4382.94873,4378.205078,4493.077148,4526.025879,4523.846191,4499.871582,4393.333496,4383.205078,4554.230957,4501.025879,4484.102539,4401.794922,4583.846191,4384.615234,4541.282227,4503.205078,4415,4521.153809,4506.282227,2728,1,18,512,16409,,,,0,4,4,4,4,4,4,4,4,4,4,4,4,4,4,4,4,4,4,4,4,4,4,4,4,4,4,4,4,4,4,4,4,100,,,,,,,,,,,,,,,,,,,,,,,,,,,,,,,,,,,48298,0,0.539797,-0.421326,-0.285034,0.670715,0.966915,-0.260286,0.070321,4,43.666668,-19.166666,,,,,,,,,,,,,,,,,,,,,,,,,,,,,,,,,,,,,,,,,,,,,,,,,,,,,,,,,,,,,,,,,,,,,,,,,,,,,,,,,,,,,,,,,,,,,,,,,,,,,,,,,,,,,,,,,,,,,,,,,,,,,,,,,,,,,,,,,,,,,,,,,,,,,,,,,,,,,,,,
1764666581.711685,62122,0,4375.897461,4381.794922,4486.538574,4526.794922,4403.205078,4506.153809,4525.897461,4380.128418,4569.358887,4371.666504,4490.128418,4505.641113,4553.717773,4386.025879,4381.922852,4494.102539,4523.589844,4526.153809,4505.128418,4394.743652,4383.205078,4553.974121,4498.589844,4481.538574,4408.333496,4577.436035,4379.358887,4537.94873,4502.94873,4408.205078,4508.974121,4501.922852,1476,1,18,768,16417,,,,0,4,4,4,4,4,4,4,4,4,4,4,4,4,4,4,4,4,4,4,4,4,4,4,4,4,4,4,4,4,4,4,4,100,,,,,,,,,,,,,,,,,,,,,,,,,,,,,,,,,,,,,,,,,,,,,,,,,,,,,,,,,,,,,,,,,,,,,,,,,,,,,,,,,,,,,,,,,,,,,,,,,,,,,,,,,,,,,,,,,,,,,,,,,,,,,,,,,,,,,,,,,,,,,,,,,,,,,,,,,,,,,,,,,,,,,,,,,,,,,,,,,,,,,,,,,,,,,,,,,,,,,,,,,,,,,,
1764666581.715591,62123,0,4372.94873,4379.743652,4485.769043,4521.410156,4403.717773,4507.563965,4530.897461,4382.563965,4564.230957,4361.410156,4490.897461,4506.922852,4554.871582,4391.153809,4384.487305,4494.358887,4522.692383,4529.230957,4509.230957,4392.94873,4381.153809,4553.077148,4494.871582,4476.922852,4402.94873,4571.538574,4373.974121,4535,4501.794922,4401.025879,4497.563965,4495.641113,2719,1,18,768,16417,,,,0,4,4,4,4,4,4,4,4,4,4,4,4,4,4,4,4,4,4,4,4,4,4,4,4,4,4,4,4,4,4,4,4,100,,,,,,,,,,,,,,,,,,,,,,,,,,,,,,,,,,,,,,,,,,,,,,,,,,,,,,,,,,,,,,,,,,,,,,,,,,,,,,,,,,,,,,,,,,,,,,,,,,,,,,,,,,,,,,,,,,,,,,,,,,,,,,,,,,,,,,,,,,,,,,,,,,,,,,,,,,,,,,,,,,,,,,,,,,,,,,,,,,,,,,,,,,,,,,,,,,,,,,,,,,,,,,
1764666581.719497,62124,0,4370.897461,4380.384766,4489.487305,4519.871582,4399.230957,4511.282227,4535.769043,4387.05127,4562.820313,4358.461426,4489.871582,4511.666504,4560.384766,4395.384766,4385.384766,4493.461426,4525.641113,4532.05127,4511.025879,4389.487305,4378.846191,4553.461426,4493.205078,4475,4391.538574,4570.897461,4371.282227,4535.256348,4501.153809,4395.897461,4493.974121,4494.487305,2530,1,18,1024,16424,,,,0,4,4,4,4,4,4,4,4,4,4,4,4,4,4,4,4,4,4,4,4,4,4,4,4,4,4,4,4,4,4,4,4,100,,,,,,,,,,,,,,,,,,,,,,,,,,,,,,,,,,,,,,,,,,,,,,,,,,,,,,,,,,,,,,,,,,,,,,,,,,,,,,,,,,,,,,,,,,,,,,,,,,,,,,,,,,,,,,,,,,,,,,,,,,,,,,,,,,,,,,,,,,,,,,,,,,,,,,,,,,,,,,,,,,,,,,,,,,,,,,,,,,,,,,,,,,,,,,,,,,,,,,,,,,,,,,
1764666581.723403,62125,0,4372.05127,4383.974121,4493.974121,4523.205078,4392.436035,4516.025879,4538.205078,4392.05127,4566.794922,4363.589844,4489.871582,4518.205078,4568.333496,4396.922852,4385.384766,4493.461426,4531.922852,4534.487305,4510.897461,4387.307617,4379.102539,4556.922852,4496.025879,4478.589844,4384.230957,4577.05127,4373.077148,4540.256348,4502.436035,4393.461426,4499.871582,4500,2318,1,18,1024,16424,,,,0,4,4,4,4,4,4,4,4,4,4,4,4,4,4,4,4,4,4,4,4,4,4,4,4,4,4,4,4,4,4,4,4,100,,,,,,,,,,,,,,,,,,,,,,,,,,,,,,,,,,,48299,0,0.53989,-0.421387,-0.284912,0.670654,0.971798,-0.248077,0.083995,7,42,-21,,,,,,,,,,,,,,,,,,,,,,,,,,,,,,,,,,,,,,,,,,,,,,,,,,,,,,,,,,,,,,,,,,,,,,,,,,,,,,,,,,,,,,,,,,,,,,,,,,,,,,,,,,,,,,,,,,,,,,,,,,,,,,,,,,,,,,,,,,,,,,,,,,,,,,,,,,,,,,,,
1764666581.727309,62126,0,4376.666504,4388.717773,4494.102539,4528.589844,4387.563965,4519.743652,4537.820313,4395.128418,4573.717773,4371.282227,4492.307617,4524.102539,4574.743652,4396.410156,4386.282227,4496.153809,4538.589844,4536.538574,4510,4387.94873,4383.077148,4562.94873,4502.563965,4485.384766,4385.641113,4586.282227,4378.974121,4547.94873,4504.871582,4393.846191,4510,4506.666504,2723,1,18,1280,16432,,,,0,4,4,4,4,4,4,4,4,4,4,4,4,4,4,4,4,4,4,4,4,4,4,4,4,4,4,4,4,4,4,4,4,100,,,,,,,,,,,,,,,,,,,,,,,,,,,,,,,,,,,,,,,,,,,,,,,,,,,,,,,,,,,,,,,,,,,,,,,,,,,,,,,,,,,,,,,,,,,,,,,,,,,,,,,,,,,,,,,,,,,,,,,,,,,,,,,,,,,,,,,,,,,,,,,,,,,,,,,,,,,,,,,,,,,,,,,,,,,,,,,,,,,,,,,,,,,,,,,,,,,,,,,,,,,,,,
1764666581.731215,62127,0,4381.922852,4391.282227,4488.846191,4531.153809,4386.666504,4520.769043,4536.153809,4393.846191,4578.717773,4373.974121,4494.871582,4526.538574,4576.410156,4395.512695,4388.589844,4501.025879,4542.05127,4538.077148,4508.461426,4390.128418,4388.717773,4567.820313,4508.589844,4489.871582,4389.743652,4591.538574,4385.641113,4553.974121,4506.538574,4396.538574,4516.410156,4506.153809,2519,1,18,1280,16432,,,,0,4,4,4,4,4,4,4,4,4,4,4,4,4,4,4,4,4,4,4,4,4,4,4,4,4,4,4,4,4,4,4,4,100,,,,,,,,,,,,,,,,,,,,,,,,,,,,,,,,,,,,,,,,,,,,,,,,,,,,,,,,,,,,,,,,,,,,,,,,,,,,,,,,,,,,,,,,,,,,,,,,,,,,,,,,,,,,,,,,,,,,,,,,,,,,,,,,,,,,,,,,,,,,,,,,,,,,,,,,,,,,,,,,,,,,,,,,,,,,,,,,,,,,,,,,,,,,,,,,,,,,,,,,,,,,,,
1764666581.735121,62128,0,4383.846191,4389.102539,4481.794922,4528.717773,4388.205078,4518.333496,4533.846191,4388.333496,4577.94873,4367.692383,4494.102539,4524.743652,4573.461426,4395.384766,4390.128418,4504.743652,4540.897461,4538.077148,4505.769043,4391.153809,4391.538574,4567.94873,4509.615234,4487.307617,4386.538574,4588.333496,4388.717773,4554.230957,4505.384766,4400.256348,4515,4494.743652,2885,1,18,1536,16440,,,,0,4,4,4,4,4,4,4,4,4,4,4,4,4,4,4,4,4,4,4,4,4,4,4,4,4,4,4,4,4,4,4,4,100,,,,,,,,,,,,,,,,,,,,,,,,,,,,,,,,,,,,,,,,,,,,,,,,,,,,,,,,,,,,,,,,,,,,,,,,,,,,,,,,,,,,,,,,,,,,,,,,,,,,,,,,,,,,,,,,,,,,,,,,,,,,,,,,,,,,,,,,,,,,,,,,,,,,,,,,,,,,,,,,,,,,,,,,,,,,,,,,,,,,,,,,,,,,,,,,,,,,,,,,,,,,,,
1764666581.739027,62129,0,4380.128418,4382.563965,4478.846191,4522.179688,4388.974121,4512.820313,4530.512695,4381.282227,4570.641113,4355,4488.461426,4519.743652,4567.820313,4394.743652,4388.077148,4503.333496,4536.025879,4535.512695,4502.05127,4389.358887,4388.461426,4562.563965,4504.615234,4477.563965,4371.538574,4577.563965,4386.025879,4547.692383,4501.410156,4402.179688,4508.974121,4477.820313,2896,1,18,1536,16440,,,,0,4,4,4,4,4,4,4,4,4,4,4,4,4,4,4,4,4,4,4,4,4,4,4,4,4,4,4,4,4,4,4,4,100,,,,,,,,,,,,,,,,,,,,,,,,,,,,,,,,,,,48300,0,0.539974,-0.421265,-0.28479,0.670715,0.971798,-0.248077,0.083995,5,44,-21.833334,,,,,,,,,,,,,,,,,,,,,,,,,,,,,,,,,,,,,,,,,,,,,,,,,,,,,,,,,,,,,,,,,,,,,,,,,,,,,,,,,,,,,,,,,,,,,,,,,,,,,,,,,,,,,,,,,,,,,,,,,,,,,,,,,,,,,,,,,,,,,,,,,,,,,,,,,,,,,,,,
1764666581.742933,62130,0,4371.922852,4374.102539,4481.666504,4514.743652,4386.538574,4505,4525.128418,4376.153809,4560.512695,4343.717773,4480.512695,4513.333496,4561.410156,4391.410156,4381.153809,4496.282227,4529.487305,4530.384766,4497.94873,4384.230957,4379.615234,4553.846191,4495.512695,4465.128418,4349.487305,4564.743652,4378.717773,4537.05127,4495.512695,4399.487305,4505,4465.769043,1764,1,18,1792,16448,,,,0,4,4,4,4,4,4,4,4,4,4,4,4,4,4,4,4,4,4,4,4,4,4,4,4,4,4,4,4,4,4,4,4,100,,,,,,,,,,,,,,,,,,,,,,,,,,,,,,,,,,,,,,,,,,,,,,,,,,,,,,,,,,,,,,,,,,,,,,,,,,,,,,,,,,,,,,,,,,,,,,,,,,,,,,,,,,,,,,,,,,,,,,,,,,,,,,,,,,,,,,,,,,,,,,,,,,,,,,,,,,,,,,,,,,,,,,,,,,,,,,,,,,,,,,,,,,,,,,,,,,,,,,,,,,,,,,
1764666581.746839,62131,0,4361.666504,4366.153809,4486.794922,4509.358887,4380.256348,4496.666504,4517.94873,4373.846191,4552.563965,4339.615234,4473.846191,4506.282227,4555.128418,4384.615234,4371.282227,4486.538574,4522.692383,4523.077148,4493.717773,4376.538574,4367.94873,4544.743652,4486.025879,4455.512695,4331.922852,4555.512695,4369.871582,4527.179688,4489.230957,4391.666504,4506.025879,4466.153809,2840,1,18,1792,16448,,,,0,4,4,4,4,4,4,4,4,4,4,4,4,4,4,4,4,4,4,4,4,4,4,4,4,4,4,4,4,4,4,4,4,100,,,,,,,,,,,,,,,,,,,,,,,,,,,,,,,,,,,,,,,,,,,,,,,,,,,,,,,,,,,,,,,,,,,,,,,,,,,,,,,,,,,,,,,,,,,,,,,,,,,,,,,,,,,,,,,,,,,,,,,,,,,,,,,,,,,,,,,,,,,,,,,,,,,,,,,,,,,,,,,,,,,,,,,,,,,,,,,,,,,,,,,,,,,,,,,,,,,,,,,,,,,,,,
1764666581.750745,62132,0,4352.94873,4360.384766,4489.358887,4506.538574,4372.436035,4489.102539,4510.256348,4372.563965,4549.743652,4343.461426,4470.512695,4499.230957,4548.974121,4376.282227,4362.563965,4478.974121,4516.794922,4514.358887,4488.846191,4368.717773,4357.307617,4537.563965,4478.589844,4451.666504,4330.897461,4551.666504,4362.436035,4521.025879,4483.974121,4381.538574,4508.333496,4477.563965,2556,1,18,2048,16456,,,,0,4,4,4,4,4,4,4,4,4,4,4,4,4,4,4,4,4,4,4,4,4,4,4,4,4,4,4,4,4,4,4,4,100,,,,,,,,,,,,,,,,,,,,,,,,,,,,,,,,,,,,,,,,,,,,,,,1.916807,2.398745,2.63812,0.757353,0.543757,2.505962,4.22064,3.365165,0.982705,0.789572,5.041498,5.96828,7.701161,3.458699,3.81178,1.149843,3.250982,2.872524,1.785509,0.91928,2.439328,3.823489,2.534774,2.668464,1.092644,1.891706,3.644284,2.72853,0.887885,0.475719,1.617503,2.740772,2.326024,1.053857,0.630244,1.222735,2.347302,2.096283,1.707045,0.874773,0.847082,2.123569,3.045743,0.586131,0.593683,0.712933,2.280642,4.647667,4.086697,1.514723,1.359598,1.920348,1.942492,0.853766,0.360053,1.518131,2.829831,2.147006,0.744881,0.464922,0.799699,3.17711,2.434668,0.810677,0.479726,1.082332,1.131308,1.424485,0.660428,0.350221,0.423131,2.132749,2.346215,0.733553,0.671785,0.30663,1.927073,2.402552,0.783472,0.65614,2.154504,3.417291,2.55116,1.174801,0.708715,0.640655,6.094721,4.447072,1.735353,1.249836,0.657901,3.722111,2.954269,0.896973,0.870211,0.743706,4.905049,3.132621,1.120414,0.850616,1.362025,4.049726,2.818642,1.683022,0.973919,1.283773,4.840634,3.803134,1.172983,0.855949,1.634867,3.014638,2.030552,0.789238,0.734434,1.452759,4.268817,3.78989,0.981128,0.828617,1.690979,2.372355,4.091096,6.617987,3.466653,1.296951,4.40635,3.492258,0.823412,0.569845,1.84583,4.668936,3.375086,0.74252,1.33241,2.155293,3.793392,2.905185,0.814542,0.737701,0.863272,1.718114,1.507772,0.344158,0.267923,1.733523,3.492132,3.22768,1.346958,0.756221,2.004394,5.279709,3.634973,1.066065,1.714576,3.599889,4.317983,5.166374,5.384549,1.884326
1764666581.754651,62133,0,4347.94873,4357.436035,4486.922852,4505.641113,4366.410156,4483.846191,4504.358887,4369.102539,4551.025879,4350.769043,4470,4493.077148,4543.333496,4370.128418,4357.692383,4477.436035,4512.307617,4507.05127,4484.102539,4363.846191,4351.666504,4533.974121,4474.358887,4453.333496,4350.641113,4551.666504,4357.05127,4519.230957,4481.153809,4373.846191,4505,4490.897461,2843,1,18,2048,16456,,,,0,4,4,4,4,4,4,4,4,4,4,4,4,4,4,4,4,4,4,4,4,4,4,4,4,4,4,4,4,4,4,4,4,100,,,,,,,,,,,,,,,,,,,,,,,,,,,,,,,,,,,48301,0,0.539991,-0.421326,-0.284668,0.670715,0.963008,-0.270052,0.072763,5.833333,44,-21,,,,,,,,,,,,,,,,,,,,,,,,,,,,,,,,,,,,,,,,,,,,,,,,,,,,,,,,,,,,,,,,,,,,,,,,,,,,,,,,,,,,,,,,,,,,,,,,,,,,,,,,,,,,,,,,,,,,,,,,,,,,,,,,,,,,,,,,,,,,,,,,,,,,,,,,,,,,,,,,
1764666581.758557,62134,0,4347.436035,4356.666504,4481.025879,4505.769043,4365.384766,4481.922852,4501.666504,4361.794922,4553.461426,4356.538574,4469.615234,4489.230957,4539.358887,4369.230957,4357.820313,4482.05127,4509.743652,4504.743652,4482.307617,4364.615234,4353.461426,4534.615234,4473.461426,4457.307617,4383.077148,4553.077148,4353.846191,4520.128418,4480.769043,4372.05127,4494.230957,4495.897461,2942,1,18,2304,16463,,,,0,4,4,4,4,4,4,4,4,4,4,4,4,4,4,4,4,4,4,4,4,4,4,4,4,4,4,4,4,4,4,4,4,100,,,,,,,,,,,,,,,,,,,,,,,,,,,,,,,,,,,,,,,,,,,,,,,,,,,,,,,,,,,,,,,,,,,,,,,,,,,,,,,,,,,,,,,,,,,,,,,,,,,,,,,,,,,,,,,,,,,,,,,,,,,,,,,,,,,,,,,,,,,,,,,,,,,,,,,,,,,,,,,,,,,,,,,,,,,,,,,,,,,,,,,,,,,,,,,,,,,,,,,,,,,,,,
1764666581.762463,62135,0,4350,4356.666504,4474.358887,4506.666504,4369.615234,4483.717773,4502.307617,4353.333496,4554.615234,4358.333496,4467.692383,4488.717773,4538.333496,4374.358887,4361.282227,4489.615234,4509.871582,4509.615234,4485.769043,4370.256348,4361.538574,4538.589844,4475.384766,4461.025879,4410.897461,4554.743652,4352.820313,4521.666504,4482.307617,4375.384766,4481.153809,4488.589844,2843,1,18,2304,16463,,,,0,4,4,4,4,4,4,4,4,4,4,4,4,4,4,4,4,4,4,4,4,4,4,4,4,4,4,4,4,4,4,4,4,100,,,,,,,,,,,,,,,,,,,,,,,,,,,,,,,,,,,,,,,,,,,,,,,,,,,,,,,,,,,,,,,,,,,,,,,,,,,,,,,,,,,,,,,,,,,,,,,,,,,,,,,,,,,,,,,,,,,,,,,,,,,,,,,,,,,,,,,,,,,,,,,,,,,,,,,,,,,,,,,,,,,,,,,,,,,,,,,,,,,,,,,,,,,,,,,,,,,,,,,,,,,,,,
1764666581.766369,62136,0,4353.205078,4356.282227,4469.102539,4507.692383,4375.769043,4487.820313,4505.128418,4348.205078,4553.461426,4356.410156,4465.384766,4491.410156,4540,4382.436035,4365.897461,4495.512695,4512.307617,4519.358887,4494.230957,4377.05127,4370.769043,4543.205078,4479.230957,4463.077148,4417.307617,4556.282227,4354.743652,4522.820313,4484.358887,4379.871582,4473.333496,4473.589844,2734,1,18,2560,16471,,,,0,4,4,4,4,4,4,4,4,4,4,4,4,4,4,4,4,4,4,4,4,4,4,4,4,4,4,4,4,4,4,4,4,100,,,,,,,,,,,,,,,,,,,,,,,,,,,,,,,,,,,,,,,,,,,,,,,,,,,,,,,,,,,,,,,,,,,,,,,,,,,,,,,,,,,,,,,,,,,,,,,,,,,,,,,,,,,,,,,,,,,,,,,,,,,,,,,,,,,,,,,,,,,,,,,,,,,,,,,,,,,,,,,,,,,,,,,,,,,,,,,,,,,,,,,,,,,,,,,,,,,,,,,,,,,,,,
1764666581.770275,62137,0,4355,4355.384766,4466.025879,4507.436035,4379.487305,4491.666504,4507.436035,4348.974121,4551.025879,4352.179688,4465.256348,4495.897461,4542.692383,4388.461426,4369.102539,4496.538574,4515.769043,4527.179688,4502.307617,4379.871582,4374.615234,4545.641113,4482.436035,4463.333496,4397.179688,4556.794922,4358.333496,4523.333496,4485.512695,4381.282227,4473.461426,4458.974121,2865,1,18,2560,16471,,,,0,4,4,4,4,4,4,4,4,4,4,4,4,4,4,4,4,4,4,4,4,4,4,4,4,4,4,4,4,4,4,4,4,100,,,,,,,,,,,,,,,,,,,,,,,,,,,,,,,,,,,48302,0,0.539927,-0.421448,-0.284607,0.670715,0.959101,-0.260286,0.075204,4.833333,45,-21.166666,,,,,,,,,,,,,,,,,,,,,,,,,,,,,,,,,,,,,,,,,,,,,,,,,,,,,,,,,,,,,,,,,,,,,,,,,,,,,,,,,,,,,,,,,,,,,,,,,,,,,,,,,,,,,,,,,,,,,,,,,,,,,,,,,,,,,,,,,,,,,,,,,,,,,,,,,,,,,,,,
1764666581.774181,62138,0,4354.358887,4354.102539,4464.743652,4504.102539,4378.077148,4491.922852,4506.922852,4353.205078,4548.461426,4346.794922,4468.205078,4499.615234,4543.846191,4388.589844,4369.871582,4493.205078,4517.692383,4526.666504,4503.589844,4375.128418,4369.230957,4543.205078,4481.922852,4461.538574,4360.641113,4554.230957,4360.512695,4522.307617,4485.128418,4377.692383,4478.717773,4450,1960,1,18,2560,16479,,,,0,4,4,4,4,4,4,4,4,4,4,4,4,4,4,4,4,4,4,4,4,4,4,4,4,4,4,4,4,4,4,4,4,100,,,,,,,,,,,,,,,,,,,,,,,,,,,,,,,,,,,,,,,,,,,,,,,,,,,,,,,,,,,,,,,,,,,,,,,,,,,,,,,,,,,,,,,,,,,,,,,,,,,,,,,,,,,,,,,,,,,,,,,,,,,,,,,,,,,,,,,,,,,,,,,,,,,,,,,,,,,,,,,,,,,,,,,,,,,,,,,,,,,,,,,,,,,,,,,,,,,,,,,,,,,,,,
1764666581.778087,62139,0,4351.025879,4352.05127,4464.871582,4497.820313,4371.282227,4487.436035,4502.05127,4355.769043,4546.025879,4340.641113,4472.307617,4499.487305,4541.538574,4382.94873,4367.692383,4488.205078,4515.641113,4515.512695,4494.615234,4363.589844,4356.282227,4535.641113,4475.512695,4455.769043,4326.410156,4546.794922,4357.692383,4518.974121,4482.94873,4369.743652,4483.333496,4447.563965,2628,1,18,2560,16479,,,,0,4,4,4,4,4,4,4,4,4,4,4,4,4,4,4,4,4,4,4,4,4,4,4,4,4,4,4,4,4,4,4,4,100,,,,,,,,,,,,,,,,,,,,,,,,,,,,,,,,,,,,,,,,,,,,,,,,,,,,,,,,,,,,,,,,,,,,,,,,,,,,,,,,,,,,,,,,,,,,,,,,,,,,,,,,,,,,,,,,,,,,,,,,,,,,,,,,,,,,,,,,,,,,,,,,,,,,,,,,,,,,,,,,,,,,,,,,,,,,,,,,,,,,,,,,,,,,,,,,,,,,,,,,,,,,,,
1764666581.781993,62140,0,4346.025879,4348.717773,4465.897461,4490.769043,4361.153809,4479.871582,4493.589844,4353.333496,4542.692383,4333.333496,4473.974121,4494.743652,4535.897461,4374.102539,4362.692383,4483.589844,4508.974121,4498.333496,4478.974121,4349.743652,4341.794922,4524.871582,4464.358887,4446.282227,4310.512695,4535.897461,4348.717773,4512.692383,4479.743652,4360.384766,4483.461426,4449.358887,2730,1,18,2560,16487,,,,0,4,4,4,4,4,4,4,4,4,4,4,4,4,4,4,4,4,4,4,4,4,4,4,4,4,4,4,4,4,4,4,4,100,,,,,,,,,,,,,,,,,,,,,,,,,,,,,,,,,,,,,,,,,,,,,,,,,,,,,,,,,,,,,,,,,,,,,,,,,,,,,,,,,,,,,,,,,,,,,,,,,,,,,,,,,,,,,,,,,,,,,,,,,,,,,,,,,,,,,,,,,,,,,,,,,,,,,,,,,,,,,,,,,,,,,,,,,,,,,,,,,,,,,,,,,,,,,,,,,,,,,,,,,,,,,,
1764666581.785899,62141,0,4341.794922,4345,4466.410156,4486.282227,4351.666504,4473.846191,4485.897461,4348.333496,4538.461426,4325.769043,4472.307617,4487.436035,4529.743652,4366.153809,4356.282227,4480.256348,4501.025879,4484.230957,4465.512695,4339.487305,4333.461426,4515.256348,4453.333496,4436.410156,4317.94873,4525.641113,4337.179688,4505.384766,4476.922852,4353.205078,4479.358887,4453.589844,2574,1,18,2560,16487,,,,0,4,4,4,4,4,4,4,4,4,4,4,4,4,4,4,4,4,4,4,4,4,4,4,4,4,4,4,4,4,4,4,4,100,,,,,,,,,,,,,,,,,,,,,,,,,,,,,,,,,,,48303,0,0.539856,-0.421692,-0.284668,0.670593,0.967403,-0.252961,0.085948,4.333333,45.333332,-20.833334,,,,,,,,,,,,,,,,,,,,,,,,,,,,,,,,,,,,,,,,,,,,,,,,,,,,,,,,,,,,,,,,,,,,,,,,,,,,,,,,,,,,,,,,,,,,,,,,,,,,,,,,,,,,,,,,,,,,,,,,,,,,,,,,,,,,,,,,,,,,,,,,,,,,,,,,,,,,,,,,
1764666581.789805,62142,0,4341.025879,4343.461426,4465,4487.05127,4347.563965,4473.333496,4484.230957,4346.794922,4535.641113,4322.307617,4469.871582,4482.05127,4527.179688,4362.820313,4351.538574,4478.589844,4496.282227,4481.538574,4462.692383,4337.820313,4335.641113,4511.922852,4448.717773,4432.820313,4342.307617,4521.794922,4329.871582,4501.153809,4476.410156,4351.794922,4475,4459.487305,2704,1,18,2561,16495,,,,0,4,4,4,4,4,4,4,4,4,4,4,4,4,4,4,4,4,4,4,4,4,4,4,4,4,4,4,4,4,4,4,4,100,,,,,,,,,,,,,,,,,,,,,,,,,,,,,,,,,,,,,,,,,,,,,,,,,,,,,,,,,,,,,,,,,,,,,,,,,,,,,,,,,,,,,,,,,,,,,,,,,,,,,,,,,,,,,,,,,,,,,,,,,,,,,,,,,,,,,,,,,,,,,,,,,,,,,,,,,,,,,,,,,,,,,,,,,,,,,,,,,,,,,,,,,,,,,,,,,,,,,,,,,,,,,,
1764666581.793711,62143,0,4345.769043,4347.05127,4461.666504,4493.589844,4353.461426,4480.128418,4491.153809,4352.307617,4537.692383,4328.589844,4470.769043,4483.077148,4531.282227,4365.769043,4351.410156,4479.615234,4498.461426,4491.794922,4472.94873,4345.897461,4347.692383,4517.179688,4454.615234,4439.102539,4370.512695,4527.563965,4332.94873,4503.589844,4479.230957,4357.94873,4475.256348,4467.179688,2834,1,18,2561,16495,,,,0,4,4,4,4,4,4,4,4,4,4,4,4,4,4,4,4,4,4,4,4,4,4,4,4,4,4,4,4,4,4,4,4,100,,,,,,,,,,,,,,,,,,,,,,,,,,,,,,,,,,,,,,,,,,,,,,,,,,,,,,,,,,,,,,,,,,,,,,,,,,,,,,,,,,,,,,,,,,,,,,,,,,,,,,,,,,,,,,,,,,,,,,,,,,,,,,,,,,,,,,,,,,,,,,,,,,,,,,,,,,,,,,,,,,,,,,,,,,,,,,,,,,,,,,,,,,,,,,,,,,,,,,,,,,,,,,
1764666581.797617,62144,0,4355.384766,4356.794922,4459.358887,4505.128418,4369.358887,4491.666504,4504.487305,4362.94873,4546.410156,4346.025879,4476.922852,4491.922852,4542.05127,4374.102539,4356.794922,4483.846191,4507.436035,4508.717773,4490.128418,4360,4363.333496,4529.102539,4469.487305,4452.820313,4389.615234,4541.538574,4347.307617,4513.461426,4485.256348,4370.128418,4482.436035,4476.794922,2793,1,18,1792,16503,,,,0,4,4,4,4,4,4,4,4,4,4,4,4,4,4,4,4,4,4,4,4,4,4,4,4,4,4,4,4,4,4,4,4,100,,,,,,,,,,,,,,,,,,,,,,,,,,,,,,,,,,,,,,,,,,,,,,,,,,,,,,,,,,,,,,,,,,,,,,,,,,,,,,,,,,,,,,,,,,,,,,,,,,,,,,,,,,,,,,,,,,,,,,,,,,,,,,,,,,,,,,,,,,,,,,,,,,,,,,,,,,,,,,,,,,,,,,,,,,,,,,,,,,,,,,,,,,,,,,,,,,,,,,,,,,,,,,
1764666581.801523,62145,0,4366.538574,4370,4462.820313,4518.846191,4389.230957,4502.94873,4518.461426,4372.436035,4558.589844,4368.205078,4486.794922,4504.871582,4555.128418,4383.589844,4365.769043,4490.512695,4519.615234,4523.461426,4504.871582,4373.205078,4376.025879,4542.692383,4486.538574,4467.179688,4393.461426,4557.436035,4367.436035,4526.922852,4492.94873,4384.102539,4494.487305,4487.436035,2931,1,18,1792,16503,,,,0,4,4,4,4,4,4,4,4,4,4,4,4,4,4,4,4,4,4,4,4,4,4,4,4,4,4,4,4,4,4,4,4,100,,,,,,,,,,,,,,,,,,,,,,,,,,,,,,,,,,,48304,0,0.539856,-0.421692,-0.284668,0.670593,0.959101,-0.259309,0.067879,4.333333,44.166668,-21.666666,,,,,,,,,,,,,,,,,,,,,,,,,,,,,,,,,,,,,,,,,,,,,,,,,,,,,,,,,,,,,,,,,,,,,,,,,,,,,,,,,,,,,,,,,,,,,,,,,,,,,,,,,,,,,,,,,,,,,,,,,,,,,,,,,,,,,,,,,,,,,,,,,,,,,,,,,,,,,,,,
1764666581.805429,62146,0,4375.128418,4382.436035,4475,4530.384766,4403.717773,4508.974121,4527.307617,4376.282227,4567.307617,4384.487305,4495.512695,4515.641113,4565.256348,4389.487305,4374.358887,4497.179688,4530,4530,4511.282227,4380.641113,4382.436035,4553.333496,4498.205078,4476.794922,4384.743652,4568.461426,4384.230957,4538.717773,4500.256348,4395.256348,4506.410156,4496.538574,2640,1,18,1024,16510,,,,0,4,4,4,4,4,4,4,4,4,4,4,4,4,4,4,4,4,4,4,4,4,4,4,4,4,4,4,4,4,4,4,4,100,,,,,,,,,,,,,,,,,,,,,,,,,,,,,,,,,,,,,,,,,,,,,,,,,,,,,,,,,,,,,,,,,,,,,,,,,,,,,,,,,,,,,,,,,,,,,,,,,,,,,,,,,,,,,,,,,,,,,,,,,,,,,,,,,,,,,,,,,,,,,,,,,,,,,,,,,,,,,,,,,,,,,,,,,,,,,,,,,,,,,,,,,,,,,,,,,,,,,,,,,,,,,,
1764666581.809335,62147,0,4378.589844,4390.128418,4492.307617,4535.256348,4406.153809,4508.846191,4528.717773,4375,4568.077148,4387.563965,4499.615234,4519.487305,4569.230957,4389.743652,4379.487305,4500.641113,4536.025879,4528.974121,4510.512695,4382.820313,4384.358887,4559.743652,4501.282227,4481.153809,4373.974121,4571.410156,4391.538574,4545.128418,4505.641113,4401.410156,4513.205078,4500.769043,2858,1,18,1024,16510,,,,0,4,4,4,4,4,4,4,4,4,4,4,4,4,4,4,4,4,4,4,4,4,4,4,4,4,4,4,4,4,4,4,4,100,,,,,,,,,,,,,,,,,,,,,,,,,,,,,,,,,,,,,,,,,,,,,,,,,,,,,,,,,,,,,,,,,,,,,,,,,,,,,,,,,,,,,,,,,,,,,,,,,,,,,,,,,,,,,,,,,,,,,,,,,,,,,,,,,,,,,,,,,,,,,,,,,,,,,,,,,,,,,,,,,,,,,,,,,,,,,,,,,,,,,,,,,,,,,,,,,,,,,,,,,,,,,,
