title:Happy4, start timestamp:1764666691.402959, stop timestamp:1764666702.995702, headset type:FLEX2, headset serial:F30002B4, headset firmware:2f10, channels:283, sampling rate:eeg_256;mot_64;pow_8, samples:2969      , version:2.2, ,,,,,,,,,,,,,,,,,,,,,,,,,,,,,,,,,,,,,,,,,,,,,,,,,,,,,,,,,,,,,,,,,,,,,,,,,,,,,,,,,,,,,,,,,,,,,,,,,,,,,,,,,,,,,,,,,,,,,,,,,,,,,,,,,,,,,,,,,,,,,,,,,,,,,,,,,,,,,,,,,,,,,,,,,,,,,,,,,,,,,,,,,,,,,,,,,,,,,,,,,,,,,,,,,,,,,,,,,,,,,,,,,,,,,,,,,,,,,,,,,,,,,,,,,,,,,,,,,,,,,,,,,,,,,,,,
Timestamp,EEG.Counter,EEG.Interpolated,EEG.Cz,EEG.Fz,EEG.Fp1,EEG.F7,EEG.F3,EEG.FC1,EEG.C3,EEG.FC5,EEG.FT9,EEG.T7,EEG.CP5,EEG.CP1,EEG.P3,EEG.P7,EEG.PO9,EEG.O1,EEG.Pz,EEG.Oz,EEG.O2,EEG.PO10,EEG.P8,EEG.P4,EEG.CP2,EEG.CP6,EEG.T8,EEG.FT10,EEG.FC6,EEG.C4,EEG.FC2,EEG.F4,EEG.F8,EEG.Fp2,EEG.RawCq,EEG.Battery,EEG.BatteryPercent,EEG.FwBufferSize,EEG.FwClockTime,MarkerIndex,MarkerType,MarkerValueInt,EEG.MarkerHardware,CQ.Cz,CQ.Fz,CQ.Fp1,CQ.F7,CQ.F3,CQ.FC1,CQ.C3,CQ.FC5,CQ.FT9,CQ.T7,CQ.CP5,CQ.CP1,CQ.P3,CQ.P7,CQ.PO9,CQ.O1,CQ.Pz,CQ.Oz,CQ.O2,CQ.PO10,CQ.P8,CQ.P4,CQ.CP2,CQ.CP6,CQ.T8,CQ.FT10,CQ.FC6,CQ.C4,CQ.FC2,CQ.F4,CQ.F8,CQ.Fp2,CQ.Overall,EQ.SampleRateQuality,EQ.OVERALL,EQ.Cz,EQ.Fz,EQ.Fp1,EQ.F7,EQ.F3,EQ.FC1,EQ.C3,EQ.FC5,EQ.FT9,EQ.T7,EQ.CP5,EQ.CP1,EQ.P3,EQ.P7,EQ.PO9,EQ.O1,EQ.Pz,EQ.Oz,EQ.O2,EQ.PO10,EQ.P8,EQ.P4,EQ.CP2,EQ.CP6,EQ.T8,EQ.FT10,EQ.FC6,EQ.C4,EQ.FC2,EQ.F4,EQ.F8,EQ.Fp2,MOT.CounterMems,MOT.InterpolatedMems,MOT.Q0,MOT.Q1,MOT.Q2,MOT.Q3,MOT.AccX,MOT.AccY,MOT.AccZ,MOT.MagX,MOT.MagY,MOT.MagZ,POW.Cz.Theta,POW.Cz.Alpha,POW.Cz.BetaL,POW.Cz.BetaH,POW.Cz.Gamma,POW.Fz.Theta,POW.Fz.Alpha,POW.Fz.BetaL,POW.Fz.BetaH,POW.Fz.Gamma,POW.Fp1.Theta,POW.Fp1.Alpha,POW.Fp1.BetaL,POW.Fp1.BetaH,POW.Fp1.Gamma,POW.F7.Theta,POW.F7.Alpha,POW.F7.BetaL,POW.F7.BetaH,POW.F7.Gamma,POW.F3.Theta,POW.F3.Alpha,POW.F3.BetaL,POW.F3.BetaH,POW.F3.Gamma,POW.FC1.Theta,POW.FC1.Alpha,POW.FC1.BetaL,POW.FC1.BetaH,POW.FC1.Gamma,POW.C3.Theta,POW.C3.Alpha,POW.C3.BetaL,POW.C3.BetaH,POW.C3.Gamma,POW.FC5.Theta,POW.FC5.Alpha,POW.FC5.BetaL,POW.FC5.BetaH,POW.FC5.Gamma,POW.FT9.Theta,POW.FT9.Alpha,POW.FT9.BetaL,POW.FT9.BetaH,POW.FT9.Gamma,POW.T7.Theta,POW.T7.Alpha,POW.T7.BetaL,POW.T7.BetaH,POW.T7.Gamma,POW.CP5.Theta,POW.CP5.Alpha,POW.CP5.BetaL,POW.CP5.BetaH,POW.CP5.Gamma,POW.CP1.Theta,POW.CP1.Alpha,POW.CP1.BetaL,POW.CP1.BetaH,POW.CP1.Gamma,POW.P3.Theta,POW.P3.Alpha,POW.P3.BetaL,POW.P3.BetaH,POW.P3.Gamma,POW.P7.Theta,POW.P7.Alpha,POW.P7.BetaL,POW.P7.BetaH,POW.P7.Gamma,POW.PO9.Theta,POW.PO9.Alpha,POW.PO9.BetaL,POW.PO9.BetaH,POW.PO9.Gamma,POW.O1.Theta,POW.O1.Alpha,POW.O1.BetaL,POW.O1.BetaH,POW.O1.Gamma,POW.Pz.Theta,POW.Pz.Alpha,POW.Pz.BetaL,POW.Pz.BetaH,POW.Pz.Gamma,POW.Oz.Theta,POW.Oz.Alpha,POW.Oz.BetaL,POW.Oz.BetaH,POW.Oz.Gamma,POW.O2.Theta,POW.O2.Alpha,POW.O2.BetaL,POW.O2.BetaH,POW.O2.Gamma,POW.PO10.Theta,POW.PO10.Alpha,POW.PO10.BetaL,POW.PO10.BetaH,POW.PO10.Gamma,POW.P8.Theta,POW.P8.Alpha,POW.P8.BetaL,POW.P8.BetaH,POW.P8.Gamma,POW.P4.Theta,POW.P4.Alpha,POW.P4.BetaL,POW.P4.BetaH,POW.P4.Gamma,POW.CP2.Theta,POW.CP2.Alpha,POW.CP2.BetaL,POW.CP2.BetaH,POW.CP2.Gamma,POW.CP6.Theta,POW.CP6.Alpha,POW.CP6.BetaL,POW.CP6.BetaH,POW.CP6.Gamma,POW.T8.Theta,POW.T8.Alpha,POW.T8.BetaL,POW.T8.BetaH,POW.T8.Gamma,POW.FT10.Theta,POW.FT10.Alpha,POW.FT10.BetaL,POW.FT10.BetaH,POW.FT10.Gamma,POW.FC6.Theta,POW.FC6.Alpha,POW.FC6.BetaL,POW.FC6.BetaH,POW.FC6.Gamma,POW.C4.Theta,POW.C4.Alpha,POW.C4.BetaL,POW.C4.BetaH,POW.C4.Gamma,POW.FC2.Theta,POW.FC2.Alpha,POW.FC2.BetaL,POW.FC2.BetaH,POW.FC2.Gamma,POW.F4.Theta,POW.F4.Alpha,POW.F4.BetaL,POW.F4.BetaH,POW.F4.Gamma,POW.F8.Theta,POW.F8.Alpha,POW.F8.BetaL,POW.F8.BetaH,POW.F8.Gamma,POW.Fp2.Theta,POW.Fp2.Alpha,POW.Fp2.BetaL,POW.Fp2.BetaH,POW.Fp2.Gamma
1764666695.886961,25819,0,4447.692383,4460.128418,4569.487305,4573.461426,4444.871582,4575.641113,4592.179688,4431.666504,4593.974121,4414.487305,4555.256348,4578.205078,4627.179688,4443.974121,4434.358887,4557.179688,4612.307617,4604.358887,4565.384766,4455.897461,4458.974121,4652.563965,4572.692383,4544.871582,4434.487305,4635.384766,4448.205078,4610.897461,4548.333496,4465.641113,4577.436035,4580.897461,2602,1,18,2562,65050,1,1,1,0,4,4,4,4,4,4,4,4,4,4,4,4,4,4,4,4,4,4,4,4,4,4,4,4,4,4,4,4,4,4,4,4,100,,,,,,,,,,,,,,,,,,,,,,,,,,,,,,,,,,,,,,,,,,,,,,,,,,,,,,,,,,,,,,,,,,,,,,,,,,,,,,,,,,,,,,,,,,,,,,,,,,,,,,,,,,,,,,,,,,,,,,,,,,,,,,,,,,,,,,,,,,,,,,,,,,,,,,,,,,,,,,,,,,,,,,,,,,,,,,,,,,,,,,,,,,,,,,,,,,,,,,,,,,,,,,
1764666695.890867,25820,0,4452.05127,4461.666504,4573.717773,4577.563965,4450.384766,4578.205078,4599.102539,4442.692383,4602.563965,4406.666504,4560.128418,4582.94873,4632.820313,4444.871582,4435.641113,4551.666504,4614.615234,4601.538574,4560.897461,4453.205078,4449.871582,4650.384766,4570.256348,4548.333496,4411.666504,4627.307617,4453.846191,4615,4550.128418,4464.102539,4572.436035,4580.641113,2692,1,18,2563,65058,,,,0,4,4,4,4,4,4,4,4,4,4,4,4,4,4,4,4,4,4,4,4,4,4,4,4,4,4,4,4,4,4,4,4,100,,,,,,,,,,,,,,,,,,,,,,,,,,,,,,,,,,,,,,,,,,,,,,,,,,,,,,,,,,,,,,,,,,,,,,,,,,,,,,,,,,,,,,,,,,,,,,,,,,,,,,,,,,,,,,,,,,,,,,,,,,,,,,,,,,,,,,,,,,,,,,,,,,,,,,,,,,,,,,,,,,,,,,,,,,,,,,,,,,,,,,,,,,,,,,,,,,,,,,,,,,,,,,
1764666695.894773,25821,0,4445.128418,4451.666504,4564.871582,4574.615234,4446.538574,4572.436035,4595.256348,4441.282227,4608.461426,4405.256348,4554.102539,4573.717773,4628.205078,4436.666504,4429.615234,4540.897461,4605,4587.179688,4547.436035,4434.230957,4428.077148,4636.410156,4557.179688,4538.846191,4387.05127,4610.512695,4444.743652,4606.538574,4543.974121,4450.384766,4560.128418,4568.846191,2543,1,18,2563,65058,,,,0,4,4,4,4,4,4,4,4,4,4,4,4,4,4,4,4,4,4,4,4,4,4,4,4,4,4,4,4,4,4,4,4,100,,,,,,,,,,,,,,,,,,,,,,,,,,,,,,,,,,,55607,0,0.359335,-0.619141,-0.470154,0.516235,0.967892,-0.302283,-0.054206,3.333333,48.666668,12.166667,,,,,,,,,,,,,,,,,,,,,,,,,,,,,,,,,,,,,,,,,,,,,,,,,,,,,,,,,,,,,,,,,,,,,,,,,,,,,,,,,,,,,,,,,,,,,,,,,,,,,,,,,,,,,,,,,,,,,,,,,,,,,,,,,,,,,,,,,,,,,,,,,,,,,,,,,,,,,,,,
1764666695.898679,25822,0,4430.512695,4436.153809,4547.94873,4565.512695,4435,4561.410156,4581.538574,4427.05127,4607.436035,4413.589844,4539.871582,4555.256348,4614.615234,4423.717773,4419.358887,4532.179688,4588.461426,4572.563965,4536.410156,4411.153809,4407.820313,4618.974121,4540.641113,4519.358887,4358.846191,4592.820313,4426.410156,4590.641113,4533.333496,4431.922852,4546.794922,4551.410156,2682,1,18,2564,65066,,,,0,4,4,4,4,4,4,4,4,4,4,4,4,4,4,4,4,4,4,4,4,4,4,4,4,4,4,4,4,4,4,4,4,100,,,,,,,,,,,,,,,,,,,,,,,,,,,,,,,,,,,,,,,,,,,,,,,,,,,,,,,,,,,,,,,,,,,,,,,,,,,,,,,,,,,,,,,,,,,,,,,,,,,,,,,,,,,,,,,,,,,,,,,,,,,,,,,,,,,,,,,,,,,,,,,,,,,,,,,,,,,,,,,,,,,,,,,,,,,,,,,,,,,,,,,,,,,,,,,,,,,,,,,,,,,,,,
1764666695.902585,25823,0,4417.563965,4425.641113,4533.333496,4556.153809,4423.333496,4551.922852,4566.410156,4408.461426,4598.974121,4426.538574,4526.794922,4539.230957,4600.256348,4414.743652,4411.666504,4530.641113,4574.871582,4566.025879,4535.256348,4398.589844,4401.922852,4607.94873,4529.358887,4499.487305,4338.205078,4584.230957,4410.897461,4577.436035,4525,4419.230957,4539.871582,4538.589844,2818,1,18,2564,65066,,,,0,4,4,4,4,4,4,4,4,4,4,4,4,4,4,4,4,4,4,4,4,4,4,4,4,4,4,4,4,4,4,4,4,100,,,,,,,,,,,,,,,,,,,,,,,,,,,,,,,,,,,,,,,,,,,,,,,,,,,,,,,,,,,,,,,,,,,,,,,,,,,,,,,,,,,,,,,,,,,,,,,,,,,,,,,,,,,,,,,,,,,,,,,,,,,,,,,,,,,,,,,,,,,,,,,,,,,,,,,,,,,,,,,,,,,,,,,,,,,,,,,,,,,,,,,,,,,,,,,,,,,,,,,,,,,,,,
1764666695.906491,25824,0,4413.717773,4426.410156,4529.615234,4552.05127,4419.358887,4549.358887,4558.717773,4396.794922,4588.077148,4436.538574,4522.820313,4535.256348,4593.717773,4415.769043,4411.282227,4535.512695,4571.282227,4567.692383,4541.153809,4402.179688,4412.307617,4607.820313,4527.820313,4489.743652,4347.436035,4589.871582,4406.282227,4572.94873,4523.717773,4418.717773,4542.05127,4536.666504,2766,1,18,2565,65074,,,,0,4,4,4,4,4,4,4,4,4,4,4,4,4,4,4,4,4,4,4,4,4,4,4,4,4,4,4,4,4,4,4,4,100,,,,,,,,,,,,,,,,,,,,,,,,,,,,,,,,,,,,,,,,,,,,,,,,,,,,,,,,,,,,,,,,,,,,,,,,,,,,,,,,,,,,,,,,,,,,,,,,,,,,,,,,,,,,,,,,,,,,,,,,,,,,,,,,,,,,,,,,,,,,,,,,,,,,,,,,,,,,,,,,,,,,,,,,,,,,,,,,,,,,,,,,,,,,,,,,,,,,,,,,,,,,,,
1764666695.910397,25825,0,4418.717773,4435,4535.641113,4553.461426,4423.077148,4553.461426,4560.256348,4396.025879,4581.153809,4440.512695,4527.94873,4542.94873,4596.666504,4424.358887,4416.666504,4541.025879,4576.538574,4570.128418,4544.615234,4414.615234,4429.230957,4614.615234,4532.179688,4493.717773,4395.512695,4605,4410.384766,4575.384766,4528.333496,4427.563965,4549.615234,4542.563965,3026,1,18,2565,65074,,,,0,4,4,4,4,4,4,4,4,4,4,4,4,4,4,4,4,4,4,4,4,4,4,4,4,4,4,4,4,4,4,4,4,100,,,,,,,,,,,,,,,,,,,,,,,,,,,,,,,,,,,55608,0,0.358832,-0.618774,-0.470215,0.516968,0.947381,-0.298376,-0.053229,1.166667,49,13.666667,,,,,,,,,,,,,,,,,,,,,,,,,,,,,,,,,,,,,,,,,,,,,,,,,,,,,,,,,,,,,,,,,,,,,,,,,,,,,,,,,,,,,,,,,,,,,,,,,,,,,,,,,,,,,,,,,,,,,,,,,,,,,,,,,,,,,,,,,,,,,,,,,,,,,,,,,,,,,,,,
1764666695.914303,25826,0,4424.358887,4440.641113,4541.282227,4554.230957,4426.666504,4557.307617,4564.102539,4399.743652,4579.743652,4440.897461,4534.230957,4552.05127,4602.436035,4431.282227,4421.025879,4541.922852,4582.94873,4566.794922,4540.256348,4422.692383,4438.974121,4619.743652,4534.102539,4505,4459.230957,4616.922852,4413.333496,4576.410156,4532.563965,4435.384766,4554.358887,4547.05127,2618,1,18,2566,65082,,,,0,4,4,4,4,4,4,4,4,4,4,4,4,4,4,4,4,4,4,4,4,4,4,4,4,4,4,4,4,4,4,4,4,100,,,,,,,,,,,,,,,,,,,,,,,,,,,,,,,,,,,,,,,,,,,,,,,,,,,,,,,,,,,,,,,,,,,,,,,,,,,,,,,,,,,,,,,,,,,,,,,,,,,,,,,,,,,,,,,,,,,,,,,,,,,,,,,,,,,,,,,,,,,,,,,,,,,,,,,,,,,,,,,,,,,,,,,,,,,,,,,,,,,,,,,,,,,,,,,,,,,,,,,,,,,,,,
1764666695.918209,25827,0,4421.794922,4434.487305,4537.179688,4547.563965,4420.897461,4553.717773,4561.025879,4397.94873,4578.974121,4437.94873,4532.94873,4552.05127,4601.922852,4429.358887,4418.077148,4536.922852,4581.922852,4558.717773,4532.307617,4418.589844,4435.128418,4616.538574,4527.94873,4511.666504,4494.871582,4613.974121,4407.05127,4569.615234,4530.769043,4433.205078,4549.743652,4541.922852,2835,1,18,2566,65082,,,,0,4,4,4,4,4,4,4,4,4,4,4,4,4,4,4,4,4,4,4,4,4,4,4,4,4,4,4,4,4,4,4,4,100,,,,,,,,,,,,,,,,,,,,,,,,,,,,,,,,,,,,,,,,,,,,,,,,,,,,,,,,,,,,,,,,,,,,,,,,,,,,,,,,,,,,,,,,,,,,,,,,,,,,,,,,,,,,,,,,,,,,,,,,,,,,,,,,,,,,,,,,,,,,,,,,,,,,,,,,,,,,,,,,,,,,,,,,,,,,,,,,,,,,,,,,,,,,,,,,,,,,,,,,,,,,,,
1764666695.922115,25828,0,4410.512695,4418.717773,4523.205078,4533.974121,4405.641113,4542.05127,4548.846191,4388.589844,4573.846191,4427.436035,4522.94873,4541.666504,4592.94873,4420.128418,4408.333496,4529.743652,4572.179688,4553.717773,4530.128418,4406.025879,4423.333496,4605.897461,4516.538574,4506.666504,4474.871582,4595,4393.077148,4557.05127,4522.820313,4421.538574,4537.307617,4528.461426,2710,1,18,2567,65090,,,,0,4,4,4,4,4,4,4,4,4,4,4,4,4,4,4,4,4,4,4,4,4,4,4,4,4,4,4,4,4,4,4,4,100,,,,,,,,,,,,,,,,,,,,,,,,,,,,,,,,,,,,,,,,,,,,,,,,,,,,,,,,,,,,,,,,,,,,,,,,,,,,,,,,,,,,,,,,,,,,,,,,,,,,,,,,,,,,,,,,,,,,,,,,,,,,,,,,,,,,,,,,,,,,,,,,,,,,,,,,,,,,,,,,,,,,,,,,,,,,,,,,,,,,,,,,,,,,,,,,,,,,,,,,,,,,,,
1764666695.926021,25829,0,4399.871582,4405.128418,4509.871582,4522.436035,4391.410156,4530.897461,4536.282227,4380.384766,4565.384766,4407.436035,4512.179688,4530.512695,4582.692383,4413.205078,4398.077148,4525.897461,4561.153809,4557.94873,4538.589844,4396.282227,4415.641113,4595.512695,4509.358887,4493.589844,4413.717773,4572.94873,4383.205078,4548.461426,4515.128418,4410.128418,4526.282227,4517.563965,2772,1,18,2567,65090,,,,0,4,4,4,4,4,4,4,4,4,4,4,4,4,4,4,4,4,4,4,4,4,4,4,4,4,4,4,4,4,4,4,4,100,,,,,,,,,,,,,,,,,,,,,,,,,,,,,,,,,,,55609,0,0.358496,-0.618774,-0.470337,0.51709,0.951288,-0.311561,-0.052741,5.666667,47.333332,13.666667,,,,,,,,,,,,,,,,,,,,,,,,,,,,,,,,,,,,,,,,,,,,,,,,,,,,,,,,,,,,,,,,,,,,,,,,,,,,,,,,,,,,,,,,,,,,,,,,,,,,,,,,,,,,,,,,,,,,,,,,,,,,,,,,,,,,,,,,,,,,,,,,,,,,,,,,,,,,,,,,
1764666695.929927,25830,0,4400.641113,4405.897461,4509.230957,4524.230957,4391.410156,4530.512695,4535.384766,4384.615234,4560.769043,4386.666504,4510.897461,4530.256348,4581.410156,4417.179688,4394.871582,4527.820313,4558.846191,4569.358887,4552.179688,4398.205078,4419.487305,4594.358887,4514.358887,4485.641113,4357.692383,4565.897461,4389.102539,4553.974121,4515.512695,4410.641113,4527.307617,4521.025879,2796,1,18,2562,65097,,,,0,4,4,4,4,4,4,4,4,4,4,4,4,4,4,4,4,4,4,4,4,4,4,4,4,4,4,4,4,4,4,4,4,100,,,,,,,,,,,,,,,,,,,,,,,,,,,,,,,,,,,,,,,,,,,,,,,,,,,,,,,,,,,,,,,,,,,,,,,,,,,,,,,,,,,,,,,,,,,,,,,,,,,,,,,,,,,,,,,,,,,,,,,,,,,,,,,,,,,,,,,,,,,,,,,,,,,,,,,,,,,,,,,,,,,,,,,,,,,,,,,,,,,,,,,,,,,,,,,,,,,,,,,,,,,,,,
1764666695.933833,25831,0,4415.128418,4422.436035,4525.384766,4541.538574,4409.230957,4543.717773,4549.230957,4403.077148,4566.025879,4379.615234,4521.922852,4543.846191,4592.307617,4431.666504,4401.282227,4533.717773,4568.461426,4578.461426,4559.615234,4411.025879,4430.384766,4604.743652,4530.512695,4493.333496,4348.846191,4583.461426,4411.922852,4574.615234,4526.153809,4426.025879,4543.333496,4540.897461,2968,1,18,2562,65097,,,,0,4,4,4,4,4,4,4,4,4,4,4,4,4,4,4,4,4,4,4,4,4,4,4,4,4,4,4,4,4,4,4,4,100,,,,,,,,,,,,,,,,,,,,,,,,,,,,,,,,,,,,,,,,,,,,,,,,,,,,,,,,,,,,,,,,,,,,,,,,,,,,,,,,,,,,,,,,,,,,,,,,,,,,,,,,,,,,,,,,,,,,,,,,,,,,,,,,,,,,,,,,,,,,,,,,,,,,,,,,,,,,,,,,,,,,,,,,,,,,,,,,,,,,,,,,,,,,,,,,,,,,,,,,,,,,,,
1764666695.937739,25832,0,4434.230957,4444.358887,4550,4565.256348,4434.871582,4562.563965,4568.717773,4424.743652,4580.897461,4393.846191,4538.205078,4562.820313,4608.077148,4446.922852,4412.820313,4538.974121,4583.333496,4577.05127,4553.717773,4425.897461,4437.692383,4619.487305,4548.077148,4514.358887,4392.820313,4617.94873,4439.102539,4599.487305,4540.897461,4447.94873,4567.05127,4566.410156,2883,1,18,2561,65105,,,,0,4,4,4,4,4,4,4,4,4,4,4,4,4,4,4,4,4,4,4,4,4,4,4,4,4,4,4,4,4,4,4,4,100,,,,,,,,,,,,,,,,,,,,,,,,,,,,,,,,,,,,,,,,,,,,,,,,,,,,,,,,,,,,,,,,,,,,,,,,,,,,,,,,,,,,,,,,,,,,,,,,,,,,,,,,,,,,,,,,,,,,,,,,,,,,,,,,,,,,,,,,,,,,,,,,,,,,,,,,,,,,,,,,,,,,,,,,,,,,,,,,,,,,,,,,,,,,,,,,,,,,,,,,,,,,,,
1764666695.941645,25833,0,4445,4457.820313,4569.102539,4581.153809,4452.307617,4574.102539,4579.615234,4434.358887,4598.717773,4422.307617,4548.846191,4574.743652,4617.692383,4451.794922,4421.794922,4540,4593.077148,4565.769043,4537.692383,4433.589844,4435.384766,4627.94873,4555.897461,4535.897461,4456.922852,4648.974121,4453.974121,4613.846191,4550.256348,4463.205078,4585.897461,4582.436035,2710,1,18,2561,65105,,,,0,4,4,4,4,4,4,4,4,4,4,4,4,4,4,4,4,4,4,4,4,4,4,4,4,4,4,4,4,4,4,4,4,100,,,,,,,,,,,,,,,,,,,,,,,,,,,,,,,,,,,55610,0,0.358573,-0.61853,-0.470398,0.517273,0.951288,-0.311561,-0.052741,4,48.166668,13.333333,,,,,,,,,,,,,,,,,,,,,,,,,,,,,,,,,,,,,,,,,,,,,,,,,,,,,,,,,,,,,,,,,,,,,,,,,,,,,,,,,,,,,,,,,,,,,,,,,,,,,,,,,,,,,,,,,,,,,,,,,,,,,,,,,,,,,,,,,,,,,,,,,,,,,,,,,,,,,,,,
1764666695.945551,25834,0,4440.897461,4456.538574,4574.230957,4581.282227,4452.307617,4572.179688,4575.384766,4426.153809,4611.025879,4448.846191,4549.358887,4573.333496,4616.282227,4442.820313,4422.94873,4536.538574,4592.307617,4553.333496,4522.94873,4430.769043,4427.179688,4625.512695,4550.512695,4544.871582,4496.025879,4658.333496,4449.743652,4611.025879,4549.102539,4464.358887,4590.769043,4581.666504,1462,1,18,2562,65113,,,,0,4,4,4,4,4,4,4,4,4,4,4,4,4,4,4,4,4,4,4,4,4,4,4,4,4,4,4,4,4,4,4,4,100,,,,,,,,,,,,,,,,,,,,,,,,,,,,,,,,,,,,,,,,,,,,,,,,,,,,,,,,,,,,,,,,,,,,,,,,,,,,,,,,,,,,,,,,,,,,,,,,,,,,,,,,,,,,,,,,,,,,,,,,,,,,,,,,,,,,,,,,,,,,,,,,,,,,,,,,,,,,,,,,,,,,,,,,,,,,,,,,,,,,,,,,,,,,,,,,,,,,,,,,,,,,,,
1764666695.949457,25835,0,4427.179688,4444.358887,4566.538574,4569.102539,4438.846191,4561.410156,4561.538574,4408.077148,4612.179688,4458.717773,4543.205078,4562.179688,4608.461426,4426.025879,4416.153809,4531.153809,4584.102539,4548.589844,4518.846191,4422.307617,4422.179688,4616.410156,4538.205078,4538.077148,4484.487305,4642.820313,4433.589844,4596.794922,4540.512695,4454.487305,4581.666504,4568.333496,2707,1,18,2562,65113,,,,0,4,4,4,4,4,4,4,4,4,4,4,4,4,4,4,4,4,4,4,4,4,4,4,4,4,4,4,4,4,4,4,4,100,,,,,,,,,,,,,,,,,,,,,,,,,,,,,,,,,,,,,,,,,,,,,,,,,,,,,,,,,,,,,,,,,,,,,,,,,,,,,,,,,,,,,,,,,,,,,,,,,,,,,,,,,,,,,,,,,,,,,,,,,,,,,,,,,,,,,,,,,,,,,,,,,,,,,,,,,,,,,,,,,,,,,,,,,,,,,,,,,,,,,,,,,,,,,,,,,,,,,,,,,,,,,,
1764666695.953363,25836,0,4414.871582,4431.538574,4554.487305,4555,4423.717773,4551.153809,4550,4393.974121,4600.897461,4446.282227,4536.794922,4550,4602.692383,4411.922852,4407.436035,4528.205078,4575.512695,4553.461426,4526.025879,4415.256348,4425.256348,4609.487305,4528.846191,4523.589844,4432.692383,4614.230957,4420.256348,4583.461426,4531.922852,4443.333496,4566.410156,4553.717773,2500,1,18,2563,65121,,,,0,4,4,4,4,4,4,4,4,4,4,4,4,4,4,4,4,4,4,4,4,4,4,4,4,4,4,4,4,4,4,4,4,100,,,,,,,,,,,,,,,,,,,,,,,,,,,,,,,,,,,,,,,,,,,,,,,,,,,,,,,,,,,,,,,,,,,,,,,,,,,,,,,,,,,,,,,,,,,,,,,,,,,,,,,,,,,,,,,,,,,,,,,,,,,,,,,,,,,,,,,,,,,,,,,,,,,,,,,,,,,,,,,,,,,,,,,,,,,,,,,,,,,,,,,,,,,,,,,,,,,,,,,,,,,,,,
1764666695.957269,25837,0,4413.077148,4426.153809,4546.794922,4548.333496,4418.077148,4548.333496,4549.102539,4392.307617,4583.077148,4419.358887,4533.717773,4544.230957,4603.205078,4407.436035,4403.974121,4531.153809,4572.692383,4563.846191,4537.05127,4414.230957,4433.589844,4610.512695,4528.717773,4513.461426,4378.846191,4590.769043,4420,4580.769043,4529.615234,4438.974121,4555.512695,4547.563965,2293,1,18,2563,65121,,,,0,4,4,4,4,4,4,4,4,4,4,4,4,4,4,4,4,4,4,4,4,4,4,4,4,4,4,4,4,4,4,4,4,100,,,,,,,,,,,,,,,,,,,,,,,,,,,,,,,,,,,55611,0,0.358634,-0.618286,-0.470337,0.517578,0.946893,-0.306678,-0.051276,3.166667,48.5,12.833333,,,,,,,,,,,,,,,,,,,,,,,,,,,,,,,,,,,,,,,,,,,,,,,,,,,,,,,,,,,,,,,,,,,,,,,,,,,,,,,,,,,,,,,,,,,,,,,,,,,,,,,,,,,,,,,,,,,,,,,,,,,,,,,,,,,,,,,,,,,,,,,,,,,,,,,,,,,,,,,,
1764666695.961175,25838,0,4422.692383,4431.025879,4547.692383,4552.563965,4424.871582,4553.974121,4558.846191,4401.538574,4570.769043,4396.153809,4533.717773,4546.922852,4609.102539,4413.974121,4410.256348,4540.128418,4577.436035,4573.589844,4544.230957,4418.974121,4441.025879,4619.102539,4537.692383,4515.897461,4362.307617,4585.512695,4431.922852,4588.846191,4534.615234,4443.974121,4555.769043,4553.077148,2706,1,18,2564,65129,,,,0,4,4,4,4,4,4,4,4,4,4,4,4,4,4,4,4,4,4,4,4,4,4,4,4,4,4,4,4,4,4,4,4,100,,,,,,,,,,,,,,,,,,,,,,,,,,,,,,,,,,,,,,,,,,,,,,,,,,,,,,,,,,,,,,,,,,,,,,,,,,,,,,,,,,,,,,,,,,,,,,,,,,,,,,,,,,,,,,,,,,,,,,,,,,,,,,,,,,,,,,,,,,,,,,,,,,,,,,,,,,,,,,,,,,,,,,,,,,,,,,,,,,,,,,,,,,,,,,,,,,,,,,,,,,,,,,
1764666695.965081,25839,0,4437.94873,4443.205078,4556.153809,4565.128418,4439.871582,4565.128418,4573.461426,4415.256348,4574.871582,4394.230957,4536.922852,4555.256348,4616.922852,4427.307617,4424.487305,4551.666504,4586.922852,4580,4545.641113,4426.666504,4443.077148,4630,4550.897461,4529.871582,4395.384766,4600.512695,4447.179688,4600.769043,4543.205078,4455.128418,4567.820313,4566.794922,2489,1,18,2564,65129,,,,0,4,4,4,4,4,4,4,4,4,4,4,4,4,4,4,4,4,4,4,4,4,4,4,4,4,4,4,4,4,4,4,4,100,,,,,,,,,,,,,,,,,,,,,,,,,,,,,,,,,,,,,,,,,,,,,,,,,,,,,,,,,,,,,,,,,,,,,,,,,,,,,,,,,,,,,,,,,,,,,,,,,,,,,,,,,,,,,,,,,,,,,,,,,,,,,,,,,,,,,,,,,,,,,,,,,,,,,,,,,,,,,,,,,,,,,,,,,,,,,,,,,,,,,,,,,,,,,,,,,,,,,,,,,,,,,,
1764666695.968987,25840,0,4451.025879,4456.410156,4567.820313,4580,4455.384766,4577.05127,4587.179688,4428.205078,4596.538574,4416.794922,4543.846191,4564.743652,4623.717773,4440.897461,4439.487305,4560.512695,4597.05127,4583.461426,4545.128418,4433.717773,4439.487305,4638.333496,4562.436035,4547.820313,4455.128418,4628.077148,4456.282227,4609.871582,4551.025879,4467.05127,4585.897461,4582.563965,2872,1,18,2564,65136,,,,0,4,4,4,4,4,4,4,4,4,4,4,4,4,4,4,4,4,4,4,4,4,4,4,4,4,4,4,4,4,4,4,4,100,,,,,,,,,,,,,,,,,,,,,,,,,,,,,,,,,,,,,,,,,,,,,,,,,,,,,,,,,,,,,,,,,,,,,,,,,,,,,,,,,,,,,,,,,,,,,,,,,,,,,,,,,,,,,,,,,,,,,,,,,,,,,,,,,,,,,,,,,,,,,,,,,,,,,,,,,,,,,,,,,,,,,,,,,,,,,,,,,,,,,,,,,,,,,,,,,,,,,,,,,,,,,,
1764666695.972893,25841,0,4456.794922,4465.384766,4577.179688,4590.384766,4464.102539,4585.256348,4596.282227,4437.05127,4624.743652,4449.487305,4554.230957,4571.794922,4627.94873,4448.717773,4446.922852,4562.436035,4604.102539,4585.384766,4547.436035,4437.436035,4433.461426,4641.794922,4568.077148,4560.897461,4505.384766,4655,4455.769043,4613.205078,4555.256348,4474.871582,4600.897461,4593.589844,2972,1,18,2564,65136,,,,0,4,4,4,4,4,4,4,4,4,4,4,4,4,4,4,4,4,4,4,4,4,4,4,4,4,4,4,4,4,4,4,4,100,,,,,,,,,,,,,,,,,,,,,,,,,,,,,,,,,,,55612,0,0.358581,-0.618103,-0.470215,0.517944,0.934684,-0.306678,-0.041997,3.166667,48.5,12.833333,,,,,,,,,,,,,,,,,,,,,,,,,,,,,,,,,,,,,,,,,,,,,,,,,,,,,,,,,,,,,,,,,,,,,,,,,,,,,,,,,,,,,,,,,,,,,,,,,,,,,,,,,,,,,,,,,,,,,,,,,,,,,,,,,,,,,,,,,,,,,,,,,,,,,,,,,,,,,,,,
1764666695.976799,25842,0,4453.717773,4466.410156,4580.256348,4592.05127,4462.563965,4586.153809,4598.077148,4438.717773,4643.077148,4472.820313,4563.333496,4573.333496,4628.717773,4447.436035,4442.05127,4556.025879,4605.512695,4584.871582,4552.820313,4436.922852,4430.256348,4640.641113,4566.666504,4563.589844,4524.487305,4669.487305,4447.563965,4611.153809,4554.743652,4475.256348,4604.743652,4595.384766,1785,1,18,2565,65144,,,,0,4,4,4,4,4,4,4,4,4,4,4,4,4,4,4,4,4,4,4,4,4,4,4,4,4,4,4,4,4,4,4,4,100,,,,,,,,,,,,,,,,,,,,,,,,,,,,,,,,,,,,,,,,,,,,,,,,,,,,,,,,,,,,,,,,,,,,,,,,,,,,,,,,,,,,,,,,,,,,,,,,,,,,,,,,,,,,,,,,,,,,,,,,,,,,,,,,,,,,,,,,,,,,,,,,,,,,,,,,,,,,,,,,,,,,,,,,,,,,,,,,,,,,,,,,,,,,,,,,,,,,,,,,,,,,,,
1764666695.980705,25843,0,4444.102539,4459.615234,4576.794922,4585.641113,4452.307617,4579.358887,4591.410156,4431.025879,4641.025879,4478.205078,4564.743652,4568.461426,4625.384766,4438.333496,4427.563965,4545,4600.128418,4580.128418,4557.179688,4432.820313,4434.230957,4636.794922,4560.128418,4555.897461,4516.538574,4667.179688,4436.153809,4604.743652,4550.128418,4468.333496,4594.871582,4587.692383,2813,1,18,2565,65144,,,,0,4,4,4,4,4,4,4,4,4,4,4,4,4,4,4,4,4,4,4,4,4,4,4,4,4,4,4,4,4,4,4,4,100,,,,,,,,,,,,,,,,,,,,,,,,,,,,,,,,,,,,,,,,,,,,,,,,,,,,,,,,,,,,,,,,,,,,,,,,,,,,,,,,,,,,,,,,,,,,,,,,,,,,,,,,,,,,,,,,,,,,,,,,,,,,,,,,,,,,,,,,,,,,,,,,,,,,,,,,,,,,,,,,,,,,,,,,,,,,,,,,,,,,,,,,,,,,,,,,,,,,,,,,,,,,,,
1764666695.984611,25844,0,4433.205078,4449.743652,4570.384766,4575.897461,4439.487305,4568.461426,4578.717773,4416.794922,4621.922852,4470.897461,4556.153809,4560,4619.358887,4426.282227,4412.692383,4536.282227,4591.153809,4572.692383,4556.794922,4428.589844,4446.025879,4632.436035,4552.820313,4543.205078,4496.025879,4652.820313,4427.179688,4596.794922,4544.102539,4458.461426,4577.94873,4575.384766,2514,1,18,2566,65152,,,,0,4,4,4,4,4,4,4,4,4,4,4,4,4,4,4,4,4,4,4,4,4,4,4,4,4,4,4,4,4,4,4,4,100,,,,,,,,,,,,,,,,,,,,,,,,,,,,,,,,,,,,,,,,,,,,,,,,,,,,,,,,,,,,,,,,,,,,,,,,,,,,,,,,,,,,,,,,,,,,,,,,,,,,,,,,,,,,,,,,,,,,,,,,,,,,,,,,,,,,,,,,,,,,,,,,,,,,,,,,,,,,,,,,,,,,,,,,,,,,,,,,,,,,,,,,,,,,,,,,,,,,,,,,,,,,,,
1764666695.988517,25845,0,4427.179688,4443.846191,4566.538574,4569.871582,4432.436035,4559.743652,4567.436035,4404.615234,4599.743652,4461.282227,4542.820313,4553.205078,4614.102539,4417.692383,4407.563965,4535.128418,4584.102539,4567.436035,4552.94873,4428.205078,4461.025879,4629.743652,4549.102539,4533.333496,4469.615234,4637.307617,4426.538574,4592.307617,4540.641113,4452.436035,4566.153809,4567.05127,2818,1,18,2566,65152,,,,0,4,4,4,4,4,4,4,4,4,4,4,4,4,4,4,4,4,4,4,4,4,4,4,4,4,4,4,4,4,4,4,4,100,,,,,,,,,,,,,,,,,,,,,,,,,,,,,,,,,,,55613,0,0.35893,-0.617859,-0.470337,0.517883,0.955683,-0.307655,-0.044439,3,48.666668,16,,,,,,,,,,,,,,,,,,,,,,,,,,,,,,,,,,,,,,,,,,,,,,,,,,,,,,,,,,,,,,,,,,,,,,,,,,,,,,,,,,,,,,,,,,,,,,,,,,,,,,,,,,,,,,,,,,,,,,,,,,,,,,,,,,,,,,,,,,,,,,,,,,,,,,,,,,,,,,,,
1764666695.992423,25846,0,4429.487305,4446.794922,4568.333496,4571.282227,4435.128418,4558.333496,4564.615234,4403.846191,4587.94873,4454.102539,4533.717773,4552.307617,4612.820313,4416.410156,4415.512695,4541.282227,4583.205078,4568.333496,4550.641113,4431.922852,4470.384766,4629.230957,4550.512695,4531.410156,4433.717773,4628.974121,4437.179688,4595.897461,4542.05127,4454.743652,4568.333496,4568.846191,2922,1,18,2567,65160,,,,0,4,4,4,4,4,4,4,4,4,4,4,4,4,4,4,4,4,4,4,4,4,4,4,4,4,4,4,4,4,4,4,4,100,,,,,,,,,,,,,,,,,,,,,,,,,,,,,,,,,,,,,,,,,,,,,,,,,,,,,,,,,,,,,,,,,,,,,,,,,,,,,,,,,,,,,,,,,,,,,,,,,,,,,,,,,,,,,,,,,,,,,,,,,,,,,,,,,,,,,,,,,,,,,,,,,,,,,,,,,,,,,,,,,,,,,,,,,,,,,,,,,,,,,,,,,,,,,,,,,,,,,,,,,,,,,,
1764666695.996329,25847,0,4437.179688,4455.897461,4573.461426,4578.077148,4443.846191,4563.333496,4570.512695,4415.641113,4591.410156,4448.589844,4533.333496,4555.769043,4615.128418,4421.410156,4429.871582,4549.102539,4587.179688,4573.974121,4551.410156,4436.153809,4466.538574,4629.487305,4555,4535.897461,4390.256348,4628.846191,4454.743652,4606.153809,4546.538574,4463.717773,4581.794922,4578.846191,2840,1,18,2567,65160,,,,0,4,4,4,4,4,4,4,4,4,4,4,4,4,4,4,4,4,4,4,4,4,4,4,4,4,4,4,4,4,4,4,4,100,,,,,,,,,,,,,,,,,,,,,,,,,,,,,,,,,,,,,,,,,,,,,,,,,,,,,,,,,,,,,,,,,,,,,,,,,,,,,,,,,,,,,,,,,,,,,,,,,,,,,,,,,,,,,,,,,,,,,,,,,,,,,,,,,,,,,,,,,,,,,,,,,,,,,,,,,,,,,,,,,,,,,,,,,,,,,,,,,,,,,,,,,,,,,,,,,,,,,,,,,,,,,,
1764666696.000235,25848,0,4442.94873,4463.077148,4575.769043,4583.846191,4449.615234,4568.461426,4578.205078,4430.128418,4603.717773,4442.436035,4538.077148,4558.077148,4617.179688,4427.436035,4438.077148,4551.538574,4590.128418,4578.205078,4552.436035,4435.769043,4448.077148,4628.461426,4557.94873,4541.153809,4357.436035,4632.436035,4467.563965,4616.025879,4549.871582,4471.794922,4594.487305,4587.94873,2733,1,18,2568,65168,,,,0,4,4,4,4,4,4,4,4,4,4,4,4,4,4,4,4,4,4,4,4,4,4,4,4,4,4,4,4,4,4,4,4,100,,,,,,,,,,,,,,,,,,,,,,,,,,,,,,,,,,,,,,,,,,,,,,,,,,,,,,,,,,,,,,,,,,,,,,,,,,,,,,,,,,,,,,,,,,,,,,,,,,,,,,,,,,,,,,,,,,,,,,,,,,,,,,,,,,,,,,,,,,,,,,,,,,,,,,,,,,,,,,,,,,,,,,,,,,,,,,,,,,,,,,,,,,,,,,,,,,,,,,,,,,,,,,
1764666696.004141,25849,0,4440.641113,4461.025879,4570.769043,4583.205078,4445.897461,4567.563965,4579.102539,4434.358887,4613.205078,4435.641113,4539.871582,4554.871582,4615,4429.743652,4432.179688,4546.282227,4586.922852,4575.256348,4549.743652,4428.846191,4422.307617,4625.769043,4555.769043,4542.436035,4357.94873,4635.769043,4466.025879,4618.205078,4547.820313,4471.538574,4594.871582,4587.05127,2852,1,18,2568,65168,,,,0,4,4,4,4,4,4,4,4,4,4,4,4,4,4,4,4,4,4,4,4,4,4,4,4,4,4,4,4,4,4,4,4,100,,,,,,,,,,,,,,,,,,,,,,,,,,,,,,,,,,,55614,0,0.35885,-0.617859,-0.470398,0.517883,0.976682,-0.294958,-0.046392,3.833333,48.333332,13,,,,,,,,,,,,,,,,,,,,,,,,,,,,,,,,,,,,,,,,,,,,,,,,,,,,,,,,,,,,,,,,,,,,,,,,,,,,,,,,,,,,,,,,,,,,,,,,,,,,,,,,,,,,,,,,,,,,,,,,,,,,,,,,,,,,,,,,,,,,,,,,,,,,,,,,,,,,,,,,
1764666696.008047,25850,0,4430.641113,4449.358887,4559.230957,4575.256348,4434.102539,4559.743652,4571.282227,4423.461426,4610.641113,4427.307617,4533.974121,4546.538574,4607.692383,4427.94873,4415.641113,4537.05127,4578.077148,4565.256348,4543.846191,4418.846191,4400.897461,4622.436035,4548.333496,4539.230957,4396.666504,4638.461426,4450,4610.384766,4539.871582,4461.794922,4581.410156,4574.871582,1946,1,18,2569,65175,,,,0,4,4,4,4,4,4,4,4,4,4,4,4,4,4,4,4,4,4,4,4,4,4,4,4,4,4,4,4,4,4,4,4,100,,,,,,,,,,,,,,,,,,,,,,,,,,,,,,,,,,,,,,,,,,,,,,,1.622145,3.410186,5.485615,1.709273,1.696488,1.928226,4.826171,6.776645,1.936798,1.711887,1.76067,4.093033,7.592277,2.219259,2.17639,1.340746,4.754648,5.69926,1.77314,2.348293,2.044545,4.099956,6.787427,2.019234,2.021544,2.094104,4.001683,6.394509,2.022616,1.847959,1.880401,7.550619,7.273616,2.77588,2.953048,1.574784,7.375208,7.218986,3.268805,3.682457,1.343814,4.483871,5.977888,1.515453,2.418962,2.923563,5.981242,9.816557,4.915442,5.344728,0.824611,7.712942,9.244124,2.335871,1.670848,1.314248,5.257545,5.20516,1.665284,1.937704,1.701811,5.57804,4.530776,1.617542,1.867201,1.18417,5.846182,3.570876,1.183398,1.187473,1.873677,2.183735,2.885732,1.180179,1.462476,0.297489,0.584678,1.321963,0.686083,0.755777,1.629887,4.653135,5.751668,1.815984,2.095299,0.857666,3.155344,5.055981,1.609791,2.269803,0.757885,2.338025,3.653921,1.384218,2.083637,0.901402,1.742264,3.054976,1.166668,1.553658,2.0394,8.931003,6.796657,1.513602,1.891158,1.508504,5.075397,7.173634,1.871653,1.789407,0.762659,4.331561,5.300622,1.894673,1.784443,1.318205,10.037785,10.873178,2.846294,1.906106,2.98316,13.486444,14.265989,15.877771,14.243951,1.378372,5.395067,6.516256,2.738738,1.892326,1.454758,5.881764,5.635644,1.550365,3.368792,1.558745,6.050404,7.285276,1.84895,2.389472,0.829391,2.455605,3.605131,1.059739,0.886327,2.050067,5.714691,7.006094,1.745969,1.969807,1.705695,6.710767,7.593713,1.884695,2.151561,1.936703,5.543942,7.219862,2.214675,1.786893
1764666696.011953,25851,0,4419.230957,4435.128418,4547.563965,4564.615234,4422.05127,4550.128418,4560.128418,4404.871582,4597.05127,4415.128418,4523.461426,4539.102539,4599.230957,4426.153809,4400.384766,4529.743652,4568.974121,4554.743652,4539.230957,4412.179688,4394.230957,4619.487305,4540,4534.102539,4449.487305,4641.153809,4430.256348,4597.563965,4530.128418,4448.717773,4563.846191,4559.230957,2615,1,18,2569,65175,,,,0,4,4,4,4,4,4,4,4,4,4,4,4,4,4,4,4,4,4,4,4,4,4,4,4,4,4,4,4,4,4,4,4,100,,,,,,,,,,,,,,,,,,,,,,,,,,,,,,,,,,,,,,,,,,,,,,,,,,,,,,,,,,,,,,,,,,,,,,,,,,,,,,,,,,,,,,,,,,,,,,,,,,,,,,,,,,,,,,,,,,,,,,,,,,,,,,,,,,,,,,,,,,,,,,,,,,,,,,,,,,,,,,,,,,,,,,,,,,,,,,,,,,,,,,,,,,,,,,,,,,,,,,,,,,,,,,
1764666696.015859,25852,0,4413.717773,4427.436035,4543.717773,4557.94873,4418.205078,4545.384766,4554.487305,4393.077148,4583.974121,4400.769043,4516.410156,4538.333496,4595.641113,4428.589844,4397.820313,4528.461426,4565.641113,4552.05127,4540.897461,4413.589844,4405,4617.563965,4536.025879,4528.974121,4478.205078,4642.179688,4421.153809,4587.436035,4524.487305,4440.769043,4555,4551.153809,2701,1,18,2570,65183,,,,0,4,4,4,4,4,4,4,4,4,4,4,4,4,4,4,4,4,4,4,4,4,4,4,4,4,4,4,4,4,4,4,4,100,,,,,,,,,,,,,,,,,,,,,,,,,,,,,,,,,,,,,,,,,,,,,,,,,,,,,,,,,,,,,,,,,,,,,,,,,,,,,,,,,,,,,,,,,,,,,,,,,,,,,,,,,,,,,,,,,,,,,,,,,,,,,,,,,,,,,,,,,,,,,,,,,,,,,,,,,,,,,,,,,,,,,,,,,,,,,,,,,,,,,,,,,,,,,,,,,,,,,,,,,,,,,,
1764666696.019765,25853,0,4415.641113,4429.743652,4549.743652,4558.461426,4423.461426,4548.077148,4558.333496,4396.153809,4583.717773,4394.615234,4518.077148,4544.487305,4599.230957,4434.871582,4409.102539,4531.922852,4569.102539,4559.615234,4549.102539,4422.05127,4426.794922,4615.769043,4537.94873,4524.615234,4462.05127,4637.436035,4428.205078,4584.358887,4526.538574,4441.794922,4559.743652,4555.256348,2556,1,18,2570,65183,,,,0,4,4,4,4,4,4,4,4,4,4,4,4,4,4,4,4,4,4,4,4,4,4,4,4,4,4,4,4,4,4,4,4,100,,,,,,,,,,,,,,,,,,,,,,,,,,,,,,,,,,,55615,0,0.358656,-0.61792,-0.470398,0.517944,0.952265,-0.299353,-0.046392,3.833333,47.166668,14.333333,,,,,,,,,,,,,,,,,,,,,,,,,,,,,,,,,,,,,,,,,,,,,,,,,,,,,,,,,,,,,,,,,,,,,,,,,,,,,,,,,,,,,,,,,,,,,,,,,,,,,,,,,,,,,,,,,,,,,,,,,,,,,,,,,,,,,,,,,,,,,,,,,,,,,,,,,,,,,,,,
1764666696.023671,25854,0,4420.256348,4436.410156,4558.717773,4562.436035,4430.641113,4553.333496,4566.666504,4408.589844,4596.538574,4406.794922,4526.153809,4551.153809,4605.897461,4439.743652,4425.384766,4536.153809,4574.487305,4571.410156,4557.563965,4431.282227,4446.794922,4612.563965,4541.666504,4518.974121,4416.025879,4623.846191,4442.436035,4585,4532.820313,4446.282227,4570.384766,4565,2694,1,18,2571,65191,,,,0,4,4,4,4,4,4,4,4,4,4,4,4,4,4,4,4,4,4,4,4,4,4,4,4,4,4,4,4,4,4,4,4,100,,,,,,,,,,,,,,,,,,,,,,,,,,,,,,,,,,,,,,,,,,,,,,,,,,,,,,,,,,,,,,,,,,,,,,,,,,,,,,,,,,,,,,,,,,,,,,,,,,,,,,,,,,,,,,,,,,,,,,,,,,,,,,,,,,,,,,,,,,,,,,,,,,,,,,,,,,,,,,,,,,,,,,,,,,,,,,,,,,,,,,,,,,,,,,,,,,,,,,,,,,,,,,
1764666696.027577,25855,0,4420.384766,4438.205078,4560.641113,4562.692383,4430.256348,4553.461426,4569.871582,4416.922852,4609.743652,4433.333496,4532.436035,4550.769043,4607.94873,4437.563965,4435.384766,4537.307617,4574.230957,4577.94873,4559.230957,4434.230957,4454.615234,4606.666504,4540.641113,4510.897461,4379.230957,4603.461426,4447.05127,4581.538574,4535.769043,4445.897461,4573.846191,4568.333496,2832,1,18,2571,65191,,,,0,4,4,4,4,4,4,4,4,4,4,4,4,4,4,4,4,4,4,4,4,4,4,4,4,4,4,4,4,4,4,4,4,100,,,,,,,,,,,,,,,,,,,,,,,,,,,,,,,,,,,,,,,,,,,,,,,,,,,,,,,,,,,,,,,,,,,,,,,,,,,,,,,,,,,,,,,,,,,,,,,,,,,,,,,,,,,,,,,,,,,,,,,,,,,,,,,,,,,,,,,,,,,,,,,,,,,,,,,,,,,,,,,,,,,,,,,,,,,,,,,,,,,,,,,,,,,,,,,,,,,,,,,,,,,,,,
1764666696.031483,25856,0,4413.974121,4431.282227,4551.538574,4555.897461,4420.384766,4545.641113,4563.333496,4412.692383,4610.128418,4453.333496,4531.410156,4542.436035,4602.179688,4428.589844,4434.487305,4535.256348,4565.897461,4574.358887,4552.05127,4429.102539,4448.846191,4599.487305,4532.563965,4502.307617,4383.589844,4585.128418,4432.436035,4570.512695,4530.641113,4436.922852,4563.717773,4559.615234,2774,1,18,2572,65199,,,,0,4,4,4,4,4,4,4,4,4,4,4,4,4,4,4,4,4,4,4,4,4,4,4,4,4,4,4,4,4,4,4,4,100,,,,,,,,,,,,,,,,,,,,,,,,,,,,,,,,,,,,,,,,,,,,,,,,,,,,,,,,,,,,,,,,,,,,,,,,,,,,,,,,,,,,,,,,,,,,,,,,,,,,,,,,,,,,,,,,,,,,,,,,,,,,,,,,,,,,,,,,,,,,,,,,,,,,,,,,,,,,,,,,,,,,,,,,,,,,,,,,,,,,,,,,,,,,,,,,,,,,,,,,,,,,,,
1764666696.035389,25857,0,4406.282227,4421.666504,4538.974121,4547.692383,4409.102539,4535.897461,4552.436035,4401.282227,4597.820313,4447.820313,4525.384766,4533.589844,4593.974121,4419.743652,4426.794922,4532.820313,4555.512695,4563.589844,4540.897461,4420.512695,4436.538574,4595.384766,4522.436035,4498.717773,4428.205078,4580.128418,4405.897461,4556.794922,4520.641113,4425.512695,4547.05127,4545.384766,3064,1,18,2572,65199,,,,0,4,4,4,4,4,4,4,4,4,4,4,4,4,4,4,4,4,4,4,4,4,4,4,4,4,4,4,4,4,4,4,4,100,,,,,,,,,,,,,,,,,,,,,,,,,,,,,,,,,,,55616,0,0.358753,-0.617859,-0.470337,0.518005,0.949823,-0.299353,-0.044927,3.666667,49.333332,14.166667,,,,,,,,,,,,,,,,,,,,,,,,,,,,,,,,,,,,,,,,,,,,,,,,,,,,,,,,,,,,,,,,,,,,,,,,,,,,,,,,,,,,,,,,,,,,,,,,,,,,,,,,,,,,,,,,,,,,,,,,,,,,,,,,,,,,,,,,,,,,,,,,,,,,,,,,,,,,,,,,
1764666696.039295,25858,0,4405.384766,4418.974121,4534.102539,4547.436035,4407.692383,4534.230957,4548.077148,4395.128418,4585.512695,4418.846191,4521.922852,4533.333496,4592.05127,4418.205078,4420.641113,4532.307617,4552.307617,4553.461426,4532.307617,4415.384766,4427.05127,4598.205078,4518.589844,4504.230957,4482.05127,4594.615234,4385.641113,4550.897461,4514.358887,4421.922852,4537.692383,4538.461426,2627,1,18,2567,65207,,,,0,4,4,4,4,4,4,4,4,4,4,4,4,4,4,4,4,4,4,4,4,4,4,4,4,4,4,4,4,4,4,4,4,100,,,,,,,,,,,,,,,,,,,,,,,,,,,,,,,,,,,,,,,,,,,,,,,,,,,,,,,,,,,,,,,,,,,,,,,,,,,,,,,,,,,,,,,,,,,,,,,,,,,,,,,,,,,,,,,,,,,,,,,,,,,,,,,,,,,,,,,,,,,,,,,,,,,,,,,,,,,,,,,,,,,,,,,,,,,,,,,,,,,,,,,,,,,,,,,,,,,,,,,,,,,,,,
1764666696.043201,25859,0,4413.974121,4427.94873,4542.179688,4558.333496,4420,4544.615234,4556.282227,4401.794922,4585.384766,4390.128418,4525.897461,4543.589844,4599.871582,4425.512695,4421.025879,4534.615234,4560.256348,4549.743652,4529.358887,4416.538574,4424.102539,4608.077148,4524.871582,4517.05127,4507.179688,4622.05127,4386.153809,4559.871582,4518.077148,4431.410156,4544.615234,4545.897461,2836,1,18,2567,65207,,,,0,4,4,4,4,4,4,4,4,4,4,4,4,4,4,4,4,4,4,4,4,4,4,4,4,4,4,4,4,4,4,4,4,100,,,,,,,,,,,,,,,,,,,,,,,,,,,,,,,,,,,,,,,,,,,,,,,,,,,,,,,,,,,,,,,,,,,,,,,,,,,,,,,,,,,,,,,,,,,,,,,,,,,,,,,,,,,,,,,,,,,,,,,,,,,,,,,,,,,,,,,,,,,,,,,,,,,,,,,,,,,,,,,,,,,,,,,,,,,,,,,,,,,,,,,,,,,,,,,,,,,,,,,,,,,,,,
1764666696.047107,25860,0,4427.05127,4443.461426,4557.820313,4574.615234,4438.717773,4560.512695,4572.05127,4416.282227,4597.820313,4386.153809,4534.871582,4557.94873,4612.05127,4436.025879,4426.794922,4538.589844,4574.615234,4553.333496,4531.153809,4421.922852,4424.615234,4621.153809,4537.692383,4531.153809,4488.846191,4646.666504,4407.563965,4580.769043,4530.128418,4448.974121,4564.615234,4563.589844,2700,1,18,2563,65215,,,,0,4,4,4,4,4,4,4,4,4,4,4,4,4,4,4,4,4,4,4,4,4,4,4,4,4,4,4,4,4,4,4,4,100,,,,,,,,,,,,,,,,,,,,,,,,,,,,,,,,,,,,,,,,,,,,,,,,,,,,,,,,,,,,,,,,,,,,,,,,,,,,,,,,,,,,,,,,,,,,,,,,,,,,,,,,,,,,,,,,,,,,,,,,,,,,,,,,,,,,,,,,,,,,,,,,,,,,,,,,,,,,,,,,,,,,,,,,,,,,,,,,,,,,,,,,,,,,,,,,,,,,,,,,,,,,,,
1764666696.051013,25861,0,4436.538574,4455.641113,4570.384766,4585.897461,4452.05127,4570.769043,4584.487305,4427.820313,4612.692383,4410.256348,4542.307617,4567.05127,4619.871582,4442.05127,4432.307617,4542.179688,4586.410156,4562.05127,4536.410156,4427.563965,4424.743652,4632.307617,4549.230957,4540.256348,4447.692383,4654.615234,4435.512695,4601.538574,4542.307617,4463.589844,4584.743652,4579.102539,2778,1,18,2563,65215,,,,0,4,4,4,4,4,4,4,4,4,4,4,4,4,4,4,4,4,4,4,4,4,4,4,4,4,4,4,4,4,4,4,4,100,,,,,,,,,,,,,,,,,,,,,,,,,,,,,,,,,,,55617,0,0.358859,-0.617798,-0.470337,0.518005,0.949823,-0.299353,-0.044927,2,48.5,14.5,,,,,,,,,,,,,,,,,,,,,,,,,,,,,,,,,,,,,,,,,,,,,,,,,,,,,,,,,,,,,,,,,,,,,,,,,,,,,,,,,,,,,,,,,,,,,,,,,,,,,,,,,,,,,,,,,,,,,,,,,,,,,,,,,,,,,,,,,,,,,,,,,,,,,,,,,,,,,,,,
1764666696.054919,25862,0,4436.794922,4456.794922,4572.563965,4586.153809,4452.563965,4568.717773,4585.384766,4428.846191,4618.846191,4443.974121,4543.974121,4565.512695,4618.846191,4440,4432.307617,4544.230957,4589.102539,4572.692383,4544.615234,4431.153809,4424.230957,4638.205078,4553.077148,4541.538574,4422.563965,4643.974121,4451.538574,4609.615234,4546.282227,4466.025879,4592.307617,4581.922852,2800,1,18,2561,65222,,,,0,4,4,4,4,4,4,4,4,4,4,4,4,4,4,4,4,4,4,4,4,4,4,4,4,4,4,4,4,4,4,4,4,100,,,,,,,,,,,,,,,,,,,,,,,,,,,,,,,,,,,,,,,,,,,,,,,,,,,,,,,,,,,,,,,,,,,,,,,,,,,,,,,,,,,,,,,,,,,,,,,,,,,,,,,,,,,,,,,,,,,,,,,,,,,,,,,,,,,,,,,,,,,,,,,,,,,,,,,,,,,,,,,,,,,,,,,,,,,,,,,,,,,,,,,,,,,,,,,,,,,,,,,,,,,,,,
1764666696.058825,25863,0,4428.333496,4446.794922,4564.487305,4576.410156,4441.794922,4556.666504,4574.871582,4419.871582,4612.692383,4465.256348,4540.384766,4554.487305,4611.025879,4432.820313,4425.512695,4545,4582.179688,4581.538574,4554.487305,4432.820313,4425.512695,4636.538574,4547.820313,4535.256348,4432.820313,4625,4446.410156,4600.256348,4539.487305,4455.128418,4583.205078,4570.897461,2976,1,18,2561,65222,,,,0,4,4,4,4,4,4,4,4,4,4,4,4,4,4,4,4,4,4,4,4,4,4,4,4,4,4,4,4,4,4,4,4,100,,,,,,,,,,,,,,,,,,,,,,,,,,,,,,,,,,,,,,,,,,,,,,,,,,,,,,,,,,,,,,,,,,,,,,,,,,,,,,,,,,,,,,,,,,,,,,,,,,,,,,,,,,,,,,,,,,,,,,,,,,,,,,,,,,,,,,,,,,,,,,,,,,,,,,,,,,,,,,,,,,,,,,,,,,,,,,,,,,,,,,,,,,,,,,,,,,,,,,,,,,,,,,
1764666696.062731,25864,0,4416.410156,4431.282227,4551.410156,4562.563965,4426.922852,4542.692383,4559.102539,4406.282227,4599.102539,4465.384766,4535,4539.871582,4601.922852,4426.153809,4416.538574,4545.512695,4570.384766,4585.512695,4561.922852,4433.461426,4429.102539,4627.179688,4536.666504,4523.846191,4457.436035,4610.769043,4426.282227,4580.128418,4526.282227,4437.692383,4565.128418,4553.461426,2893,1,18,2562,65230,,,,0,4,4,4,4,4,4,4,4,4,4,4,4,4,4,4,4,4,4,4,4,4,4,4,4,4,4,4,4,4,4,4,4,100,,,,,,,,,,,,,,,,,,,,,,,,,,,,,,,,,,,,,,,,,,,,,,,,,,,,,,,,,,,,,,,,,,,,,,,,,,,,,,,,,,,,,,,,,,,,,,,,,,,,,,,,,,,,,,,,,,,,,,,,,,,,,,,,,,,,,,,,,,,,,,,,,,,,,,,,,,,,,,,,,,,,,,,,,,,,,,,,,,,,,,,,,,,,,,,,,,,,,,,,,,,,,,
1764666696.066637,25865,0,4407.05127,4417.179688,4539.871582,4549.487305,4415.384766,4533.846191,4544.743652,4393.717773,4586.025879,4451.922852,4529.871582,4528.461426,4595.256348,4423.717773,4411.153809,4546.282227,4559.615234,4583.461426,4561.666504,4432.820313,4432.436035,4612.179688,4525.512695,4511.025879,4456.666504,4607.307617,4408.077148,4562.692383,4514.615234,4423.461426,4550.128418,4539.871582,2720,1,18,2562,65230,,,,0,4,4,4,4,4,4,4,4,4,4,4,4,4,4,4,4,4,4,4,4,4,4,4,4,4,4,4,4,4,4,4,4,100,,,,,,,,,,,,,,,,,,,,,,,,,,,,,,,,,,,55618,0,0.358753,-0.617859,-0.470337,0.518005,0.9508,-0.296423,-0.043951,2.333333,49.666668,14.5,,,,,,,,,,,,,,,,,,,,,,,,,,,,,,,,,,,,,,,,,,,,,,,,,,,,,,,,,,,,,,,,,,,,,,,,,,,,,,,,,,,,,,,,,,,,,,,,,,,,,,,,,,,,,,,,,,,,,,,,,,,,,,,,,,,,,,,,,,,,,,,,,,,,,,,,,,,,,,,,
1764666696.070543,25866,0,4403.461426,4409.487305,4533.461426,4540.641113,4410.641113,4531.922852,4535.769043,4384.871582,4579.743652,4437.307617,4524.743652,4523.846191,4591.794922,4424.230957,4411.666504,4546.153809,4553.461426,4577.05127,4552.820313,4429.358887,4431.922852,4596.794922,4519.487305,4501.025879,4414.358887,4611.666504,4405.128418,4557.436035,4510.128418,4418.077148,4545.641113,4536.025879,1472,1,18,2562,65238,,,,0,4,4,4,4,4,4,4,4,4,4,4,4,4,4,4,4,4,4,4,4,4,4,4,4,4,4,4,4,4,4,4,4,100,,,,,,,,,,,,,,,,,,,,,,,,,,,,,,,,,,,,,,,,,,,,,,,,,,,,,,,,,,,,,,,,,,,,,,,,,,,,,,,,,,,,,,,,,,,,,,,,,,,,,,,,,,,,,,,,,,,,,,,,,,,,,,,,,,,,,,,,,,,,,,,,,,,,,,,,,,,,,,,,,,,,,,,,,,,,,,,,,,,,,,,,,,,,,,,,,,,,,,,,,,,,,,
1764666696.074449,25867,0,4405.128418,4409.102539,4532.436035,4537.05127,4411.794922,4534.743652,4532.94873,4381.410156,4580.512695,4427.436035,4518.846191,4525.512695,4590.256348,4424.230957,4415.384766,4544.102539,4552.436035,4569.230957,4540,4422.692383,4426.666504,4587.307617,4520.769043,4497.307617,4356.025879,4617.307617,4416.922852,4564.230957,4513.205078,4420.769043,4549.743652,4539.615234,2702,1,18,2562,65238,,,,0,4,4,4,4,4,4,4,4,4,4,4,4,4,4,4,4,4,4,4,4,4,4,4,4,4,4,4,4,4,4,4,4,100,,,,,,,,,,,,,,,,,,,,,,,,,,,,,,,,,,,,,,,,,,,,,,,,,,,,,,,,,,,,,,,,,,,,,,,,,,,,,,,,,,,,,,,,,,,,,,,,,,,,,,,,,,,,,,,,,,,,,,,,,,,,,,,,,,,,,,,,,,,,,,,,,,,,,,,,,,,,,,,,,,,,,,,,,,,,,,,,,,,,,,,,,,,,,,,,,,,,,,,,,,,,,,
1764666696.078355,25868,0,4408.974121,4413.846191,4534.487305,4538.205078,4415.128418,4538.461426,4535.128418,4383.333496,4584.615234,4418.461426,4512.436035,4529.615234,4589.102539,4421.282227,4416.922852,4539.358887,4554.358887,4562.179688,4530.641113,4413.846191,4420.128418,4586.666504,4526.282227,4499.615234,4325.897461,4619.743652,4430.128418,4574.102539,4519.102539,4425.769043,4554.487305,4543.717773,2500,1,18,2560,65246,,,,0,4,4,4,4,4,4,4,4,4,4,4,4,4,4,4,4,4,4,4,4,4,4,4,4,4,4,4,4,4,4,4,4,100,,,,,,,,,,,,,,,,,,,,,,,,,,,,,,,,,,,,,,,,,,,,,,,,,,,,,,,,,,,,,,,,,,,,,,,,,,,,,,,,,,,,,,,,,,,,,,,,,,,,,,,,,,,,,,,,,,,,,,,,,,,,,,,,,,,,,,,,,,,,,,,,,,,,,,,,,,,,,,,,,,,,,,,,,,,,,,,,,,,,,,,,,,,,,,,,,,,,,,,,,,,,,,
1764666696.082261,25869,0,4411.282227,4419.230957,4536.282227,4541.794922,4417.05127,4540.512695,4540.384766,4389.487305,4587.179688,4404.358887,4507.05127,4532.563965,4587.05127,4416.794922,4413.333496,4532.820313,4555.641113,4555.769043,4528.589844,4405.384766,4417.436035,4591.282227,4530.384766,4503.589844,4347.307617,4617.94873,4431.153809,4577.307617,4522.307617,4427.820313,4553.461426,4542.692383,2284,1,18,2560,65246,,,,0,4,4,4,4,4,4,4,4,4,4,4,4,4,4,4,4,4,4,4,4,4,4,4,4,4,4,4,4,4,4,4,4,100,,,,,,,,,,,,,,,,,,,,,,,,,,,,,,,,,,,55619,0,0.358867,-0.617737,-0.470276,0.518127,0.954706,-0.311073,-0.042974,2.5,48.666668,13.833333,,,,,,,,,,,,,,,,,,,,,,,,,,,,,,,,,,,,,,,,,,,,,,,,,,,,,,,,,,,,,,,,,,,,,,,,,,,,,,,,,,,,,,,,,,,,,,,,,,,,,,,,,,,,,,,,,,,,,,,,,,,,,,,,,,,,,,,,,,,,,,,,,,,,,,,,,,,,,,,,
1764666696.086167,25870,0,4410.384766,4422.179688,4536.538574,4545.256348,4416.282227,4540.897461,4545.512695,4396.282227,4586.025879,4388.077148,4504.871582,4532.307617,4584.230957,4413.974121,4406.794922,4526.410156,4554.487305,4549.615234,4531.410156,4400.256348,4420.769043,4594.871582,4529.487305,4505.256348,4402.820313,4613.333496,4417.307617,4570.641113,4520.512695,4425.641113,4546.922852,4537.692383,2707,1,18,2560,65254,,,,0,4,4,4,4,4,4,4,4,4,4,4,4,4,4,4,4,4,4,4,4,4,4,4,4,4,4,4,4,4,4,4,4,100,,,,,,,,,,,,,,,,,,,,,,,,,,,,,,,,,,,,,,,,,,,,,,,,,,,,,,,,,,,,,,,,,,,,,,,,,,,,,,,,,,,,,,,,,,,,,,,,,,,,,,,,,,,,,,,,,,,,,,,,,,,,,,,,,,,,,,,,,,,,,,,,,,,,,,,,,,,,,,,,,,,,,,,,,,,,,,,,,,,,,,,,,,,,,,,,,,,,,,,,,,,,,,
1764666696.090073,25871,0,4407.563965,4423.077148,4536.794922,4547.563965,4414.358887,4541.666504,4548.205078,4399.743652,4583.589844,4382.05127,4506.922852,4530,4582.307617,4415.256348,4402.05127,4522.179688,4551.922852,4544.358887,4533.333496,4400.641113,4426.794922,4594.743652,4525.128418,4504.102539,4451.666504,4609.487305,4398.974121,4559.871582,4516.794922,4423.077148,4541.025879,4535.128418,2495,1,18,2560,65254,,,,0,4,4,4,4,4,4,4,4,4,4,4,4,4,4,4,4,4,4,4,4,4,4,4,4,4,4,4,4,4,4,4,4,100,,,,,,,,,,,,,,,,,,,,,,,,,,,,,,,,,,,,,,,,,,,,,,,,,,,,,,,,,,,,,,,,,,,,,,,,,,,,,,,,,,,,,,,,,,,,,,,,,,,,,,,,,,,,,,,,,,,,,,,,,,,,,,,,,,,,,,,,,,,,,,,,,,,,,,,,,,,,,,,,,,,,,,,,,,,,,,,,,,,,,,,,,,,,,,,,,,,,,,,,,,,,,,
1764666696.093979,25872,0,4405.641113,4424.230957,4539.358887,4549.615234,4414.487305,4544.743652,4548.333496,4397.94873,4583.333496,4397.692383,4512.436035,4528.205078,4583.205078,4419.358887,4402.436035,4521.025879,4550.641113,4541.282227,4530.384766,4406.666504,4429.743652,4593.717773,4522.692383,4504.358887,4462.179688,4609.871582,4389.487305,4554.487305,4516.025879,4424.487305,4542.05127,4540.256348,2880,1,18,2560,65261,,,,0,4,4,4,4,4,4,4,4,4,4,4,4,4,4,4,4,4,4,4,4,4,4,4,4,4,4,4,4,4,4,4,4,100,,,,,,,,,,,,,,,,,,,,,,,,,,,,,,,,,,,,,,,,,,,,,,,,,,,,,,,,,,,,,,,,,,,,,,,,,,,,,,,,,,,,,,,,,,,,,,,,,,,,,,,,,,,,,,,,,,,,,,,,,,,,,,,,,,,,,,,,,,,,,,,,,,,,,,,,,,,,,,,,,,,,,,,,,,,,,,,,,,,,,,,,,,,,,,,,,,,,,,,,,,,,,,
1764666696.097885,25873,0,4406.922852,4427.436035,4545.128418,4553.077148,4418.589844,4550,4548.333496,4393.846191,4586.410156,4431.922852,4519.358887,4529.487305,4587.179688,4422.820313,4407.307617,4522.436035,4552.820313,4541.410156,4523.333496,4414.743652,4426.025879,4595.897461,4526.153809,4509.487305,4434.358887,4615.769043,4394.487305,4559.615234,4520.769043,4430.641113,4549.871582,4551.282227,3048,1,18,2560,65261,,,,0,4,4,4,4,4,4,4,4,4,4,4,4,4,4,4,4,4,4,4,4,4,4,4,4,4,4,4,4,4,4,4,4,100,,,,,,,,,,,,,,,,,,,,,,,,,,,,,,,,,,,55620,0,0.358981,-0.617615,-0.470215,0.51825,0.951288,-0.313515,-0.053717,3,48,14.666667,,,,,,,,,,,,,,,,,,,,,,,,,,,,,,,,,,,,,,,,,,,,,,,,,,,,,,,,,,,,,,,,,,,,,,,,,,,,,,,,,,,,,,,,,,,,,,,,,,,,,,,,,,,,,,,,,,,,,,,,,,,,,,,,,,,,,,,,,,,,,,,,,,,,,,,,,,,,,,,,
1764666696.101791,25874,0,4411.922852,4432.94873,4552.692383,4559.102539,4426.538574,4555.769043,4551.282227,4393.974121,4591.153809,4464.743652,4525.512695,4534.230957,4593.333496,4422.94873,4412.820313,4524.743652,4558.333496,4544.358887,4516.153809,4420,4418.077148,4602.05127,4534.230957,4518.461426,4393.717773,4624.487305,4409.487305,4572.94873,4528.461426,4438.717773,4560.128418,4561.410156,1791,1,18,2561,65269,,,,0,4,4,4,4,4,4,4,4,4,4,4,4,4,4,4,4,4,4,4,4,4,4,4,4,4,4,4,4,4,4,4,4,100,,,,,,,,,,,,,,,,,,,,,,,,,,,,,,,,,,,,,,,,,,,,,,,,,,,,,,,,,,,,,,,,,,,,,,,,,,,,,,,,,,,,,,,,,,,,,,,,,,,,,,,,,,,,,,,,,,,,,,,,,,,,,,,,,,,,,,,,,,,,,,,,,,,,,,,,,,,,,,,,,,,,,,,,,,,,,,,,,,,,,,,,,,,,,,,,,,,,,,,,,,,,,,
1764666696.105697,25875,0,4418.846191,4439.230957,4559.743652,4567.05127,4436.410156,4560.384766,4558.846191,4402.94873,4596.410156,4473.717773,4530.128418,4540.769043,4599.871582,4420,4415.641113,4527.05127,4565.384766,4548.589844,4513.205078,4419.615234,4410.897461,4609.615234,4542.563965,4526.922852,4368.077148,4631.153809,4425.897461,4587.94873,4534.871582,4445,4567.820313,4565.256348,2816,1,18,2561,65269,,,,0,4,4,4,4,4,4,4,4,4,4,4,4,4,4,4,4,4,4,4,4,4,4,4,4,4,4,4,4,4,4,4,4,100,,,,,,,,,,,,,,,,,,,,,,,,,,,,,,,,,,,,,,,,,,,,,,,,,,,,,,,,,,,,,,,,,,,,,,,,,,,,,,,,,,,,,,,,,,,,,,,,,,,,,,,,,,,,,,,,,,,,,,,,,,,,,,,,,,,,,,,,,,,,,,,,,,,,,,,,,,,,,,,,,,,,,,,,,,,,,,,,,,,,,,,,,,,,,,,,,,,,,,,,,,,,,,
1764666696.109603,25876,0,4424.487305,4444.102539,4564.743652,4574.743652,4444.743652,4563.333496,4568.846191,4418.589844,4602.436035,4452.436035,4532.820313,4545.128418,4604.743652,4416.410156,4414.615234,4529.102539,4570.128418,4551.922852,4514.871582,4414.615234,4406.666504,4613.974121,4546.666504,4530,4370,4632.692383,4436.025879,4597.563965,4537.307617,4447.307617,4570.512695,4562.692383,2540,1,18,2562,65277,,,,0,4,4,4,4,4,4,4,4,4,4,4,4,4,4,4,4,4,4,4,4,4,4,4,4,4,4,4,4,4,4,4,4,100,,,,,,,,,,,,,,,,,,,,,,,,,,,,,,,,,,,,,,,,,,,,,,,,,,,,,,,,,,,,,,,,,,,,,,,,,,,,,,,,,,,,,,,,,,,,,,,,,,,,,,,,,,,,,,,,,,,,,,,,,,,,,,,,,,,,,,,,,,,,,,,,,,,,,,,,,,,,,,,,,,,,,,,,,,,,,,,,,,,,,,,,,,,,,,,,,,,,,,,,,,,,,,
1764666696.113509,25877,0,4424.871582,4444.230957,4564.743652,4577.820313,4446.794922,4563.205078,4575.256348,4431.025879,4605.897461,4415.641113,4532.05127,4543.205078,4604.487305,4413.974121,4410.384766,4530.769043,4568.974121,4551.025879,4517.436035,4407.94873,4401.794922,4610.897461,4543.333496,4526.153809,4392.436035,4628.974121,4435.384766,4596.794922,4534.871582,4444.743652,4567.563965,4555.897461,2819,1,18,2562,65277,,,,0,4,4,4,4,4,4,4,4,4,4,4,4,4,4,4,4,4,4,4,4,4,4,4,4,4,4,4,4,4,4,4,4,100,,,,,,,,,,,,,,,,,,,,,,,,,,,,,,,,,,,55621,0,0.358787,-0.617737,-0.470337,0.518127,0.942498,-0.2974,-0.059089,3,48,14.666667,,,,,,,,,,,,,,,,,,,,,,,,,,,,,,,,,,,,,,,,,,,,,,,,,,,,,,,,,,,,,,,,,,,,,,,,,,,,,,,,,,,,,,,,,,,,,,,,,,,,,,,,,,,,,,,,,,,,,,,,,,,,,,,,,,,,,,,,,,,,,,,,,,,,,,,,,,,,,,,,
1764666696.117415,25878,0,4417.692383,4437.179688,4556.410156,4571.153809,4438.846191,4558.077148,4571.666504,4428.461426,4600.512695,4386.410156,4526.282227,4533.077148,4596.794922,4412.563965,4404.358887,4531.538574,4560,4544.487305,4517.05127,4402.436035,4392.307617,4599.230957,4532.820313,4516.666504,4418.846191,4622.179688,4422.820313,4584.487305,4527.563965,4437.179688,4558.974121,4546.538574,2923,1,18,2563,65285,,,,0,4,4,4,4,4,4,4,4,4,4,4,4,4,4,4,4,4,4,4,4,4,4,4,4,4,4,4,4,4,4,4,4,100,,,,,,,,,,,,,,,,,,,,,,,,,,,,,,,,,,,,,,,,,,,,,,,,,,,,,,,,,,,,,,,,,,,,,,,,,,,,,,,,,,,,,,,,,,,,,,,,,,,,,,,,,,,,,,,,,,,,,,,,,,,,,,,,,,,,,,,,,,,,,,,,,,,,,,,,,,,,,,,,,,,,,,,,,,,,,,,,,,,,,,,,,,,,,,,,,,,,,,,,,,,,,,
1764666696.121322,25879,0,4405,4423.717773,4540.512695,4554.871582,4422.307617,4547.436035,4556.025879,4408.077148,4582.436035,4378.461426,4516.153809,4518.205078,4583.461426,4411.410156,4398.461426,4531.025879,4546.282227,4535.897461,4514.615234,4400.128418,4380.256348,4583.077148,4519.230957,4505.384766,4434.230957,4615.256348,4402.307617,4564.615234,4517.692383,4426.666504,4546.794922,4536.282227,2841,1,18,2563,65285,,,,0,4,4,4,4,4,4,4,4,4,4,4,4,4,4,4,4,4,4,4,4,4,4,4,4,4,4,4,4,4,4,4,4,100,,,,,,,,,,,,,,,,,,,,,,,,,,,,,,,,,,,,,,,,,,,,,,,,,,,,,,,,,,,,,,,,,,,,,,,,,,,,,,,,,,,,,,,,,,,,,,,,,,,,,,,,,,,,,,,,,,,,,,,,,,,,,,,,,,,,,,,,,,,,,,,,,,,,,,,,,,,,,,,,,,,,,,,,,,,,,,,,,,,,,,,,,,,,,,,,,,,,,,,,,,,,,,
1764666696.125228,25880,0,4392.307617,4409.743652,4524.102539,4536.153809,4404.102539,4534.615234,4534.358887,4379.487305,4558.974121,4388.974121,4505.641113,4505.384766,4571.153809,4410.641113,4395.769043,4529.487305,4534.358887,4532.05127,4515.512695,4401.538574,4374.487305,4570.256348,4508.974121,4496.538574,4434.230957,4610.897461,4382.436035,4545.897461,4509.102539,4417.05127,4535.256348,4527.94873,2710,1,18,2564,65293,,,,0,4,4,4,4,4,4,4,4,4,4,4,4,4,4,4,4,4,4,4,4,4,4,4,4,4,4,4,4,4,4,4,4,100,,,,,,,,,,,,,,,,,,,,,,,,,,,,,,,,,,,,,,,,,,,,,,,,,,,,,,,,,,,,,,,,,,,,,,,,,,,,,,,,,,,,,,,,,,,,,,,,,,,,,,,,,,,,,,,,,,,,,,,,,,,,,,,,,,,,,,,,,,,,,,,,,,,,,,,,,,,,,,,,,,,,,,,,,,,,,,,,,,,,,,,,,,,,,,,,,,,,,,,,,,,,,,
1764666696.129134,25881,0,4386.025879,4401.794922,4515.384766,4525.256348,4392.94873,4525.641113,4517.307617,4358.461426,4545.256348,4406.025879,4500.128418,4501.025879,4566.922852,4410.384766,4397.563965,4528.717773,4530.897461,4537.307617,4523.205078,4405.641113,4382.94873,4567.179688,4506.538574,4491.922852,4425.384766,4610.769043,4371.538574,4536.666504,4506.153809,4412.307617,4528.333496,4523.846191,2854,1,18,2564,65293,,,,0,4,4,4,4,4,4,4,4,4,4,4,4,4,4,4,4,4,4,4,4,4,4,4,4,4,4,4,4,4,4,4,4,100,,,,,,,,,,,,,,,,,,,,,,,,,,,,,,,,,,,55622,0,0.358601,-0.617859,-0.47052,0.517944,0.955195,-0.285679,-0.052252,3.833333,50,14.666667,,,,,,,,,,,,,,,,,,,,,,,,,,,,,,,,,,,,,,,,,,,,,,,,,,,,,,,,,,,,,,,,,,,,,,,,,,,,,,,,,,,,,,,,,,,,,,,,,,,,,,,,,,,,,,,,,,,,,,,,,,,,,,,,,,,,,,,,,,,,,,,,,,,,,,,,,,,,,,,,
1764666696.133040,25882,0,4388.589844,4403.205078,4517.820313,4527.179688,4393.589844,4525.128418,4513.717773,4356.025879,4552.179688,4419.487305,4502.436035,4506.666504,4572.436035,4410.641113,4402.820313,4530.128418,4537.820313,4550.128418,4534.615234,4410,4405.256348,4574.487305,4512.179688,4490.897461,4417.307617,4613.974121,4372.94873,4539.743652,4509.871582,4413.717773,4527.692383,4524.871582,1923,1,18,2565,65300,,,,0,4,4,4,4,4,4,4,4,4,4,4,4,4,4,4,4,4,4,4,4,4,4,4,4,4,4,4,4,4,4,4,4,100,1,25,4,4,4,3,4,4,3,1,3,1,4,4,4,4,4,4,4,3,3,4,3,4,4,3,1,4,1,3,4,4,3,4,,,,,,,,,,,,,1.417229,4.217504,7.143909,2.077779,1.97278,1.694891,5.755077,8.733039,2.33608,2.016326,1.498018,4.813602,9.597569,2.65354,2.520311,1.134993,6.093571,7.470176,2.146862,2.766059,1.740219,5.069521,8.618993,2.414664,2.425157,1.759971,5.167494,8.460911,2.388853,2.20476,1.751881,9.73327,10.123313,3.52573,3.557488,1.362121,9.757342,10.038978,4.085843,4.562376,1.371772,5.550439,7.53323,1.702918,2.917708,2.637277,6.886261,10.810029,5.647727,6.913335,0.853649,11.091784,12.527336,3.177107,2.093998,1.24183,6.595663,6.929038,2.029513,2.213732,1.446832,7.086962,6.148624,2.076746,2.228056,1.44084,8.14486,4.9347,1.351997,1.378167,2.282562,2.270415,3.905737,1.308995,1.511875,0.26166,0.587471,2.110643,0.804825,0.779699,1.634027,5.54004,7.94697,2.325382,2.37932,0.875613,3.213832,7.918625,2.084784,2.652367,0.618641,2.607708,5.500296,1.78239,2.697856,0.94589,1.537457,4.777504,1.390537,1.820106,2.280771,11.627508,9.288284,1.999292,2.326758,1.483774,6.301791,10.047621,2.422625,2.035791,0.683438,5.238536,7.05888,2.396967,2.071638,1.4012,13.807556,14.703401,3.699827,2.233164,2.867084,17.329094,17.390936,20.044607,19.496508,1.29792,6.984415,7.875988,3.448337,2.344041,1.290148,7.005113,7.318545,1.818046,4.094525,1.326611,7.59727,9.447807,2.251427,2.77402,0.694522,3.021871,4.704569,1.242551,1.064481,1.931735,6.660129,8.907678,2.148393,2.287095,1.403242,7.479681,9.526583,2.180642,2.599182,1.714859,6.274408,9.386399,2.694302,2.01948
1764666696.136946,25883,0,4397.94873,4411.538574,4527.563965,4538.461426,4403.717773,4532.94873,4524.743652,4371.410156,4576.282227,4425.512695,4510.897461,4518.333496,4583.846191,4411.025879,4408.589844,4534.230957,4551.410156,4563.717773,4543.846191,4412.94873,4430.897461,4586.794922,4521.922852,4491.666504,4414.487305,4618.461426,4383.717773,4551.410156,4517.179688,4419.871582,4532.436035,4530.512695,2606,1,18,2565,65300,,,,0,4,4,4,4,4,4,4,4,4,4,4,4,4,4,4,4,4,4,4,4,4,4,4,4,4,4,4,4,4,4,4,4,100,,,,,,,,,,,,,,,,,,,,,,,,,,,,,,,,,,,,,,,,,,,,,,,,,,,,,,,,,,,,,,,,,,,,,,,,,,,,,,,,,,,,,,,,,,,,,,,,,,,,,,,,,,,,,,,,,,,,,,,,,,,,,,,,,,,,,,,,,,,,,,,,,,,,,,,,,,,,,,,,,,,,,,,,,,,,,,,,,,,,,,,,,,,,,,,,,,,,,,,,,,,,,,
1764666696.140852,25884,0,4409.102539,4420.512695,4536.922852,4549.871582,4416.153809,4543.717773,4542.94873,4393.077148,4600.769043,4423.205078,4519.743652,4529.102539,4593.717773,4411.410156,4411.794922,4539.102539,4564.102539,4572.307617,4546.538574,4414.487305,4445.256348,4596.922852,4530.128418,4494.230957,4413.333496,4621.538574,4396.794922,4563.589844,4523.589844,4427.05127,4538.974121,4537.820313,2717,1,18,2566,65308,,,,0,4,4,4,4,4,4,4,4,4,4,4,4,4,4,4,4,4,4,4,4,4,4,4,4,4,4,4,4,4,4,4,4,100,,,,,,,,,,,,,,,,,,,,,,,,,,,,,,,,,,,,,,,,,,,,,,,,,,,,,,,,,,,,,,,,,,,,,,,,,,,,,,,,,,,,,,,,,,,,,,,,,,,,,,,,,,,,,,,,,,,,,,,,,,,,,,,,,,,,,,,,,,,,,,,,,,,,,,,,,,,,,,,,,,,,,,,,,,,,,,,,,,,,,,,,,,,,,,,,,,,,,,,,,,,,,,
1764666696.144758,25885,0,4416.282227,4424.102539,4539.102539,4552.94873,4422.820313,4551.153809,4556.410156,4407.692383,4607.563965,4412.307617,4523.589844,4533.205078,4596.282227,4410.641113,4410.128418,4541.025879,4569.230957,4572.563965,4543.077148,4414.358887,4439.743652,4600.256348,4532.692383,4498.461426,4407.820313,4620.128418,4404.615234,4569.230957,4525.512695,4430.384766,4542.436035,4542.692383,2559,1,18,2566,65308,,,,0,4,4,4,4,4,4,4,4,4,4,4,4,4,4,4,4,4,4,4,4,4,4,4,4,4,4,4,4,4,4,4,4,100,,,,,,,,,,,,,,,,,,,,,,,,,,,,,,,,,,,55623,0,0.358601,-0.617859,-0.47052,0.517944,0.945916,-0.307655,-0.055183,3.666667,49.666668,14.166667,,,,,,,,,,,,,,,,,,,,,,,,,,,,,,,,,,,,,,,,,,,,,,,,,,,,,,,,,,,,,,,,,,,,,,,,,,,,,,,,,,,,,,,,,,,,,,,,,,,,,,,,,,,,,,,,,,,,,,,,,,,,,,,,,,,,,,,,,,,,,,,,,,,,,,,,,,,,,,,,
1764666696.148664,25886,0,4416.282227,4421.025879,4532.820313,4546.025879,4420.128418,4552.05127,4557.94873,4407.94873,4590.897461,4395.897461,4521.153809,4529.743652,4591.025879,4408.205078,4403.846191,4537.05127,4565.128418,4565,4536.282227,4411.282227,4417.563965,4597.179688,4528.974121,4503.461426,4395.384766,4613.077148,4403.846191,4566.282227,4523.077148,4427.692383,4540.128418,4541.153809,2696,1,18,2567,65316,,,,0,4,4,4,4,4,4,4,4,4,4,4,4,4,4,4,4,4,4,4,4,4,4,4,4,4,4,4,4,4,4,4,4,100,,,,,,,,,,,,,,,,,,,,,,,,,,,,,,,,,,,,,,,,,,,,,,,,,,,,,,,,,,,,,,,,,,,,,,,,,,,,,,,,,,,,,,,,,,,,,,,,,,,,,,,,,,,,,,,,,,,,,,,,,,,,,,,,,,,,,,,,,,,,,,,,,,,,,,,,,,,,,,,,,,,,,,,,,,,,,,,,,,,,,,,,,,,,,,,,,,,,,,,,,,,,,,
1764666696.152570,25887,0,4411.282227,4415.512695,4522.563965,4535.128418,4412.05127,4548.333496,4549.230957,4397.692383,4562.436035,4382.05127,4516.922852,4523.077148,4583.205078,4405.256348,4396.538574,4528.333496,4556.666504,4552.307617,4528.846191,4404.871582,4392.692383,4591.666504,4523.205078,4507.05127,4377.563965,4603.333496,4398.205078,4559.102539,4520.128418,4421.153809,4535.384766,4534.358887,2837,1,18,2567,65316,,,,0,4,4,4,4,4,4,4,4,4,4,4,4,4,4,4,4,4,4,4,4,4,4,4,4,4,4,4,4,4,4,4,4,100,,,,,,,,,,,,,,,,,,,,,,,,,,,,,,,,,,,,,,,,,,,,,,,,,,,,,,,,,,,,,,,,,,,,,,,,,,,,,,,,,,,,,,,,,,,,,,,,,,,,,,,,,,,,,,,,,,,,,,,,,,,,,,,,,,,,,,,,,,,,,,,,,,,,,,,,,,,,,,,,,,,,,,,,,,,,,,,,,,,,,,,,,,,,,,,,,,,,,,,,,,,,,,
1764666696.156476,25888,0,4407.05127,4413.846191,4516.282227,4528.846191,4406.666504,4545.641113,4539.615234,4386.922852,4542.820313,4379.487305,4516.410156,4519.743652,4579.871582,4405.128418,4392.307617,4519.230957,4550.897461,4539.615234,4522.307617,4397.563965,4380.384766,4588.974121,4520.641113,4507.94873,4358.846191,4597.05127,4396.410156,4555.897461,4520.641113,4416.794922,4535.512695,4528.461426,2776,1,18,2565,65324,,,,0,4,4,4,4,4,4,4,4,4,4,4,4,4,4,4,4,4,4,4,4,4,4,4,4,4,4,4,4,4,4,4,4,100,,,,,,,,,,,,,,,,,,,,,,,,,,,,,,,,,,,,,,,,,,,,,,,,,,,,,,,,,,,,,,,,,,,,,,,,,,,,,,,,,,,,,,,,,,,,,,,,,,,,,,,,,,,,,,,,,,,,,,,,,,,,,,,,,,,,,,,,,,,,,,,,,,,,,,,,,,,,,,,,,,,,,,,,,,,,,,,,,,,,,,,,,,,,,,,,,,,,,,,,,,,,,,
1764666696.160382,25889,0,4407.820313,4418.974121,4519.358887,4532.307617,4409.487305,4547.692383,4537.692383,4384.743652,4546.282227,4388.717773,4521.922852,4523.333496,4584.487305,4408.717773,4393.077148,4514.743652,4552.179688,4532.820313,4517.820313,4393.461426,4387.563965,4591.153809,4523.589844,4506.666504,4347.05127,4599.230957,4404.102539,4561.666504,4525.512695,4419.230957,4544.358887,4530.128418,3007,1,18,2565,65324,,,,0,4,4,4,4,4,4,4,4,4,4,4,4,4,4,4,4,4,4,4,4,4,4,4,4,4,4,4,4,4,4,4,4,100,,,,,,,,,,,,,,,,,,,,,,,,,,,,,,,,,,,55624,0,0.358618,-0.617798,-0.47052,0.518005,0.972287,-0.311073,-0.041509,3.333333,48,13,,,,,,,,,,,,,,,,,,,,,,,,,,,,,,,,,,,,,,,,,,,,,,,,,,,,,,,,,,,,,,,,,,,,,,,,,,,,,,,,,,,,,,,,,,,,,,,,,,,,,,,,,,,,,,,,,,,,,,,,,,,,,,,,,,,,,,,,,,,,,,,,,,,,,,,,,,,,,,,,
1764666696.164288,25890,0,4413.205078,4428.717773,4530.641113,4543.461426,4419.358887,4554.102539,4544.487305,4391.922852,4569.358887,4403.589844,4530,4531.282227,4593.846191,4414.358887,4396.410156,4516.538574,4559.487305,4535,4516.666504,4394.743652,4407.563965,4596.922852,4530.512695,4504.743652,4350.384766,4609.102539,4418.717773,4573.589844,4532.179688,4427.820313,4558.461426,4540,2628,1,18,2561,65332,,,,0,4,4,4,4,4,4,4,4,4,4,4,4,4,4,4,4,4,4,4,4,4,4,4,4,4,4,4,4,4,4,4,4,100,,,,,,,,,,,,,,,,,,,,,,,,,,,,,,,,,,,,,,,,,,,,,,,,,,,,,,,,,,,,,,,,,,,,,,,,,,,,,,,,,,,,,,,,,,,,,,,,,,,,,,,,,,,,,,,,,,,,,,,,,,,,,,,,,,,,,,,,,,,,,,,,,,,,,,,,,,,,,,,,,,,,,,,,,,,,,,,,,,,,,,,,,,,,,,,,,,,,,,,,,,,,,,
1764666696.168194,25891,0,4418.077148,4436.794922,4542.692383,4554.358887,4429.102539,4560.256348,4553.974121,4401.666504,4594.230957,4417.820313,4535.256348,4537.179688,4601.282227,4418.589844,4398.461426,4522.692383,4566.794922,4544.230957,4518.974121,4399.615234,4426.410156,4602.307617,4536.410156,4503.333496,4370.512695,4619.743652,4430.384766,4582.820313,4535.769043,4436.538574,4568.717773,4550.769043,2838,1,18,2561,65332,,,,0,4,4,4,4,4,4,4,4,4,4,4,4,4,4,4,4,4,4,4,4,4,4,4,4,4,4,4,4,4,4,4,4,100,,,,,,,,,,,,,,,,,,,,,,,,,,,,,,,,,,,,,,,,,,,,,,,,,,,,,,,,,,,,,,,,,,,,,,,,,,,,,,,,,,,,,,,,,,,,,,,,,,,,,,,,,,,,,,,,,,,,,,,,,,,,,,,,,,,,,,,,,,,,,,,,,,,,,,,,,,,,,,,,,,,,,,,,,,,,,,,,,,,,,,,,,,,,,,,,,,,,,,,,,,,,,,
1764666696.172100,25892,0,4418.077148,4437.563965,4546.922852,4557.436035,4431.666504,4561.410156,4558.461426,4405.256348,4602.563965,4430.512695,4534.230957,4536.282227,4601.922852,4420.128418,4398.589844,4529.743652,4568.974121,4555,4523.846191,4403.974121,4433.461426,4603.717773,4537.307617,4502.307617,4399.102539,4622.563965,4430.512695,4582.05127,4533.333496,4438.846191,4568.077148,4552.94873,2716,1,18,2304,65340,,,,0,4,4,4,4,4,4,4,4,4,4,4,4,4,4,4,4,4,4,4,4,4,4,4,4,4,4,4,4,4,4,4,4,100,,,,,,,,,,,,,,,,,,,,,,,,,,,,,,,,,,,,,,,,,,,,,,,,,,,,,,,,,,,,,,,,,,,,,,,,,,,,,,,,,,,,,,,,,,,,,,,,,,,,,,,,,,,,,,,,,,,,,,,,,,,,,,,,,,,,,,,,,,,,,,,,,,,,,,,,,,,,,,,,,,,,,,,,,,,,,,,,,,,,,,,,,,,,,,,,,,,,,,,,,,,,,,
1764666696.176006,25893,0,4412.820313,4430.641113,4540.897461,4551.153809,4425.128418,4556.538574,4555.256348,4400.128418,4590.128418,4442.820313,4528.077148,4529.615234,4596.282227,4419.615234,4398.974121,4535.512695,4565.256348,4563.846191,4531.153809,4406.025879,4429.102539,4601.410156,4533.461426,4501.410156,4424.487305,4615,4418.205078,4571.666504,4525.769043,4433.461426,4557.563965,4543.461426,2779,1,18,2304,65340,,,,0,4,4,4,4,4,4,4,4,4,4,4,4,4,4,4,4,4,4,4,4,4,4,4,4,4,4,4,4,4,4,4,4,100,,,,,,,,,,,,,,,,,,,,,,,,,,,,,,,,,,,55625,0,0.35869,-0.617798,-0.470398,0.518066,0.961543,-0.29447,-0.033696,4,49.666668,15,,,,,,,,,,,,,,,,,,,,,,,,,,,,,,,,,,,,,,,,,,,,,,,,,,,,,,,,,,,,,,,,,,,,,,,,,,,,,,,,,,,,,,,,,,,,,,,,,,,,,,,,,,,,,,,,,,,,,,,,,,,,,,,,,,,,,,,,,,,,,,,,,,,,,,,,,,,,,,,,
1764666696.179912,25894,0,4406.794922,4421.538574,4529.358887,4541.025879,4414.487305,4550,4548.846191,4391.153809,4569.358887,4453.205078,4521.666504,4522.692383,4590,4419.230957,4402.692383,4539.615234,4560.641113,4570.897461,4541.025879,4407.692383,4422.820313,4599.230957,4529.358887,4501.922852,4442.179688,4603.717773,4401.025879,4559.102539,4517.94873,4425.128418,4545.512695,4529.102539,2803,1,18,1536,65347,,,,0,4,4,4,4,4,4,4,4,4,4,4,4,4,4,4,4,4,4,4,4,4,4,4,4,4,4,4,4,4,4,4,4,100,,,,,,,,,,,,,,,,,,,,,,,,,,,,,,,,,,,,,,,,,,,,,,,,,,,,,,,,,,,,,,,,,,,,,,,,,,,,,,,,,,,,,,,,,,,,,,,,,,,,,,,,,,,,,,,,,,,,,,,,,,,,,,,,,,,,,,,,,,,,,,,,,,,,,,,,,,,,,,,,,,,,,,,,,,,,,,,,,,,,,,,,,,,,,,,,,,,,,,,,,,,,,,
1764666696.183818,25895,0,4404.615234,4416.794922,4520.512695,4534.358887,4407.05127,4546.794922,4546.025879,4385.512695,4557.94873,4456.538574,4519.102539,4520.128418,4588.333496,4420.256348,4408.846191,4542.692383,4559.615234,4576.794922,4551.666504,4411.922852,4423.589844,4600.641113,4528.974121,4505.256348,4455.769043,4598.974121,4388.333496,4552.179688,4514.230957,4420.897461,4540.384766,4520.512695,2980,1,18,1536,65347,,,,0,4,4,4,4,4,4,4,4,4,4,4,4,4,4,4,4,4,4,4,4,4,4,4,4,4,4,4,4,4,4,4,4,100,,,,,,,,,,,,,,,,,,,,,,,,,,,,,,,,,,,,,,,,,,,,,,,,,,,,,,,,,,,,,,,,,,,,,,,,,,,,,,,,,,,,,,,,,,,,,,,,,,,,,,,,,,,,,,,,,,,,,,,,,,,,,,,,,,,,,,,,,,,,,,,,,,,,,,,,,,,,,,,,,,,,,,,,,,,,,,,,,,,,,,,,,,,,,,,,,,,,,,,,,,,,,,
1764666696.187724,25896,0,4406.794922,4417.94873,4518.717773,4534.487305,4405.897461,4547.820313,4548.974121,4385.897461,4563.717773,4448.333496,4520,4521.794922,4591.410156,4422.307617,4413.077148,4544.102539,4562.307617,4579.230957,4557.436035,4417.563965,4431.922852,4604.358887,4531.538574,4509.743652,4466.282227,4605.256348,4384.230957,4552.179688,4515.128418,4422.563965,4543.461426,4522.307617,2895,1,18,768,65355,,,,0,4,4,4,4,4,4,4,4,4,4,4,4,4,4,4,4,4,4,4,4,4,4,4,4,4,4,4,4,4,4,4,4,100,,,,,,,,,,,,,,,,,,,,,,,,,,,,,,,,,,,,,,,,,,,,,,,,,,,,,,,,,,,,,,,,,,,,,,,,,,,,,,,,,,,,,,,,,,,,,,,,,,,,,,,,,,,,,,,,,,,,,,,,,,,,,,,,,,,,,,,,,,,,,,,,,,,,,,,,,,,,,,,,,,,,,,,,,,,,,,,,,,,,,,,,,,,,,,,,,,,,,,,,,,,,,,
1764666696.191630,25897,0,4409.358887,4420.256348,4521.666504,4538.717773,4407.692383,4548.717773,4552.563965,4388.077148,4578.461426,4427.94873,4520.256348,4522.692383,4593.974121,4423.077148,4411.025879,4541.922852,4563.589844,4573.846191,4552.05127,4418.589844,4439.487305,4604.615234,4531.282227,4510.769043,4462.94873,4616.153809,4386.282227,4554.230957,4517.436035,4426.282227,4549.102539,4529.487305,2722,1,18,768,65355,,,,0,4,4,4,4,4,4,4,4,4,4,4,4,4,4,4,4,4,4,4,4,4,4,4,4,4,4,4,4,4,4,4,4,100,,,,,,,,,,,,,,,,,,,,,,,,,,,,,,,,,,,55626,0,0.35864,-0.61792,-0.470276,0.518066,0.94787,-0.293005,-0.047369,4,48.5,14.5,,,,,,,,,,,,,,,,,,,,,,,,,,,,,,,,,,,,,,,,,,,,,,,,,,,,,,,,,,,,,,,,,,,,,,,,,,,,,,,,,,,,,,,,,,,,,,,,,,,,,,,,,,,,,,,,,,,,,,,,,,,,,,,,,,,,,,,,,,,,,,,,,,,,,,,,,,,,,,,,
1764666696.195536,25898,0,4407.307617,4417.307617,4522.436035,4539.871582,4406.282227,4544.615234,4549.487305,4384.615234,4585.512695,4399.487305,4515.128418,4518.333496,4590.641113,4420.384766,4401.922852,4534.615234,4558.205078,4559.358887,4534.743652,4409.102539,4436.538574,4596.922852,4523.846191,4504.230957,4430,4620.384766,4389.358887,4552.307617,4517.05127,4425.641113,4550.256348,4532.05127,1464,1,18,512,65363,,,,0,4,4,4,4,4,4,4,4,4,4,4,4,4,4,4,4,4,4,4,4,4,4,4,4,4,4,4,4,4,4,4,4,100,,,,,,,,,,,,,,,,,,,,,,,,,,,,,,,,,,,,,,,,,,,,,,,,,,,,,,,,,,,,,,,,,,,,,,,,,,,,,,,,,,,,,,,,,,,,,,,,,,,,,,,,,,,,,,,,,,,,,,,,,,,,,,,,,,,,,,,,,,,,,,,,,,,,,,,,,,,,,,,,,,,,,,,,,,,,,,,,,,,,,,,,,,,,,,,,,,,,,,,,,,,,,,
1764666696.199442,25899,0,4398.974121,4407.05127,4516.666504,4533.333496,4398.461426,4534.743652,4537.179688,4372.05127,4575,4371.153809,4504.487305,4508.461426,4580.384766,4414.487305,4390.256348,4524.102539,4545.897461,4541.025879,4513.205078,4390.256348,4419.487305,4583.846191,4510.384766,4491.410156,4367.820313,4611.922852,4391.153809,4546.153809,4512.692383,4418.589844,4544.615234,4524.615234,2712,1,18,512,65363,,,,0,4,4,4,4,4,4,4,4,4,4,4,4,4,4,4,4,4,4,4,4,4,4,4,4,4,4,4,4,4,4,4,4,100,,,,,,,,,,,,,,,,,,,,,,,,,,,,,,,,,,,,,,,,,,,,,,,,,,,,,,,,,,,,,,,,,,,,,,,,,,,,,,,,,,,,,,,,,,,,,,,,,,,,,,,,,,,,,,,,,,,,,,,,,,,,,,,,,,,,,,,,,,,,,,,,,,,,,,,,,,,,,,,,,,,,,,,,,,,,,,,,,,,,,,,,,,,,,,,,,,,,,,,,,,,,,,
1764666696.203348,25900,0,4388.974121,4394.487305,4506.025879,4521.410156,4387.436035,4524.358887,4521.410156,4355,4551.666504,4353.461426,4493.077148,4498.846191,4568.077148,4408.974121,4382.692383,4514.871582,4532.820313,4528.333496,4498.589844,4371.153809,4395,4573.974121,4498.717773,4480.641113,4307.05127,4597.179688,4391.538574,4540.641113,4507.179688,4408.846191,4535.384766,4511.025879,2503,1,18,768,65371,,,,0,4,4,4,4,4,4,4,4,4,4,4,4,4,4,4,4,4,4,4,4,4,4,4,4,4,4,4,4,4,4,4,4,100,,,,,,,,,,,,,,,,,,,,,,,,,,,,,,,,,,,,,,,,,,,,,,,,,,,,,,,,,,,,,,,,,,,,,,,,,,,,,,,,,,,,,,,,,,,,,,,,,,,,,,,,,,,,,,,,,,,,,,,,,,,,,,,,,,,,,,,,,,,,,,,,,,,,,,,,,,,,,,,,,,,,,,,,,,,,,,,,,,,,,,,,,,,,,,,,,,,,,,,,,,,,,,
1764666696.207254,25901,0,4384.871582,4387.820313,4496.922852,4511.794922,4380.641113,4520,4512.436035,4344.358887,4531.666504,4355.641113,4487.820313,4496.538574,4561.666504,4407.692383,4383.717773,4512.179688,4527.692383,4528.461426,4498.717773,4363.717773,4376.666504,4575.256348,4497.179688,4480.512695,4291.922852,4589.230957,4391.794922,4541.025879,4504.743652,4403.717773,4528.589844,4500.641113,2288,1,18,768,65371,,,,0,4,4,4,4,4,4,4,4,4,4,4,4,4,4,4,4,4,4,4,4,4,4,4,4,4,4,4,4,4,4,4,4,100,,,,,,,,,,,,,,,,,,,,,,,,,,,,,,,,,,,55627,0,0.358543,-0.617981,-0.470337,0.518005,0.94787,-0.293005,-0.047369,1.5,48.5,15,,,,,,,,,,,,,,,,,,,,,,,,,,,,,,,,,,,,,,,,,,,,,,,,,,,,,,,,,,,,,,,,,,,,,,,,,,,,,,,,,,,,,,,,,,,,,,,,,,,,,,,,,,,,,,,,,,,,,,,,,,,,,,,,,,,,,,,,,,,,,,,,,,,,,,,,,,,,,,,,
1764666696.211160,25902,0,4391.538574,4392.436035,4495.769043,4512.307617,4383.974121,4525.384766,4517.563965,4349.230957,4529.487305,4379.743652,4492.820313,4505.384766,4566.153809,4412.692383,4392.436035,4517.307617,4535.384766,4540.769043,4512.307617,4374.487305,4375.384766,4588.205078,4507.692383,4493.461426,4343.974121,4596.666504,4392.436035,4547.94873,4507.820313,4408.205078,4528.846191,4502.05127,2711,1,18,1024,65379,,,,0,4,4,4,4,4,4,4,4,4,4,4,4,4,4,4,4,4,4,4,4,4,4,4,4,4,4,4,4,4,4,4,4,100,,,,,,,,,,,,,,,,,,,,,,,,,,,,,,,,,,,,,,,,,,,,,,,,,,,,,,,,,,,,,,,,,,,,,,,,,,,,,,,,,,,,,,,,,,,,,,,,,,,,,,,,,,,,,,,,,,,,,,,,,,,,,,,,,,,,,,,,,,,,,,,,,,,,,,,,,,,,,,,,,,,,,,,,,,,,,,,,,,,,,,,,,,,,,,,,,,,,,,,,,,,,,,
1764666696.215066,25903,0,4406.922852,4406.666504,4504.743652,4525,4397.307617,4538.461426,4535.256348,4370.128418,4547.436035,4418.589844,4506.282227,4521.794922,4579.743652,4422.05127,4403.333496,4526.666504,4552.563965,4556.794922,4529.871582,4397.436035,4391.025879,4604.615234,4524.487305,4512.307617,4438.333496,4615.512695,4394.102539,4557.307617,4515.769043,4420.641113,4536.282227,4515.897461,2490,1,18,1024,65379,,,,0,4,4,4,4,4,4,4,4,4,4,4,4,4,4,4,4,4,4,4,4,4,4,4,4,4,4,4,4,4,4,4,4,100,,,,,,,,,,,,,,,,,,,,,,,,,,,,,,,,,,,,,,,,,,,,,,,,,,,,,,,,,,,,,,,,,,,,,,,,,,,,,,,,,,,,,,,,,,,,,,,,,,,,,,,,,,,,,,,,,,,,,,,,,,,,,,,,,,,,,,,,,,,,,,,,,,,,,,,,,,,,,,,,,,,,,,,,,,,,,,,,,,,,,,,,,,,,,,,,,,,,,,,,,,,,,,
1764666696.218972,25904,0,4422.692383,4423.205078,4519.358887,4543.333496,4413.461426,4553.077148,4555.256348,4397.05127,4573.461426,4456.666504,4521.282227,4537.05127,4594.230957,4430.897461,4410.256348,4533.077148,4569.102539,4565,4538.589844,4417.563965,4411.410156,4613.205078,4537.05127,4525.256348,4517.05127,4632.179688,4397.307617,4564.102539,4524.102539,4434.102539,4546.794922,4533.846191,2881,1,18,1280,65386,,,,0,4,4,4,4,4,4,4,4,4,4,4,4,4,4,4,4,4,4,4,4,4,4,4,4,4,4,4,4,4,4,4,4,100,,,,,,,,,,,,,,,,,,,,,,,,,,,,,,,,,,,,,,,,,,,,,,,,,,,,,,,,,,,,,,,,,,,,,,,,,,,,,,,,,,,,,,,,,,,,,,,,,,,,,,,,,,,,,,,,,,,,,,,,,,,,,,,,,,,,,,,,,,,,,,,,,,,,,,,,,,,,,,,,,,,,,,,,,,,,,,,,,,,,,,,,,,,,,,,,,,,,,,,,,,,,,,
1764666696.222878,25905,0,4430.256348,4434.102539,4531.025879,4555.897461,4423.077148,4561.794922,4566.025879,4415.256348,4590.512695,4476.025879,4530.769043,4543.205078,4600.256348,4433.717773,4409.871582,4531.410156,4575.256348,4558.846191,4531.794922,4421.153809,4421.666504,4608.077148,4538.717773,4523.974121,4532.179688,4635,4402.05127,4565.512695,4528.717773,4440.641113,4555,4544.743652,3000,1,18,1280,65386,,,,0,4,4,4,4,4,4,4,4,4,4,4,4,4,4,4,4,4,4,4,4,4,4,4,4,4,4,4,4,4,4,4,4,100,,,,,,,,,,,,,,,,,,,,,,,,,,,,,,,,,,,55628,0,0.358252,-0.618164,-0.47052,0.517822,0.947381,-0.292028,-0.052741,3.333333,47.5,16,,,,,,,,,,,,,,,,,,,,,,,,,,,,,,,,,,,,,,,,,,,,,,,,,,,,,,,,,,,,,,,,,,,,,,,,,,,,,,,,,,,,,,,,,,,,,,,,,,,,,,,,,,,,,,,,,,,,,,,,,,,,,,,,,,,,,,,,,,,,,,,,,,,,,,,,,,,,,,,,
1764666696.226784,25906,0,4426.794922,4435.641113,4533.846191,4555,4421.666504,4561.282227,4562.820313,4416.153809,4589.102539,4465.897461,4530.897461,4538.461426,4594.615234,4428.205078,4403.589844,4522.820313,4568.461426,4541.538574,4513.846191,4407.563965,4416.794922,4593.333496,4530.641113,4510.256348,4480.256348,4623.077148,4406.922852,4562.820313,4527.692383,4437.05127,4557.179688,4543.205078,1787,1,18,1536,65394,,,,0,4,4,4,4,4,4,4,4,4,4,4,4,4,4,4,4,4,4,4,4,4,4,4,4,4,4,4,4,4,4,4,4,100,,,,,,,,,,,,,,,,,,,,,,,,,,,,,,,,,,,,,,,,,,,,,,,,,,,,,,,,,,,,,,,,,,,,,,,,,,,,,,,,,,,,,,,,,,,,,,,,,,,,,,,,,,,,,,,,,,,,,,,,,,,,,,,,,,,,,,,,,,,,,,,,,,,,,,,,,,,,,,,,,,,,,,,,,,,,,,,,,,,,,,,,,,,,,,,,,,,,,,,,,,,,,,
1764666696.230690,25907,0,4416.666504,4429.487305,4528.461426,4542.563965,4412.307617,4553.974121,4550.897461,4402.179688,4574.230957,4431.153809,4523.974121,4528.461426,4582.05127,4417.307617,4396.153809,4513.333496,4554.871582,4523.717773,4496.666504,4389.358887,4403.846191,4579.615234,4520.897461,4494.487305,4402.436035,4606.025879,4409.230957,4559.230957,4522.563965,4426.794922,4552.820313,4532.94873,2818,1,18,1536,65394,,,,0,4,4,4,4,4,4,4,4,4,4,4,4,4,4,4,4,4,4,4,4,4,4,4,4,4,4,4,4,4,4,4,4,100,,,,,,,,,,,,,,,,,,,,,,,,,,,,,,,,,,,,,,,,,,,,,,,,,,,,,,,,,,,,,,,,,,,,,,,,,,,,,,,,,,,,,,,,,,,,,,,,,,,,,,,,,,,,,,,,,,,,,,,,,,,,,,,,,,,,,,,,,,,,,,,,,,,,,,,,,,,,,,,,,,,,,,,,,,,,,,,,,,,,,,,,,,,,,,,,,,,,,,,,,,,,,,
1764666696.234596,25908,0,4406.794922,4421.025879,4520.256348,4527.563965,4402.563965,4545.641113,4539.230957,4384.871582,4558.589844,4391.025879,4514.743652,4520,4571.153809,4407.05127,4392.692383,4508.717773,4543.589844,4514.615234,4490.128418,4381.538574,4394.487305,4575.512695,4516.922852,4486.794922,4350,4595.128418,4405.897461,4557.179688,4517.179688,4416.410156,4544.487305,4522.179688,2550,1,18,1792,65402,,,,0,4,4,4,4,4,4,4,4,4,4,4,4,4,4,4,4,4,4,4,4,4,4,4,4,4,4,4,4,4,4,4,4,100,,,,,,,,,,,,,,,,,,,,,,,,,,,,,,,,,,,,,,,,,,,,,,,,,,,,,,,,,,,,,,,,,,,,,,,,,,,,,,,,,,,,,,,,,,,,,,,,,,,,,,,,,,,,,,,,,,,,,,,,,,,,,,,,,,,,,,,,,,,,,,,,,,,,,,,,,,,,,,,,,,,,,,,,,,,,,,,,,,,,,,,,,,,,,,,,,,,,,,,,,,,,,,
1764666696.238502,25909,0,4401.538574,4414.615234,4514.615234,4519.743652,4398.589844,4540.641113,4534.230957,4375.769043,4552.692383,4368.077148,4507.563965,4516.666504,4567.436035,4401.922852,4394.102539,4509.487305,4539.743652,4515.384766,4494.871582,4388.077148,4394.102539,4580.384766,4519.743652,4488.846191,4346.153809,4594.358887,4397.563965,4556.538574,4514.230957,4410.256348,4536.538574,4516.410156,2822,1,18,1792,65402,,,,0,4,4,4,4,4,4,4,4,4,4,4,4,4,4,4,4,4,4,4,4,4,4,4,4,4,4,4,4,4,4,4,4,100,,,,,,,,,,,,,,,,,,,,,,,,,,,,,,,,,,,55629,0,0.35805,-0.618225,-0.470459,0.517944,0.955683,-0.30326,-0.044439,2.5,49.166668,12.666667,,,,,,,,,,,,,,,,,,,,,,,,,,,,,,,,,,,,,,,,,,,,,,,,,,,,,,,,,,,,,,,,,,,,,,,,,,,,,,,,,,,,,,,,,,,,,,,,,,,,,,,,,,,,,,,,,,,,,,,,,,,,,,,,,,,,,,,,,,,,,,,,,,,,,,,,,,,,,,,,
1764666696.242408,25910,0,4400.769043,4412.692383,4513.205078,4521.922852,4401.282227,4539.615234,4535.512695,4379.358887,4556.922852,4373.846191,4505,4517.179688,4570.641113,4402.820313,4397.692383,4512.179688,4542.307617,4520.256348,4504.358887,4400.384766,4399.358887,4586.922852,4525.128418,4494.487305,4373.461426,4599.743652,4389.230957,4556.153809,4514.358887,4409.487305,4533.589844,4515.897461,2932,1,18,2048,65410,,,,0,4,4,4,4,4,4,4,4,4,4,4,4,4,4,4,4,4,4,4,4,4,4,4,4,4,4,4,4,4,4,4,4,100,,,,,,,,,,,,,,,,,,,,,,,,,,,,,,,,,,,,,,,,,,,,,,,,,,,,,,,,,,,,,,,,,,,,,,,,,,,,,,,,,,,,,,,,,,,,,,,,,,,,,,,,,,,,,,,,,,,,,,,,,,,,,,,,,,,,,,,,,,,,,,,,,,,,,,,,,,,,,,,,,,,,,,,,,,,,,,,,,,,,,,,,,,,,,,,,,,,,,,,,,,,,,,
1764666696.246314,25911,0,4402.05127,4414.615234,4514.871582,4530.256348,4407.179688,4540.641113,4539.358887,4391.025879,4565.128418,4400.384766,4507.820313,4518.333496,4576.794922,4407.94873,4399.102539,4513.333496,4547.05127,4524.487305,4512.692383,4407.436035,4404.615234,4588.461426,4528.205078,4496.410156,4396.153809,4604.102539,4387.820313,4555.641113,4515.769043,4412.692383,4537.436035,4517.436035,2846,1,18,2048,65410,,,,0,4,4,4,4,4,4,4,4,4,4,4,4,4,4,4,4,4,4,4,4,4,4,4,4,4,4,4,4,4,4,4,4,100,,,,,,,,,,,,,,,,,,,,,,,,,,,,,,,,,,,,,,,,,,,,,,,,,,,,,,,,,,,,,,,,,,,,,,,,,,,,,,,,,,,,,,,,,,,,,,,,,,,,,,,,,,,,,,,,,,,,,,,,,,,,,,,,,,,,,,,,,,,,,,,,,,,,,,,,,,,,,,,,,,,,,,,,,,,,,,,,,,,,,,,,,,,,,,,,,,,,,,,,,,,,,,
1764666696.250220,25912,0,4403.717773,4418.589844,4518.717773,4538.333496,4412.179688,4541.794922,4541.794922,4401.538574,4571.922852,4426.666504,4515,4519.230957,4581.794922,4413.974121,4396.410156,4512.820313,4550.641113,4528.717773,4520,4405.512695,4408.077148,4585.128418,4527.436035,4493.333496,4394.871582,4604.871582,4396.153809,4556.153809,4516.410156,4417.692383,4545.384766,4519.358887,2719,1,18,2304,65418,,,,0,4,4,4,4,4,4,4,4,4,4,4,4,4,4,4,4,4,4,4,4,4,4,4,4,4,4,4,4,4,4,4,4,100,,,,,,,,,,,,,,,,,,,,,,,,,,,,,,,,,,,,,,,,,,,,,,,,,,,,,,,,,,,,,,,,,,,,,,,,,,,,,,,,,,,,,,,,,,,,,,,,,,,,,,,,,,,,,,,,,,,,,,,,,,,,,,,,,,,,,,,,,,,,,,,,,,,,,,,,,,,,,,,,,,,,,,,,,,,,,,,,,,,,,,,,,,,,,,,,,,,,,,,,,,,,,,
1764666696.254126,25913,0,4406.025879,4423.717773,4524.358887,4542.436035,4414.102539,4542.94873,4542.94873,4404.743652,4576.282227,4434.230957,4524.102539,4521.282227,4584.743652,4417.179688,4391.282227,4513.333496,4553.333496,4536.922852,4529.358887,4401.025879,4412.436035,4583.077148,4525.256348,4491.282227,4381.794922,4605.897461,4410.256348,4559.358887,4516.282227,4423.974121,4552.692383,4522.436035,2862,1,18,2304,65418,,,,0,4,4,4,4,4,4,4,4,4,4,4,4,4,4,4,4,4,4,4,4,4,4,4,4,4,4,4,4,4,4,4,4,100,,,,,,,,,,,,,,,,,,,,,,,,,,,,,,,,,,,55630,0,0.357808,-0.618225,-0.469971,0.518555,0.932243,-0.304725,-0.055183,2.5,50,13.5,,,,,,,,,,,,,,,,,,,,,,,,,,,,,,,,,,,,,,,,,,,,,,,,,,,,,,,,,,,,,,,,,,,,,,,,,,,,,,,,,,,,,,,,,,,,,,,,,,,,,,,,,,,,,,,,,,,,,,,,,,,,,,,,,,,,,,,,,,,,,,,,,,,,,,,,,,,,,,,,
1764666696.258032,25914,0,4410.641113,4429.230957,4532.05127,4543.461426,4414.102539,4544.743652,4545.512695,4401.666504,4580.128418,4421.666504,4532.179688,4526.666504,4587.563965,4416.282227,4387.820313,4517.179688,4557.820313,4549.358887,4539.871582,4401.538574,4419.487305,4588.974121,4525.897461,4497.436035,4383.077148,4613.974121,4422.692383,4565.512695,4517.307617,4431.282227,4556.922852,4528.461426,1932,1,18,2304,65425,,,,0,4,4,4,4,4,4,4,4,4,4,4,4,4,4,4,4,4,4,4,4,4,4,4,4,4,4,4,4,4,4,4,4,100,,,,,,,,,,,,,,,,,,,,,,,,,,,,,,,,,,,,,,,,,,,,,,,1.147096,4.807349,8.239194,2.321457,2.174976,1.417186,6.494816,9.991764,2.634605,2.239407,1.235357,5.43117,10.859428,2.975458,2.744688,0.915816,7.167835,8.660351,2.493205,3.053582,1.353252,5.804633,9.775799,2.738481,2.708628,1.322584,6.028223,9.920432,2.662639,2.455325,1.503846,11.258062,12.245827,4.116308,3.979772,1.066389,11.419475,12.20857,4.715733,5.212928,1.397991,6.247721,8.599818,1.82698,3.291016,2.168295,7.393172,11.091906,6.230031,8.256301,0.856336,13.689313,14.863344,3.826772,2.429875,1.114942,7.439919,8.261935,2.310916,2.383191,1.112061,8.068199,7.45371,2.452221,2.480183,1.619888,10.015503,6.155208,1.443036,1.496152,2.519984,2.218297,4.850708,1.380754,1.513435,0.248257,0.61858,2.934272,0.898062,0.781449,1.559661,6.052554,9.73657,2.721377,2.544602,0.863573,3.235106,10.898671,2.600627,2.992093,0.479272,2.851822,7.456383,2.256025,3.304089,0.953076,1.342087,6.429194,1.629064,2.024405,2.372998,13.607566,11.452183,2.606233,2.734663,1.411616,7.137041,12.481029,2.862649,2.207,0.641248,5.893962,8.35959,2.725687,2.268594,1.443994,16.694977,17.390331,4.275623,2.442263,2.682804,19.965015,19.799879,23.234562,24.719902,1.255395,8.252482,8.435253,3.981123,2.718765,1.133018,7.938107,8.471589,2.081517,4.657424,1.093875,8.788027,10.861036,2.55688,3.045017,0.564501,3.459425,5.422528,1.353969,1.20192,1.808256,7.310842,10.083136,2.454871,2.49886,1.184733,8.073083,10.608614,2.405951,2.916948,1.516503,6.742581,10.863978,3.068375,2.174539
1764666696.261938,25915,0,4417.05127,4434.102539,4539.487305,4544.230957,4414.230957,4547.307617,4551.410156,4397.563965,4583.717773,4403.974121,4537.436035,4534.230957,4592.179688,4412.820313,4388.717773,4522.94873,4565,4560.384766,4545.256348,4408.205078,4426.153809,4602.94873,4530.769043,4512.94873,4408.974121,4630.384766,4427.05127,4573.333496,4521.410156,4438.461426,4558.974121,4537.179688,2613,1,18,2304,65425,,,,0,4,4,4,4,4,4,4,4,4,4,4,4,4,4,4,4,4,4,4,4,4,4,4,4,4,4,4,4,4,4,4,4,100,,,,,,,,,,,,,,,,,,,,,,,,,,,,,,,,,,,,,,,,,,,,,,,,,,,,,,,,,,,,,,,,,,,,,,,,,,,,,,,,,,,,,,,,,,,,,,,,,,,,,,,,,,,,,,,,,,,,,,,,,,,,,,,,,,,,,,,,,,,,,,,,,,,,,,,,,,,,,,,,,,,,,,,,,,,,,,,,,,,,,,,,,,,,,,,,,,,,,,,,,,,,,,
1764666696.265844,25916,0,4422.307617,4435.641113,4542.563965,4545,4414.487305,4548.461426,4558.717773,4396.153809,4585.128418,4399.487305,4538.077148,4539.871582,4597.179688,4409.871582,4393.205078,4526.922852,4572.307617,4563.077148,4539.615234,4414.487305,4426.025879,4617.94873,4537.436035,4529.871582,4440.769043,4646.794922,4422.05127,4579.358887,4527.307617,4442.820313,4560.641113,4544.102539,2720,1,18,2048,65433,,,,0,4,4,4,4,4,4,4,4,4,4,4,4,4,4,4,4,4,4,4,4,4,4,4,4,4,4,4,4,4,4,4,4,100,,,,,,,,,,,,,,,,,,,,,,,,,,,,,,,,,,,,,,,,,,,,,,,,,,,,,,,,,,,,,,,,,,,,,,,,,,,,,,,,,,,,,,,,,,,,,,,,,,,,,,,,,,,,,,,,,,,,,,,,,,,,,,,,,,,,,,,,,,,,,,,,,,,,,,,,,,,,,,,,,,,,,,,,,,,,,,,,,,,,,,,,,,,,,,,,,,,,,,,,,,,,,,
1764666696.269750,25917,0,4422.05127,4431.025879,4537.307617,4542.692383,4412.307617,4545.641113,4561.666504,4395.128418,4581.410156,4413.974121,4533.846191,4538.589844,4598.589844,4409.743652,4397.563965,4525.897461,4574.230957,4556.025879,4524.871582,4413.589844,4414.871582,4624.102539,4540.384766,4536.794922,4449.230957,4650.384766,4410.769043,4580,4531.153809,4440.897461,4560.512695,4543.589844,2566,1,18,2048,65433,,,,0,4,4,4,4,4,4,4,4,4,4,4,4,4,4,4,4,4,4,4,4,4,4,4,4,4,4,4,4,4,4,4,4,100,,,,,,,,,,,,,,,,,,,,,,,,,,,,,,,,,,,55631,0,0.357808,-0.618225,-0.469971,0.518555,0.902942,-0.315957,-0.068368,3.666667,48.166668,12.833333,,,,,,,,,,,,,,,,,,,,,,,,,,,,,,,,,,,,,,,,,,,,,,,,,,,,,,,,,,,,,,,,,,,,,,,,,,,,,,,,,,,,,,,,,,,,,,,,,,,,,,,,,,,,,,,,,,,,,,,,,,,,,,,,,,,,,,,,,,,,,,,,,,,,,,,,,,,,,,,,
1764666696.273656,25918,0,4413.846191,4419.743652,4524.102539,4533.717773,4405,4538.077148,4555,4388.974121,4571.282227,4436.025879,4525.769043,4528.974121,4593.077148,4412.179688,4399.102539,4520,4567.307617,4545.512695,4510.512695,4405,4395.384766,4616.410156,4535.769043,4527.692383,4422.307617,4634.615234,4399.102539,4573.077148,4528.846191,4431.666504,4555.256348,4532.179688,2702,1,18,1024,65441,,,,0,4,4,4,4,4,4,4,4,4,4,4,4,4,4,4,4,4,4,4,4,4,4,4,4,4,4,4,4,4,4,4,4,100,,,,,,,,,,,,,,,,,,,,,,,,,,,,,,,,,,,,,,,,,,,,,,,,,,,,,,,,,,,,,,,,,,,,,,,,,,,,,,,,,,,,,,,,,,,,,,,,,,,,,,,,,,,,,,,,,,,,,,,,,,,,,,,,,,,,,,,,,,,,,,,,,,,,,,,,,,,,,,,,,,,,,,,,,,,,,,,,,,,,,,,,,,,,,,,,,,,,,,,,,,,,,,
1764666696.277562,25919,0,4400,4404.358887,4507.692383,4519.358887,4393.717773,4527.307617,4539.743652,4375.128418,4557.94873,4446.282227,4517.307617,4514.358887,4581.666504,4415,4398.077148,4514.230957,4553.333496,4540,4506.794922,4395.897461,4377.05127,4599.358887,4524.871582,4507.820313,4378.077148,4606.794922,4391.282227,4561.025879,4519.358887,4417.563965,4543.461426,4513.461426,2839,1,18,1024,65441,,,,0,4,4,4,4,4,4,4,4,4,4,4,4,4,4,4,4,4,4,4,4,4,4,4,4,4,4,4,4,4,4,4,4,100,,,,,,,,,,,,,,,,,,,,,,,,,,,,,,,,,,,,,,,,,,,,,,,,,,,,,,,,,,,,,,,,,,,,,,,,,,,,,,,,,,,,,,,,,,,,,,,,,,,,,,,,,,,,,,,,,,,,,,,,,,,,,,,,,,,,,,,,,,,,,,,,,,,,,,,,,,,,,,,,,,,,,,,,,,,,,,,,,,,,,,,,,,,,,,,,,,,,,,,,,,,,,,
1764666696.281468,25920,0,4386.922852,4390.897461,4495.641113,4506.153809,4383.589844,4516.922852,4523.589844,4358.717773,4548.077148,4433.974121,4511.666504,4501.410156,4570.384766,4415.769043,4397.179688,4513.717773,4539.871582,4543.333496,4516.025879,4394.615234,4370.512695,4583.077148,4513.333496,4489.743652,4351.922852,4583.846191,4387.820313,4548.589844,4507.179688,4404.743652,4529.230957,4497.05127,2785,1,18,1280,65449,,,,0,4,4,4,4,4,4,4,4,4,4,4,4,4,4,4,4,4,4,4,4,4,4,4,4,4,4,4,4,4,4,4,4,100,,,,,,,,,,,,,,,,,,,,,,,,,,,,,,,,,,,,,,,,,,,,,,,,,,,,,,,,,,,,,,,,,,,,,,,,,,,,,,,,,,,,,,,,,,,,,,,,,,,,,,,,,,,,,,,,,,,,,,,,,,,,,,,,,,,,,,,,,,,,,,,,,,,,,,,,,,,,,,,,,,,,,,,,,,,,,,,,,,,,,,,,,,,,,,,,,,,,,,,,,,,,,,
1764666696.285374,25921,0,4380.769043,4384.743652,4492.820313,4501.538574,4380,4510.641113,4515.512695,4349.358887,4547.179688,4406.153809,4510.128418,4496.282227,4565.128418,4413.205078,4398.461426,4519.487305,4534.358887,4552.307617,4531.410156,4403.077148,4380.128418,4575.384766,4507.307617,4482.563965,4368.333496,4579.871582,4385.128418,4540.384766,4498.333496,4398.205078,4519.487305,4492.05127,2860,1,18,1280,65449,,,,0,4,4,4,4,4,4,4,4,4,4,4,4,4,4,4,4,4,4,4,4,4,4,4,4,4,4,4,4,4,4,4,4,100,,,,,,,,,,,,,,,,,,,,,,,,,,,,,,,,,,,55632,0,0.358203,-0.617676,-0.470459,0.518494,0.990355,-0.301795,-0.048834,3.166667,47.333332,14.5,,,,,,,,,,,,,,,,,,,,,,,,,,,,,,,,,,,,,,,,,,,,,,,,,,,,,,,,,,,,,,,,,,,,,,,,,,,,,,,,,,,,,,,,,,,,,,,,,,,,,,,,,,,,,,,,,,,,,,,,,,,,,,,,,,,,,,,,,,,,,,,,,,,,,,,,,,,,,,,,
1764666696.289280,25922,0,4382.05127,4386.410156,4497.563965,4506.794922,4383.589844,4509.743652,4518.205078,4351.794922,4553.974121,4383.461426,4510.641113,4498.717773,4566.922852,4407.307617,4400.512695,4527.05127,4537.692383,4558.589844,4542.179688,4414.615234,4400.641113,4575.897461,4507.307617,4485.512695,4419.487305,4595,4379.230957,4536.410156,4495.897461,4398.589844,4517.94873,4499.230957,2639,1,18,1536,65457,,,,0,4,4,4,4,4,4,4,4,4,4,4,4,4,4,4,4,4,4,4,4,4,4,4,4,4,4,4,4,4,4,4,4,100,,,,,,,,,,,,,,,,,,,,,,,,,,,,,,,,,,,,,,,,,,,,,,,,,,,,,,,,,,,,,,,,,,,,,,,,,,,,,,,,,,,,,,,,,,,,,,,,,,,,,,,,,,,,,,,,,,,,,,,,,,,,,,,,,,,,,,,,,,,,,,,,,,,,,,,,,,,,,,,,,,,,,,,,,,,,,,,,,,,,,,,,,,,,,,,,,,,,,,,,,,,,,,
1764666696.293186,25923,0,4385.641113,4390.256348,4502.94873,4515.512695,4388.846191,4511.153809,4524.487305,4360.641113,4560.769043,4384.615234,4508.846191,4502.94873,4570.512695,4399.615234,4399.487305,4529.871582,4543.333496,4556.153809,4541.153809,4418.333496,4419.102539,4578.461426,4508.717773,4489.487305,4471.025879,4614.871582,4368.333496,4533.461426,4497.820313,4401.282227,4522.179688,4509.871582,2845,1,18,1536,65457,,,,0,4,4,4,4,4,4,4,4,4,4,4,4,4,4,4,4,4,4,4,4,4,4,4,4,4,4,4,4,4,4,4,4,100,,,,,,,,,,,,,,,,,,,,,,,,,,,,,,,,,,,,,,,,,,,,,,,,,,,,,,,,,,,,,,,,,,,,,,,,,,,,,,,,,,,,,,,,,,,,,,,,,,,,,,,,,,,,,,,,,,,,,,,,,,,,,,,,,,,,,,,,,,,,,,,,,,,,,,,,,,,,,,,,,,,,,,,,,,,,,,,,,,,,,,,,,,,,,,,,,,,,,,,,,,,,,,
1764666696.297092,25924,0,4384.871582,4389.487305,4501.794922,4518.846191,4388.461426,4510.128418,4524.487305,4365.512695,4560,4410.128418,4501.922852,4502.179688,4568.974121,4392.94873,4393.461426,4524.615234,4542.436035,4545,4529.487305,4408.077148,4424.487305,4576.922852,4506.410156,4486.538574,4487.94873,4622.94873,4356.025879,4528.589844,4499.102539,4400.128418,4525.512695,4512.563965,2733,1,18,1792,65465,,,,0,4,4,4,4,4,4,4,4,4,4,4,4,4,4,4,4,4,4,4,4,4,4,4,4,4,4,4,4,4,4,4,4,100,,,,,,,,,,,,,,,,,,,,,,,,,,,,,,,,,,,,,,,,,,,,,,,,,,,,,,,,,,,,,,,,,,,,,,,,,,,,,,,,,,,,,,,,,,,,,,,,,,,,,,,,,,,,,,,,,,,,,,,,,,,,,,,,,,,,,,,,,,,,,,,,,,,,,,,,,,,,,,,,,,,,,,,,,,,,,,,,,,,,,,,,,,,,,,,,,,,,,,,,,,,,,,
1764666696.300998,25925,0,4378.333496,4381.922852,4493.205078,4513.333496,4380.256348,4505.128418,4514.871582,4361.025879,4550.769043,4440,4491.538574,4495.128418,4560.128418,4390.128418,4384.102539,4514.487305,4532.820313,4530.641113,4514.615234,4387.94873,4413.974121,4570.256348,4500,4477.179688,4459.102539,4613.974121,4348.333496,4522.179688,4496.666504,4393.974121,4523.461426,4503.589844,2797,1,18,1792,65465,,,,0,4,4,4,4,4,4,4,4,4,4,4,4,4,4,4,4,4,4,4,4,4,4,4,4,4,4,4,4,4,4,4,4,100,,,,,,,,,,,,,,,,,,,,,,,,,,,,,,,,,,,55633,0,0.358493,-0.617615,-0.47052,0.518311,1.015261,-0.261751,-0.037114,3.833333,49.5,14.666667,,,,,,,,,,,,,,,,,,,,,,,,,,,,,,,,,,,,,,,,,,,,,,,,,,,,,,,,,,,,,,,,,,,,,,,,,,,,,,,,,,,,,,,,,,,,,,,,,,,,,,,,,,,,,,,,,,,,,,,,,,,,,,,,,,,,,,,,,,,,,,,,,,,,,,,,,,,,,,,,
1764666696.304904,25926,0,4370.384766,4372.179688,4482.820313,4503.846191,4369.358887,4499.743652,4502.307617,4351.538574,4538.717773,4448.589844,4483.589844,4487.179688,4549.487305,4393.333496,4376.538574,4505.769043,4520.512695,4520.641113,4504.102539,4369.871582,4395.384766,4563.205078,4494.871582,4468.589844,4405.256348,4597.820313,4351.025879,4518.846191,4492.179688,4387.692383,4518.333496,4489.615234,2817,1,18,2048,65472,,,,0,4,4,4,4,4,4,4,4,4,4,4,4,4,4,4,4,4,4,4,4,4,4,4,4,4,4,4,4,4,4,4,4,100,,,,,,,,,,,,,,,,,,,,,,,,,,,,,,,,,,,,,,,,,,,,,,,,,,,,,,,,,,,,,,,,,,,,,,,,,,,,,,,,,,,,,,,,,,,,,,,,,,,,,,,,,,,,,,,,,,,,,,,,,,,,,,,,,,,,,,,,,,,,,,,,,,,,,,,,,,,,,,,,,,,,,,,,,,,,,,,,,,,,,,,,,,,,,,,,,,,,,,,,,,,,,,
1764666696.308810,25927,0,4367.563965,4368.205078,4478.461426,4498.974121,4365,4499.871582,4498.461426,4347.692383,4532.179688,4426.794922,4483.461426,4485.769043,4545.897461,4402.436035,4375.641113,4504.102539,4515.512695,4519.102539,4501.025879,4364.102539,4381.794922,4561.282227,4496.922852,4469.358887,4363.974121,4590.512695,4365,4523.333496,4490.384766,4388.461426,4517.820313,4482.820313,2998,1,18,2048,65472,,,,0,4,4,4,4,4,4,4,4,4,4,4,4,4,4,4,4,4,4,4,4,4,4,4,4,4,4,4,4,4,4,4,4,100,,,,,,,,,,,,,,,,,,,,,,,,,,,,,,,,,,,,,,,,,,,,,,,,,,,,,,,,,,,,,,,,,,,,,,,,,,,,,,,,,,,,,,,,,,,,,,,,,,,,,,,,,,,,,,,,,,,,,,,,,,,,,,,,,,,,,,,,,,,,,,,,,,,,,,,,,,,,,,,,,,,,,,,,,,,,,,,,,,,,,,,,,,,,,,,,,,,,,,,,,,,,,,
1764666696.312716,25928,0,4372.94873,4374.487305,4483.589844,4503.717773,4371.922852,4507.179688,4509.102539,4355.512695,4535.641113,4387.563965,4491.922852,4493.974121,4553.077148,4413.077148,4381.922852,4509.102539,4522.563965,4524.487305,4503.077148,4371.922852,4382.307617,4566.410156,4507.179688,4481.025879,4361.538574,4599.358887,4385.128418,4535.512695,4493.974121,4398.205078,4527.05127,4489.102539,2907,1,18,2304,65480,,,,0,4,4,4,4,4,4,4,4,4,4,4,4,4,4,4,4,4,4,4,4,4,4,4,4,4,4,4,4,4,4,4,4,100,,,,,,,,,,,,,,,,,,,,,,,,,,,,,,,,,,,,,,,,,,,,,,,,,,,,,,,,,,,,,,,,,,,,,,,,,,,,,,,,,,,,,,,,,,,,,,,,,,,,,,,,,,,,,,,,,,,,,,,,,,,,,,,,,,,,,,,,,,,,,,,,,,,,,,,,,,,,,,,,,,,,,,,,,,,,,,,,,,,,,,,,,,,,,,,,,,,,,,,,,,,,,,
1764666696.316622,25929,0,4382.436035,4386.410156,4493.205078,4513.717773,4385,4516.794922,4527.94873,4369.487305,4545.897461,4354.358887,4503.077148,4506.153809,4566.025879,4417.94873,4389.871582,4515,4536.153809,4530.128418,4505.384766,4384.615234,4393.205078,4574.102539,4519.230957,4496.410156,4392.692383,4616.794922,4401.410156,4548.846191,4500.256348,4410.769043,4541.922852,4502.692383,2735,1,18,2304,65480,,,,0,4,4,4,4,4,4,4,4,4,4,4,4,4,4,4,4,4,4,4,4,4,4,4,4,4,4,4,4,4,4,4,4,100,,,,,,,,,,,,,,,,,,,,,,,,,,,,,,,,,,,55634,0,0.357968,-0.618225,-0.469849,0.518555,1.015261,-0.261751,-0.037114,4.833333,49.333332,15.333333,,,,,,,,,,,,,,,,,,,,,,,,,,,,,,,,,,,,,,,,,,,,,,,,,,,,,,,,,,,,,,,,,,,,,,,,,,,,,,,,,,,,,,,,,,,,,,,,,,,,,,,,,,,,,,,,,,,,,,,,,,,,,,,,,,,,,,,,,,,,,,,,,,,,,,,,,,,,,,,,
1764666696.320528,25930,0,4387.94873,4393.461426,4498.846191,4519.487305,4393.461426,4520.512695,4541.282227,4376.282227,4555,4344.615234,4509.230957,4512.94873,4574.358887,4411.666504,4391.282227,4515,4544.871582,4529.487305,4504.743652,4390.641113,4401.538574,4577.436035,4523.846191,4504.743652,4425,4627.05127,4404.230957,4554.230957,4502.94873,4415.897461,4550.384766,4511.153809,1468,1,18,2560,65488,,,,0,4,4,4,4,4,4,4,4,4,4,4,4,4,4,4,4,4,4,4,4,4,4,4,4,4,4,4,4,4,4,4,4,100,,,,,,,,,,,,,,,,,,,,,,,,,,,,,,,,,,,,,,,,,,,,,,,,,,,,,,,,,,,,,,,,,,,,,,,,,,,,,,,,,,,,,,,,,,,,,,,,,,,,,,,,,,,,,,,,,,,,,,,,,,,,,,,,,,,,,,,,,,,,,,,,,,,,,,,,,,,,,,,,,,,,,,,,,,,,,,,,,,,,,,,,,,,,,,,,,,,,,,,,,,,,,,
1764666696.324434,25931,0,4384.487305,4388.974121,4496.282227,4515.384766,4390.512695,4515,4540.128418,4368.077148,4556.666504,4363.333496,4507.436035,4509.487305,4572.05127,4396.922852,4383.589844,4507.692383,4541.410156,4522.307617,4502.436035,4385.128418,4397.179688,4572.307617,4517.179688,4500.769043,4426.538574,4621.025879,4392.436035,4548.205078,4498.077148,4409.230957,4544.230957,4506.538574,2726,1,18,2560,65488,,,,0,4,4,4,4,4,4,4,4,4,4,4,4,4,4,4,4,4,4,4,4,4,4,4,4,4,4,4,4,4,4,4,4,100,,,,,,,,,,,,,,,,,,,,,,,,,,,,,,,,,,,,,,,,,,,,,,,,,,,,,,,,,,,,,,,,,,,,,,,,,,,,,,,,,,,,,,,,,,,,,,,,,,,,,,,,,,,,,,,,,,,,,,,,,,,,,,,,,,,,,,,,,,,,,,,,,,,,,,,,,,,,,,,,,,,,,,,,,,,,,,,,,,,,,,,,,,,,,,,,,,,,,,,,,,,,,,
1764666696.328340,25932,0,4376.282227,4377.179688,4489.358887,4505.512695,4379.615234,4505.769043,4527.820313,4351.025879,4552.563965,4403.205078,4501.922852,4500.512695,4562.820313,4384.615234,4372.94873,4498.974121,4530,4516.153809,4502.692383,4374.358887,4383.589844,4563.333496,4505.128418,4489.230957,4393.846191,4604.102539,4375.384766,4537.436035,4488.974121,4396.794922,4527.94873,4493.205078,2523,1,18,2560,65496,,,,0,4,4,4,4,4,4,4,4,4,4,4,4,4,4,4,4,4,4,4,4,4,4,4,4,4,4,4,4,4,4,4,4,100,,,,,,,,,,,,,,,,,,,,,,,,,,,,,,,,,,,,,,,,,,,,,,,,,,,,,,,,,,,,,,,,,,,,,,,,,,,,,,,,,,,,,,,,,,,,,,,,,,,,,,,,,,,,,,,,,,,,,,,,,,,,,,,,,,,,,,,,,,,,,,,,,,,,,,,,,,,,,,,,,,,,,,,,,,,,,,,,,,,,,,,,,,,,,,,,,,,,,,,,,,,,,,
1764666696.332246,25933,0,4373.333496,4370.641113,4486.794922,4500.897461,4371.922852,4503.461426,4518.077148,4342.05127,4550.256348,4447.820313,4500,4496.666504,4556.794922,4385.128418,4369.230957,4497.436035,4523.077148,4519.358887,4507.692383,4369.358887,4375.512695,4560.128418,4499.615234,4481.538574,4356.922852,4592.94873,4367.692383,4533.461426,4484.615234,4390.512695,4516.666504,4484.615234,2305,1,18,2560,65496,,,,0,4,4,4,4,4,4,4,4,4,4,4,4,4,4,4,4,4,4,4,4,4,4,4,4,4,4,4,4,4,4,4,4,100,,,,,,,,,,,,,,,,,,,,,,,,,,,,,,,,,,,55635,0,0.357562,-0.618774,-0.469299,0.518677,0.934196,-0.332072,-0.050787,4,49.666668,13.666667,,,,,,,,,,,,,,,,,,,,,,,,,,,,,,,,,,,,,,,,,,,,,,,,,,,,,,,,,,,,,,,,,,,,,,,,,,,,,,,,,,,,,,,,,,,,,,,,,,,,,,,,,,,,,,,,,,,,,,,,,,,,,,,,,,,,,,,,,,,,,,,,,,,,,,,,,,,,,,,,
1764666696.336152,25934,0,4382.692383,4379.102539,4495.512695,4509.487305,4376.794922,4514.871582,4523.077148,4354.358887,4555.897461,4476.538574,4506.666504,4505.384766,4562.307617,4400.128418,4377.94873,4506.538574,4530.769043,4533.461426,4515.384766,4377.563965,4384.743652,4571.282227,4508.589844,4487.692383,4357.436035,4600.769043,4377.307617,4543.974121,4491.153809,4398.077148,4522.563965,4492.563965,2725,1,18,2561,65504,,,,0,4,4,4,4,4,4,4,4,4,4,4,4,4,4,4,4,4,4,4,4,4,4,4,4,4,4,4,4,4,4,4,4,100,,,,,,,,,,,,,,,,,,,,,,,,,,,,,,,,,,,,,,,,,,,,,,,,,,,,,,,,,,,,,,,,,,,,,,,,,,,,,,,,,,,,,,,,,,,,,,,,,,,,,,,,,,,,,,,,,,,,,,,,,,,,,,,,,,,,,,,,,,,,,,,,,,,,,,,,,,,,,,,,,,,,,,,,,,,,,,,,,,,,,,,,,,,,,,,,,,,,,,,,,,,,,,
1764666696.340058,25935,0,4402.692383,4401.538574,4514.871582,4530,4394.871582,4537.05127,4545.256348,4386.794922,4569.871582,4477.179688,4522.692383,4526.025879,4579.615234,4419.871582,4396.922852,4521.666504,4553.205078,4552.307617,4521.538574,4396.410156,4408.205078,4596.794922,4530.256348,4509.487305,4412.820313,4626.282227,4399.102539,4565.512695,4507.179688,4417.307617,4545,4516.538574,2498,1,18,2561,65504,,,,0,4,4,4,4,4,4,4,4,4,4,4,4,4,4,4,4,4,4,4,4,4,4,4,4,4,4,4,4,4,4,4,4,100,,,,,,,,,,,,,,,,,,,,,,,,,,,,,,,,,,,,,,,,,,,,,,,,,,,,,,,,,,,,,,,,,,,,,,,,,,,,,,,,,,,,,,,,,,,,,,,,,,,,,,,,,,,,,,,,,,,,,,,,,,,,,,,,,,,,,,,,,,,,,,,,,,,,,,,,,,,,,,,,,,,,,,,,,,,,,,,,,,,,,,,,,,,,,,,,,,,,,,,,,,,,,,
1764666696.343964,25936,0,4424.102539,4427.307617,4537.94873,4553.846191,4418.589844,4560.384766,4575.897461,4424.871582,4587.563965,4457.436035,4545.641113,4550.384766,4602.307617,4429.615234,4418.717773,4534.358887,4580.384766,4567.436035,4523.589844,4416.922852,4429.487305,4627.436035,4554.102539,4539.743652,4494.615234,4654.743652,4420.512695,4587.307617,4524.743652,4438.846191,4571.666504,4545.128418,2893,1,18,2562,65511,,,,0,4,4,4,4,4,4,4,4,4,4,4,4,4,4,4,4,4,4,4,4,4,4,4,4,4,4,4,4,4,4,4,4,100,,,,,,,,,,,,,,,,,,,,,,,,,,,,,,,,,,,,,,,,,,,,,,,,,,,,,,,,,,,,,,,,,,,,,,,,,,,,,,,,,,,,,,,,,,,,,,,,,,,,,,,,,,,,,,,,,,,,,,,,,,,,,,,,,,,,,,,,,,,,,,,,,,,,,,,,,,,,,,,,,,,,,,,,,,,,,,,,,,,,,,,,,,,,,,,,,,,,,,,,,,,,,,
1764666696.347870,25937,0,4438.077148,4445.128418,4556.538574,4572.436035,4438.461426,4575.128418,4602.563965,4452.05127,4603.974121,4441.025879,4571.538574,4569.230957,4622.179688,4419.230957,4435.769043,4538.077148,4599.871582,4574.487305,4523.589844,4429.487305,4430,4650,4568.974121,4566.282227,4544.615234,4670.769043,4431.922852,4600.641113,4536.282227,4453.846191,4589.743652,4565,2995,1,18,2562,65511,,,,0,4,4,4,4,4,4,4,4,4,4,4,4,4,4,4,4,4,4,4,4,4,4,4,4,4,4,4,4,4,4,4,4,100,,,,,,,,,,,,,,,,,,,,,,,,,,,,,,,,,,,55636,0,0.357625,-0.618835,-0.469238,0.518616,0.954218,-0.296423,-0.047369,4.833333,49,15,,,,,,,,,,,,,,,,,,,,,,,,,,,,,,,,,,,,,,,,,,,,,,,,,,,,,,,,,,,,,,,,,,,,,,,,,,,,,,,,,,,,,,,,,,,,,,,,,,,,,,,,,,,,,,,,,,,,,,,,,,,,,,,,,,,,,,,,,,,,,,,,,,,,,,,,,,,,,,,,
1764666696.351776,25938,0,4440.769043,4450.128418,4566.282227,4582.307617,4448.461426,4577.820313,4615.384766,4460,4615.512695,4447.563965,4594.871582,4576.282227,4633.461426,4388.846191,4443.589844,4532.436035,4604.615234,4573.333496,4524.358887,4428.846191,4403.205078,4655.384766,4569.743652,4578.205078,4520.641113,4668.589844,4433.205078,4603.846191,4539.102539,4459.102539,4593.846191,4569.358887,1799,1,18,2563,65519,,,,0,4,4,4,4,4,4,4,4,4,4,4,4,4,4,4,4,4,4,4,4,4,4,4,4,4,4,4,4,4,4,4,4,100,,,,,,,,,,,,,,,,,,,,,,,,,,,,,,,,,,,,,,,,,,,,,,,,,,,,,,,,,,,,,,,,,,,,,,,,,,,,,,,,,,,,,,,,,,,,,,,,,,,,,,,,,,,,,,,,,,,,,,,,,,,,,,,,,,,,,,,,,,,,,,,,,,,,,,,,,,,,,,,,,,,,,,,,,,,,,,,,,,,,,,,,,,,,,,,,,,,,,,,,,,,,,,
1764666696.355682,25939,0,4434.230957,4444.102539,4566.025879,4583.717773,4447.307617,4570.641113,4611.025879,4450.769043,4619.743652,4473.974121,4606.922852,4570.128418,4632.563965,4348.333496,4440.897461,4522.179688,4595.128418,4566.153809,4526.282227,4415.897461,4358.974121,4641.538574,4558.974121,4570.897461,4434.358887,4652.94873,4430.256348,4600.512695,4534.871582,4455.897461,4587.05127,4560.897461,2841,1,18,2563,65519,,,,0,4,4,4,4,4,4,4,4,4,4,4,4,4,4,4,4,4,4,4,4,4,4,4,4,4,4,4,4,4,4,4,4,100,,,,,,,,,,,,,,,,,,,,,,,,,,,,,,,,,,,,,,,,,,,,,,,,,,,,,,,,,,,,,,,,,,,,,,,,,,,,,,,,,,,,,,,,,,,,,,,,,,,,,,,,,,,,,,,,,,,,,,,,,,,,,,,,,,,,,,,,,,,,,,,,,,,,,,,,,,,,,,,,,,,,,,,,,,,,,,,,,,,,,,,,,,,,,,,,,,,,,,,,,,,,,,
1764666696.359588,25940,0,4421.666504,4432.05127,4556.666504,4576.282227,4436.282227,4557.692383,4591.538574,4430.641113,4614.487305,4495.897461,4597.692383,4552.94873,4618.333496,4311.922852,4428.717773,4512.436035,4576.153809,4554.487305,4525.769043,4397.179688,4317.436035,4613.846191,4541.794922,4547.05127,4347.05127,4633.077148,4426.153809,4592.307617,4526.153809,4446.025879,4574.615234,4546.410156,2538,1,18,2564,65527,,,,0,4,4,4,4,4,4,4,4,4,4,4,4,4,4,4,4,4,4,4,4,4,4,4,4,4,4,4,4,4,4,4,4,100,,,,,,,,,,,,,,,,,,,,,,,,,,,,,,,,,,,,,,,,,,,,,,,,,,,,,,,,,,,,,,,,,,,,,,,,,,,,,,,,,,,,,,,,,,,,,,,,,,,,,,,,,,,,,,,,,,,,,,,,,,,,,,,,,,,,,,,,,,,,,,,,,,,,,,,,,,,,,,,,,,,,,,,,,,,,,,,,,,,,,,,,,,,,,,,,,,,,,,,,,,,,,,
1764666696.363494,25941,0,4404.615234,4416.282227,4538.589844,4558.589844,4416.666504,4540.897461,4561.538574,4404.871582,4597.179688,4486.666504,4563.717773,4528.333496,4592.307617,4291.410156,4409.743652,4505.897461,4553.077148,4539.230957,4519.230957,4380.128418,4295.897461,4581.025879,4522.436035,4514.230957,4320.512695,4616.282227,4417.307617,4576.922852,4514.358887,4430.256348,4558.974121,4530.641113,2833,1,18,2564,65527,,,,0,4,4,4,4,4,4,4,4,4,4,4,4,4,4,4,4,4,4,4,4,4,4,4,4,4,4,4,4,4,4,4,4,100,,,,,,,,,,,,,,,,,,,,,,,,,,,,,,,,,,,55637,0,0.357391,-0.619263,-0.469055,0.518433,0.985472,-0.291539,-0.026859,5,48,16.333334,,,,,,,,,,,,,,,,,,,,,,,,,,,,,,,,,,,,,,,,,,,,,,,,,,,,,,,,,,,,,,,,,,,,,,,,,,,,,,,,,,,,,,,,,,,,,,,,,,,,,,,,,,,,,,,,,,,,,,,,,,,,,,,,,,,,,,,,,,,,,,,,,,,,,,,,,,,,,,,,
1764666696.367400,25942,0,4383.717773,4397.179688,4513.333496,4530.641113,4390.256348,4520.384766,4526.282227,4375.641113,4567.692383,4439.615234,4512.563965,4500.769043,4559.615234,4290.897461,4388.461426,4501.794922,4529.102539,4521.666504,4505.897461,4369.230957,4298.846191,4551.666504,4502.692383,4481.282227,4366.410156,4604.871582,4397.94873,4552.436035,4500.512695,4409.102539,4539.743652,4513.846191,2938,1,18,2561,65535,,,,0,4,4,4,4,4,4,4,4,4,4,4,4,4,4,4,4,4,4,4,4,4,4,4,4,4,4,4,4,4,4,4,4,100,,,,,,,,,,,,,,,,,,,,,,,,,,,,,,,,,,,,,,,,,,,,,,,,,,,,,,,,,,,,,,,,,,,,,,,,,,,,,,,,,,,,,,,,,,,,,,,,,,,,,,,,,,,,,,,,,,,,,,,,,,,,,,,,,,,,,,,,,,,,,,,,,,,,,,,,,,,,,,,,,,,,,,,,,,,,,,,,,,,,,,,,,,,,,,,,,,,,,,,,,,,,,,
1764666696.371306,25943,0,4361.153809,4375.128418,4485.128418,4497.692383,4361.538574,4497.307617,4493.077148,4345.641113,4532.307617,4374.615234,4461.410156,4474.743652,4528.077148,4306.410156,4370,4498.205078,4506.538574,4504.358887,4489.871582,4363.717773,4317.820313,4531.794922,4483.974121,4455,4438.333496,4596.922852,4367.563965,4521.410156,4486.153809,4385.128418,4517.436035,4494.743652,2857,1,18,2561,65535,,,,0,4,4,4,4,4,4,4,4,4,4,4,4,4,4,4,4,4,4,4,4,4,4,4,4,4,4,4,4,4,4,4,4,100,,,,,,,,,,,,,,,,,,,,,,,,,,,,,,,,,,,,,,,,,,,,,,,,,,,,,,,,,,,,,,,,,,,,,,,,,,,,,,,,,,,,,,,,,,,,,,,,,,,,,,,,,,,,,,,,,,,,,,,,,,,,,,,,,,,,,,,,,,,,,,,,,,,,,,,,,,,,,,,,,,,,,,,,,,,,,,,,,,,,,,,,,,,,,,,,,,,,,,,,,,,,,,
1764666696.375212,25944,0,4342.307617,4354.743652,4461.666504,4470.128418,4338.461426,4476.538574,4469.487305,4321.538574,4503.974121,4325.256348,4428.717773,4456.282227,4506.025879,4329.615234,4358.589844,4494.358887,4489.102539,4491.922852,4477.820313,4360.512695,4340.769043,4523.205078,4469.358887,4438.717773,4474.102539,4589.487305,4335.128418,4492.692383,4474.358887,4364.358887,4495.897461,4475.512695,2723,1,18,2560,7,,,,0,4,4,4,4,4,4,4,4,4,4,4,4,4,4,4,4,4,4,4,4,4,4,4,4,4,4,4,4,4,4,4,4,100,,,,,,,,,,,,,,,,,,,,,,,,,,,,,,,,,,,,,,,,,,,,,,,,,,,,,,,,,,,,,,,,,,,,,,,,,,,,,,,,,,,,,,,,,,,,,,,,,,,,,,,,,,,,,,,,,,,,,,,,,,,,,,,,,,,,,,,,,,,,,,,,,,,,,,,,,,,,,,,,,,,,,,,,,,,,,,,,,,,,,,,,,,,,,,,,,,,,,,,,,,,,,,
1764666696.379118,25945,0,4333.333496,4343.717773,4450.769043,4458.589844,4328.974121,4465.128418,4461.538574,4311.410156,4495.897461,4317.05127,4422.820313,4450,4499.358887,4352.05127,4356.538574,4492.307617,4481.666504,4489.230957,4475.256348,4358.461426,4361.153809,4524.230957,4463.205078,4433.205078,4445.512695,4582.179688,4314.615234,4477.563965,4468.589844,4354.358887,4482.436035,4462.563965,2868,1,18,2560,7,,,,0,4,4,4,4,4,4,4,4,4,4,4,4,4,4,4,4,4,4,4,4,4,4,4,4,4,4,4,4,4,4,4,4,100,,,,,,,,,,,,,,,,,,,,,,,,,,,,,,,,,,,55638,0,0.357129,-0.619446,-0.468811,0.518616,0.941521,-0.314003,-0.039067,3,48,13.5,,,,,,,,,,,,,,,,,,,,,,,,,,,,,,,,,,,,,,,,,,,,,,,,,,,,,,,,,,,,,,,,,,,,,,,,,,,,,,,,,,,,,,,,,,,,,,,,,,,,,,,,,,,,,,,,,,,,,,,,,,,,,,,,,,,,,,,,,,,,,,,,,,,,,,,,,,,,,,,,
1764666696.383024,25946,0,4337.94873,4347.05127,4455.641113,4466.922852,4336.025879,4467.563965,4469.102539,4318.589844,4511.410156,4351.666504,4438.717773,4456.794922,4507.436035,4368.461426,4363.461426,4495,4486.666504,4497.307617,4482.692383,4359.102539,4379.743652,4532.179688,4468.077148,4436.794922,4375.512695,4577.692383,4315.897461,4482.05127,4470.769043,4358.846191,4483.077148,4462.179688,1933,1,18,2560,14,,,,0,4,4,4,4,4,4,4,4,4,4,4,4,4,4,4,4,4,4,4,4,4,4,4,4,4,4,4,4,4,4,4,4,100,,,,,,,,,,,,,,,,,,,,,,,,,,,,,,,,,,,,,,,,,,,,,,,0.918193,4.970479,8.404304,2.371747,2.25806,1.230685,6.740839,10.148656,2.761,2.335855,1.10688,5.679755,10.958142,3.118593,2.796636,0.767473,7.596849,8.9108,2.737987,3.14737,1.012494,6.039526,9.871566,2.908892,2.811831,0.948834,6.292955,10.296875,2.765721,2.530053,1.219437,11.597232,12.994356,4.384107,4.116797,0.773036,11.81879,13.062736,5.028307,5.477393,1.445828,6.34611,8.887095,1.858383,3.494689,1.700722,7.421568,10.438454,6.642423,9.129795,0.814416,14.647073,15.482308,4.091016,2.577341,0.972278,7.476536,8.759532,2.431504,2.403025,0.826623,8.182602,8.015725,2.633526,2.540629,1.676123,10.83644,6.807247,1.437701,1.510274,2.511374,2.009983,5.413853,1.372695,1.462743,0.262459,0.67305,3.551581,0.944213,0.764736,1.469678,5.987455,10.551003,2.899578,2.544024,0.83142,3.204714,13.06532,3.031372,3.214702,0.404658,2.994518,8.924879,2.696726,3.757711,0.931705,1.185412,7.47135,1.824499,2.123259,2.291234,14.202001,12.560731,3.189409,3.050937,1.344794,7.259323,13.679176,3.095079,2.25298,0.689806,6.034141,8.76245,2.793717,2.327216,1.511367,17.748079,18.01713,4.439648,2.483476,2.552129,20.6402,20.871159,24.630657,29.051899,1.339834,8.719024,7.982161,4.242595,2.992508,1.099746,8.331109,8.754251,2.314859,4.926369,1.009776,9.200904,11.049109,2.722571,3.146972,0.520126,3.604593,5.5231,1.367035,1.264115,1.832778,7.368701,10.134738,2.604639,2.559183,1.160583,8.181211,10.49614,2.506094,3.045796,1.466572,6.712294,11.178459,3.267586,2.217823
1764666696.386930,25947,0,4353.205078,4362.436035,4472.05127,4487.94873,4353.846191,4481.410156,4485.641113,4336.538574,4539.358887,4404.230957,4461.794922,4472.307617,4523.717773,4378.077148,4374.871582,4502.179688,4500.897461,4511.922852,4494.871582,4363.589844,4398.205078,4543.461426,4481.922852,4446.922852,4316.538574,4577.820313,4336.666504,4503.077148,4479.743652,4375,4496.922852,4474.743652,2610,1,18,2560,14,,,,0,4,4,4,4,4,4,4,4,4,4,4,4,4,4,4,4,4,4,4,4,4,4,4,4,4,4,4,4,4,4,4,4,100,,,,,,,,,,,,,,,,,,,,,,,,,,,,,,,,,,,,,,,,,,,,,,,,,,,,,,,,,,,,,,,,,,,,,,,,,,,,,,,,,,,,,,,,,,,,,,,,,,,,,,,,,,,,,,,,,,,,,,,,,,,,,,,,,,,,,,,,,,,,,,,,,,,,,,,,,,,,,,,,,,,,,,,,,,,,,,,,,,,,,,,,,,,,,,,,,,,,,,,,,,,,,,
1764666696.390836,25948,0,4369.743652,4379.871582,4490.128418,4507.820313,4371.282227,4498.205078,4501.922852,4353.205078,4560,4438.461426,4477.563965,4488.717773,4539.230957,4383.205078,4383.974121,4509.230957,4515.897461,4524.487305,4504.487305,4369.743652,4412.692383,4554.615234,4498.077148,4459.358887,4308.589844,4581.922852,4363.077148,4528.077148,4490.128418,4393.205078,4514.871582,4492.820313,2723,1,18,2561,22,,,,0,4,4,4,4,4,4,4,4,4,4,4,4,4,4,4,4,4,4,4,4,4,4,4,4,4,4,4,4,4,4,4,4,100,,,,,,,,,,,,,,,,,,,,,,,,,,,,,,,,,,,,,,,,,,,,,,,,,,,,,,,,,,,,,,,,,,,,,,,,,,,,,,,,,,,,,,,,,,,,,,,,,,,,,,,,,,,,,,,,,,,,,,,,,,,,,,,,,,,,,,,,,,,,,,,,,,,,,,,,,,,,,,,,,,,,,,,,,,,,,,,,,,,,,,,,,,,,,,,,,,,,,,,,,,,,,,
1764666696.394742,25949,0,4378.974121,4388.974121,4500,4515,4379.615234,4508.846191,4511.666504,4360.128418,4559.871582,4430.769043,4480.897461,4499.615234,4548.205078,4386.153809,4385.897461,4510.384766,4524.358887,4528.077148,4506.794922,4373.077148,4416.922852,4562.692383,4508.589844,4469.615234,4352.820313,4587.94873,4377.94873,4543.077148,4496.282227,4403.846191,4525.512695,4506.153809,2578,1,18,2561,22,,,,0,4,4,4,4,4,4,4,4,4,4,4,4,4,4,4,4,4,4,4,4,4,4,4,4,4,4,4,4,4,4,4,4,100,,,,,,,,,,,,,,,,,,,,,,,,,,,,,,,,,,,55639,0,0.356696,-0.619629,-0.468628,0.51886,0.905872,-0.321817,-0.066903,3,48,13.833333,,,,,,,,,,,,,,,,,,,,,,,,,,,,,,,,,,,,,,,,,,,,,,,,,,,,,,,,,,,,,,,,,,,,,,,,,,,,,,,,,,,,,,,,,,,,,,,,,,,,,,,,,,,,,,,,,,,,,,,,,,,,,,,,,,,,,,,,,,,,,,,,,,,,,,,,,,,,,,,,
1764666696.398648,25950,0,4378.846191,4386.666504,4499.230957,4508.846191,4378.589844,4510.512695,4514.743652,4358.205078,4541.410156,4389.615234,4477.94873,4503.717773,4551.538574,4388.461426,4381.410156,4504.615234,4525.256348,4523.461426,4503.205078,4371.922852,4408.717773,4566.410156,4510,4475.128418,4414.871582,4594.230957,4374.358887,4542.820313,4496.666504,4403.846191,4525,4508.717773,2708,1,18,2562,30,,,,0,4,4,4,4,4,4,4,4,4,4,4,4,4,4,4,4,4,4,4,4,4,4,4,4,4,4,4,4,4,4,4,4,100,,,,,,,,,,,,,,,,,,,,,,,,,,,,,,,,,,,,,,,,,,,,,,,,,,,,,,,,,,,,,,,,,,,,,,,,,,,,,,,,,,,,,,,,,,,,,,,,,,,,,,,,,,,,,,,,,,,,,,,,,,,,,,,,,,,,,,,,,,,,,,,,,,,,,,,,,,,,,,,,,,,,,,,,,,,,,,,,,,,,,,,,,,,,,,,,,,,,,,,,,,,,,,
1764666696.402554,25951,0,4374.871582,4379.230957,4492.692383,4498.205078,4374.230957,4507.307617,4516.025879,4354.743652,4520.641113,4350.512695,4478.846191,4504.487305,4553.589844,4389.102539,4375.897461,4496.922852,4523.205078,4518.205078,4499.743652,4368.333496,4394.615234,4566.922852,4505.384766,4476.666504,4452.94873,4599.102539,4359.743652,4532.692383,4493.461426,4397.94873,4518.077148,4502.05127,2841,1,18,2562,30,,,,0,4,4,4,4,4,4,4,4,4,4,4,4,4,4,4,4,4,4,4,4,4,4,4,4,4,4,4,4,4,4,4,4,100,,,,,,,,,,,,,,,,,,,,,,,,,,,,,,,,,,,,,,,,,,,,,,,,,,,,,,,,,,,,,,,,,,,,,,,,,,,,,,,,,,,,,,,,,,,,,,,,,,,,,,,,,,,,,,,,,,,,,,,,,,,,,,,,,,,,,,,,,,,,,,,,,,,,,,,,,,,,,,,,,,,,,,,,,,,,,,,,,,,,,,,,,,,,,,,,,,,,,,,,,,,,,,
1764666696.406460,25952,0,4372.94873,4374.615234,4486.666504,4492.05127,4371.922852,4505,4518.077148,4354.358887,4512.563965,4346.025879,4487.179688,4504.743652,4556.025879,4385.256348,4373.077148,4493.974121,4522.179688,4518.461426,4500.256348,4365.512695,4383.333496,4565.128418,4500.256348,4475.897461,4444.743652,4599.487305,4347.436035,4522.307617,4489.871582,4392.436035,4511.410156,4491.538574,2780,1,18,2560,38,,,,0,4,4,4,4,4,4,4,4,4,4,4,4,4,4,4,4,4,4,4,4,4,4,4,4,4,4,4,4,4,4,4,4,100,,,,,,,,,,,,,,,,,,,,,,,,,,,,,,,,,,,,,,,,,,,,,,,,,,,,,,,,,,,,,,,,,,,,,,,,,,,,,,,,,,,,,,,,,,,,,,,,,,,,,,,,,,,,,,,,,,,,,,,,,,,,,,,,,,,,,,,,,,,,,,,,,,,,,,,,,,,,,,,,,,,,,,,,,,,,,,,,,,,,,,,,,,,,,,,,,,,,,,,,,,,,,,
1764666696.410366,25953,0,4373.205078,4374.230957,4482.307617,4490.641113,4369.743652,4503.974121,4517.307617,4354.230957,4518.717773,4377.436035,4495.641113,4502.307617,4554.871582,4375,4371.410156,4497.692383,4521.153809,4522.692383,4501.794922,4362.692383,4377.94873,4560.512695,4496.538574,4472.563965,4398.589844,4591.922852,4344.230957,4517.179688,4486.282227,4388.846191,4506.794922,4481.153809,2893,1,18,2560,38,,,,0,4,4,4,4,4,4,4,4,4,4,4,4,4,4,4,4,4,4,4,4,4,4,4,4,4,4,4,4,4,4,4,4,100,,,,,,,,,,,,,,,,,,,,,,,,,,,,,,,,,,,55640,0,0.356499,-0.619507,-0.468872,0.518921,0.912221,-0.317422,-0.065438,2.166667,48.333332,15.166667,,,,,,,,,,,,,,,,,,,,,,,,,,,,,,,,,,,,,,,,,,,,,,,,,,,,,,,,,,,,,,,,,,,,,,,,,,,,,,,,,,,,,,,,,,,,,,,,,,,,,,,,,,,,,,,,,,,,,,,,,,,,,,,,,,,,,,,,,,,,,,,,,,,,,,,,,,,,,,,,
1764666696.414272,25954,1,4371.944824,4373.117676,4481.063965,4489.399902,4368.794434,4502.233887,4515.668457,4352.929688,4518.150391,4379.198242,4494.301758,4500.730957,4553.491699,4374.874512,4370.788086,4497.452148,4519.694336,4521.830566,4501.02832,4361.879395,4377.247559,4559.129883,4495.379395,4471.025879,4395.390137,4591.342285,4343.538086,4516.257324,4485.403809,4387.687012,4505.946777,4480.182617,0,1,18,0,0,,,,0,4,4,4,4,4,4,4,4,4,4,4,4,4,4,4,4,4,4,4,4,4,4,4,4,4,4,4,4,4,4,4,4,100,,,,,,,,,,,,,,,,,,,,,,,,,,,,,,,,,,,,,,,,,,,,,,,,,,,,,,,,,,,,,,,,,,,,,,,,,,,,,,,,,,,,,,,,,,,,,,,,,,,,,,,,,,,,,,,,,,,,,,,,,,,,,,,,,,,,,,,,,,,,,,,,,,,,,,,,,,,,,,,,,,,,,,,,,,,,,,,,,,,,,,,,,,,,,,,,,,,,,,,,,,,,,,
1764666696.418178,25955,1,4370.68457,4372.004883,4479.819824,4488.158691,4367.845215,4500.493652,4514.028809,4351.628418,4517.583008,4380.959961,4492.962402,4499.154297,4552.111328,4374.749023,4370.166504,4497.212402,4518.235352,4520.968262,4500.261719,4361.066406,4376.546875,4557.74707,4494.219727,4469.487305,4392.19043,4590.76123,4342.845215,4515.335449,4484.525391,4386.527344,4505.098145,4479.211914,0,1,18,0,0,,,,0,4,4,4,4,4,4,4,4,4,4,4,4,4,4,4,4,4,4,4,4,4,4,4,4,4,4,4,4,4,4,4,4,100,,,,,,,,,,,,,,,,,,,,,,,,,,,,,,,,,,,,,,,,,,,,,,,,,,,,,,,,,,,,,,,,,,,,,,,,,,,,,,,,,,,,,,,,,,,,,,,,,,,,,,,,,,,,,,,,,,,,,,,,,,,,,,,,,,,,,,,,,,,,,,,,,,,,,,,,,,,,,,,,,,,,,,,,,,,,,,,,,,,,,,,,,,,,,,,,,,,,,,,,,,,,,,
1764666696.422084,25956,1,4369.424316,4370.89209,4478.576172,4486.91748,4366.895996,4498.753418,4512.389648,4350.327148,4517.015625,4382.722168,4491.623047,4497.577637,4550.730957,4374.623535,4369.544434,4496.972168,4516.775879,4520.106445,4499.495605,4360.253906,4375.845703,4556.36377,4493.060547,4467.94873,4388.990723,4590.180176,4342.152344,4514.413574,4483.646973,4385.368164,4504.25,4478.240723,0,1,18,0,0,,,,0,4,4,4,4,4,4,4,4,4,4,4,4,4,4,4,4,4,4,4,4,4,4,4,4,4,4,4,4,4,4,4,4,100,,,,,,,,,,,,,,,,,,,,,,,,,,,,,,,,,,,,,,,,,,,,,,,,,,,,,,,,,,,,,,,,,,,,,,,,,,,,,,,,,,,,,,,,,,,,,,,,,,,,,,,,,,,,,,,,,,,,,,,,,,,,,,,,,,,,,,,,,,,,,,,,,,,,,,,,,,,,,,,,,,,,,,,,,,,,,,,,,,,,,,,,,,,,,,,,,,,,,,,,,,,,,,
1764666696.425990,25957,1,4368.164063,4369.778809,4477.332031,4485.67627,4365.946777,4497.013184,4510.75,4349.026367,4516.448242,4384.484375,4490.283691,4496.000977,4549.350586,4374.498047,4368.922363,4496.731934,4515.316406,4519.244629,4498.729004,4359.440918,4375.144531,4554.980957,4491.901367,4466.410156,4385.791016,4589.599121,4341.459473,4513.491699,4482.768555,4384.208984,4503.401367,4477.269531,0,1,18,0,0,,,,0,4,4,4,4,4,4,4,4,4,4,4,4,4,4,4,4,4,4,4,4,4,4,4,4,4,4,4,4,4,4,4,4,100,,,,,,,,,,,,,,,,,,,,,,,,,,,,,,,,,,,,,,,,,,,,,,,,,,,,,,,,,,,,,,,,,,,,,,,,,,,,,,,,,,,,,,,,,,,,,,,,,,,,,,,,,,,,,,,,,,,,,,,,,,,,,,,,,,,,,,,,,,,,,,,,,,,,,,,,,,,,,,,,,,,,,,,,,,,,,,,,,,,,,,,,,,,,,,,,,,,,,,,,,,,,,,
1764666696.429896,25958,1,4366.903809,4368.666016,4476.088379,4484.435547,4364.99707,4495.272949,4509.11084,4347.725098,4515.880859,4386.246582,4488.944336,4494.424316,4547.970703,4374.372559,4368.300781,4496.492188,4513.856934,4518.382324,4497.962402,4358.62793,4374.443359,4553.598145,4490.742188,4464.871582,4382.591309,4589.018066,4340.766602,4512.569336,4481.890137,4383.049805,4502.553223,4476.29834,0,1,18,0,0,,,,0,4,4,4,4,4,4,4,4,4,4,4,4,4,4,4,4,4,4,4,4,4,4,4,4,4,4,4,4,4,4,4,4,100,,,,,,,,,,,,,,,,,,,,,,,,,,,,,,,,,,,,,,,,,,,,,,,,,,,,,,,,,,,,,,,,,,,,,,,,,,,,,,,,,,,,,,,,,,,,,,,,,,,,,,,,,,,,,,,,,,,,,,,,,,,,,,,,,,,,,,,,,,,,,,,,,,,,,,,,,,,,,,,,,,,,,,,,,,,,,,,,,,,,,,,,,,,,,,,,,,,,,,,,,,,,,,
1764666696.433802,25959,1,4365.643555,4367.553223,4474.844727,4483.194336,4364.047852,4493.532227,4507.471191,4346.423828,4515.313477,4388.008789,4487.60498,4492.847656,4546.590332,4374.24707,4367.678711,4496.251953,4512.397949,4517.520508,4497.195801,4357.814941,4373.742676,4552.214844,4489.58252,4463.333496,4379.391602,4588.437012,4340.07373,4511.647461,4481.012207,4381.890137,4501.705078,4475.327148,0,1,18,0,0,,,,0,4,4,4,4,4,4,4,4,4,4,4,4,4,4,4,4,4,4,4,4,4,4,4,4,4,4,4,4,4,4,4,4,100,,,,,,,,,,,,,,,,,,,,,,,,,,,,,,,,,,,,,,,,,,,,,,,,,,,,,,,,,,,,,,,,,,,,,,,,,,,,,,,,,,,,,,,,,,,,,,,,,,,,,,,,,,,,,,,,,,,,,,,,,,,,,,,,,,,,,,,,,,,,,,,,,,,,,,,,,,,,,,,,,,,,,,,,,,,,,,,,,,,,,,,,,,,,,,,,,,,,,,,,,,,,,,
1764666696.437708,25960,1,4364.383301,4366.44043,4473.600586,4481.953125,4363.098633,4491.791992,4505.832031,4345.122559,4514.746094,4389.770996,4486.265625,4491.270996,4545.209961,4374.121582,4367.056641,4496.012207,4510.938477,4516.658691,4496.429199,4357.001953,4373.041504,4550.832031,4488.42334,4461.794922,4376.191895,4587.855957,4339.380859,4510.725586,4480.133789,4380.730957,4500.856445,4474.356445,0,1,18,0,0,,,,0,4,4,4,4,4,4,4,4,4,4,4,4,4,4,4,4,4,4,4,4,4,4,4,4,4,4,4,4,4,4,4,4,100,,,,,,,,,,,,,,,,,,,,,,,,,,,,,,,,,,,,,,,,,,,,,,,,,,,,,,,,,,,,,,,,,,,,,,,,,,,,,,,,,,,,,,,,,,,,,,,,,,,,,,,,,,,,,,,,,,,,,,,,,,,,,,,,,,,,,,,,,,,,,,,,,,,,,,,,,,,,,,,,,,,,,,,,,,,,,,,,,,,,,,,,,,,,,,,,,,,,,,,,,,,,,,
1764666696.441614,25961,1,4363.123535,4365.327148,4472.356934,4480.711914,4362.149414,4490.051758,4504.192383,4343.821777,4514.178711,4391.533203,4484.92627,4489.694336,4543.82959,4373.996094,4366.43457,4495.771973,4509.479004,4515.796387,4495.663086,4356.189453,4372.340332,4549.449219,4487.26416,4460.256348,4372.992188,4587.274902,4338.687988,4509.803711,4479.255371,4379.571777,4500.008301,4473.385254,0,1,18,0,0,,,,0,4,4,4,4,4,4,4,4,4,4,4,4,4,4,4,4,4,4,4,4,4,4,4,4,4,4,4,4,4,4,4,4,100,,,,,,,,,,,,,,,,,,,,,,,,,,,,,,,,,,,,,,,,,,,,,,,,,,,,,,,,,,,,,,,,,,,,,,,,,,,,,,,,,,,,,,,,,,,,,,,,,,,,,,,,,,,,,,,,,,,,,,,,,,,,,,,,,,,,,,,,,,,,,,,,,,,,,,,,,,,,,,,,,,,,,,,,,,,,,,,,,,,,,,,,,,,,,,,,,,,,,,,,,,,,,,
1764666696.445520,25962,1,4361.863281,4364.214355,4471.112793,4479.470703,4361.200195,4488.311523,4502.553223,4342.520508,4513.611328,4393.294922,4483.586914,4488.117676,4542.449707,4373.870605,4365.812988,4495.531738,4508.019531,4514.93457,4494.896484,4355.376465,4371.63916,4548.065918,4486.10498,4458.717773,4369.79248,4586.693848,4337.995117,4508.881836,4478.376953,4378.412598,4499.159668,4472.414063,0,1,18,0,0,,,,0,4,4,4,4,4,4,4,4,4,4,4,4,4,4,4,4,4,4,4,4,4,4,4,4,4,4,4,4,4,4,4,4,100,,,,,,,,,,,,,,,,,,,,,,,,,,,,,,,,,,,,,,,,,,,,,,,,,,,,,,,,,,,,,,,,,,,,,,,,,,,,,,,,,,,,,,,,,,,,,,,,,,,,,,,,,,,,,,,,,,,,,,,,,,,,,,,,,,,,,,,,,,,,,,,,,,,,,,,,,,,,,,,,,,,,,,,,,,,,,,,,,,,,,,,,,,,,,,,,,,,,,,,,,,,,,,
1764666696.449426,25963,1,4360.603027,4363.101563,4469.869141,4478.229492,4360.250977,4486.571289,4500.913574,4341.219238,4513.044434,4395.057129,4482.247559,4486.541016,4541.069336,4373.745117,4365.190918,4495.291992,4506.560059,4514.072754,4494.129883,4354.563477,4370.938477,4546.683105,4484.945313,4457.179688,4366.592773,4586.112793,4337.302246,4507.959473,4477.498535,4377.25293,4498.311523,4471.442871,0,1,18,0,0,,,,0,4,4,4,4,4,4,4,4,4,4,4,4,4,4,4,4,4,4,4,4,4,4,4,4,4,4,4,4,4,4,4,4,100,,,,,,,,,,,,,,,,,,,,,,,,,,,,,,,,,,,,,,,,,,,,,,,,,,,,,,,,,,,,,,,,,,,,,,,,,,,,,,,,,,,,,,,,,,,,,,,,,,,,,,,,,,,,,,,,,,,,,,,,,,,,,,,,,,,,,,,,,,,,,,,,,,,,,,,,,,,,,,,,,,,,,,,,,,,,,,,,,,,,,,,,,,,,,,,,,,,,,,,,,,,,,,
1764666696.453332,25964,1,4359.342773,4361.98877,4468.625,4476.98877,4359.301758,4484.831055,4499.274414,4339.917969,4512.477051,4396.819336,4480.908203,4484.964355,4539.688965,4373.619629,4364.568848,4495.051758,4505.101074,4513.210449,4493.363281,4353.750488,4370.237305,4545.300293,4483.786133,4455.641113,4363.393555,4585.531738,4336.609375,4507.037598,4476.620117,4376.09375,4497.463379,4470.47168,0,1,18,0,0,,,,0,4,4,4,4,4,4,4,4,4,4,4,4,4,4,4,4,4,4,4,4,4,4,4,4,4,4,4,4,4,4,4,4,100,,,,,,,,,,,,,,,,,,,,,,,,,,,,,,,,,,,,,,,,,,,,,,,,,,,,,,,,,,,,,,,,,,,,,,,,,,,,,,,,,,,,,,,,,,,,,,,,,,,,,,,,,,,,,,,,,,,,,,,,,,,,,,,,,,,,,,,,,,,,,,,,,,,,,,,,,,,,,,,,,,,,,,,,,,,,,,,,,,,,,,,,,,,,,,,,,,,,,,,,,,,,,,
1764666696.457239,25965,1,4358.08252,4360.875488,4467.381348,4475.747559,4358.352539,4483.090332,4497.635254,4338.617188,4511.909668,4398.581543,4479.568848,4483.387695,4538.308594,4373.494141,4363.947266,4494.812012,4503.641602,4512.348633,4492.59668,4352.937988,4369.536133,4543.916992,4482.626953,4454.102539,4360.193848,4584.950684,4335.916504,4506.115723,4475.742188,4374.93457,4496.614746,4469.500977,0,1,18,0,0,,,,0,4,4,4,4,4,4,4,4,4,4,4,4,4,4,4,4,4,4,4,4,4,4,4,4,4,4,4,4,4,4,4,4,100,,,,,,,,,,,,,,,,,,,,,,,,,,,,,,,,,,,,,,,,,,,,,,,,,,,,,,,,,,,,,,,,,,,,,,,,,,,,,,,,,,,,,,,,,,,,,,,,,,,,,,,,,,,,,,,,,,,,,,,,,,,,,,,,,,,,,,,,,,,,,,,,,,,,,,,,,,,,,,,,,,,,,,,,,,,,,,,,,,,,,,,,,,,,,,,,,,,,,,,,,,,,,,
1764666696.461145,25966,1,4356.822266,4359.762695,4466.137695,4474.506348,4357.40332,4481.350098,4495.995605,4337.315918,4511.342285,4400.34375,4478.229492,4481.811035,4536.928711,4373.368652,4363.325195,4494.571777,4502.182129,4511.486816,4491.830566,4352.125,4368.835449,4542.53418,4481.467773,4452.563965,4356.994141,4584.370117,4335.223633,4505.193848,4474.86377,4373.775391,4495.766602,4468.529785,0,1,18,0,0,,,,0,4,4,4,4,4,4,4,4,4,4,4,4,4,4,4,4,4,4,4,4,4,4,4,4,4,4,4,4,4,4,4,4,100,,,,,,,,,,,,,,,,,,,,,,,,,,,,,,,,,,,,,,,,,,,,,,,,,,,,,,,,,,,,,,,,,,,,,,,,,,,,,,,,,,,,,,,,,,,,,,,,,,,,,,,,,,,,,,,,,,,,,,,,,,,,,,,,,,,,,,,,,,,,,,,,,,,,,,,,,,,,,,,,,,,,,,,,,,,,,,,,,,,,,,,,,,,,,,,,,,,,,,,,,,,,,,
1764666696.465051,25967,1,4355.562012,4358.649902,4464.893555,4473.265137,4356.454102,4479.609863,4494.356445,4336.014648,4510.774902,4402.105957,4476.890137,4480.234375,4535.54834,4373.243164,4362.703125,4494.331543,4500.722656,4510.624512,4491.063965,4351.312012,4368.134277,4541.150879,4480.308105,4451.025879,4353.794434,4583.789063,4334.530762,4504.271484,4473.985352,4372.615723,4494.917969,4467.558594,0,1,18,0,0,,,,0,4,4,4,4,4,4,4,4,4,4,4,4,4,4,4,4,4,4,4,4,4,4,4,4,4,4,4,4,4,4,4,4,100,,,,,,,,,,,,,,,,,,,,,,,,,,,,,,,,,,,,,,,,,,,,,,,,,,,,,,,,,,,,,,,,,,,,,,,,,,,,,,,,,,,,,,,,,,,,,,,,,,,,,,,,,,,,,,,,,,,,,,,,,,,,,,,,,,,,,,,,,,,,,,,,,,,,,,,,,,,,,,,,,,,,,,,,,,,,,,,,,,,,,,,,,,,,,,,,,,,,,,,,,,,,,,
1764666696.468957,25968,1,4354.301758,4357.536621,4463.649902,4472.023926,4355.504395,4477.869629,4492.716797,4334.713379,4510.20752,4403.868164,4475.550781,4478.657715,4534.167969,4373.117676,4362.081055,4494.091797,4499.263672,4509.762695,4490.297363,4350.499023,4367.433105,4539.768066,4479.148926,4449.487305,4350.594727,4583.208008,4333.837891,4503.349609,4473.106934,4371.456543,4494.069824,4466.587402,0,1,18,0,0,,,,0,4,4,4,4,4,4,4,4,4,4,4,4,4,4,4,4,4,4,4,4,4,4,4,4,4,4,4,4,4,4,4,4,100,,,,,,,,,,,,,,,,,,,,,,,,,,,,,,,,,,,,,,,,,,,,,,,,,,,,,,,,,,,,,,,,,,,,,,,,,,,,,,,,,,,,,,,,,,,,,,,,,,,,,,,,,,,,,,,,,,,,,,,,,,,,,,,,,,,,,,,,,,,,,,,,,,,,,,,,,,,,,,,,,,,,,,,,,,,,,,,,,,,,,,,,,,,,,,,,,,,,,,,,,,,,,,
1764666696.472863,25969,1,4353.041504,4356.423828,4462.405762,4470.782715,4354.555176,4476.129395,4491.077637,4333.412598,4509.640137,4405.629883,4474.211914,4477.081055,4532.787598,4372.992188,4361.459473,4493.851563,4497.804199,4508.900879,4489.530762,4349.686523,4366.731934,4538.385254,4477.989746,4447.94873,4347.39502,4582.626953,4333.14502,4502.427734,4472.228516,4370.297363,4493.22168,4465.616699,0,1,18,0,0,,,,0,4,4,4,4,4,4,4,4,4,4,4,4,4,4,4,4,4,4,4,4,4,4,4,4,4,4,4,4,4,4,4,4,100,,,,,,,,,,,,,,,,,,,,,,,,,,,,,,,,,,,,,,,,,,,,,,,,,,,,,,,,,,,,,,,,,,,,,,,,,,,,,,,,,,,,,,,,,,,,,,,,,,,,,,,,,,,,,,,,,,,,,,,,,,,,,,,,,,,,,,,,,,,,,,,,,,,,,,,,,,,,,,,,,,,,,,,,,,,,,,,,,,,,,,,,,,,,,,,,,,,,,,,,,,,,,,
1764666696.476769,25970,1,4351.78125,4355.311035,4461.162109,4469.541504,4353.605957,4474.38916,4489.437988,4332.111328,4509.072754,4407.39209,4472.872559,4475.504395,4531.407715,4372.866699,4360.837402,4493.611328,4496.344727,4508.038574,4488.76416,4348.873535,4366.03125,4537.001953,4476.830566,4446.410156,4344.195313,4582.045898,4332.452148,4501.505859,4471.350098,4369.138184,4492.373047,4464.645508,0,1,18,0,0,,,,0,4,4,4,4,4,4,4,4,4,4,4,4,4,4,4,4,4,4,4,4,4,4,4,4,4,4,4,4,4,4,4,4,100,,,,,,,,,,,,,,,,,,,,,,,,,,,,,,,,,,,,,,,,,,,,,,,,,,,,,,,,,,,,,,,,,,,,,,,,,,,,,,,,,,,,,,,,,,,,,,,,,,,,,,,,,,,,,,,,,,,,,,,,,,,,,,,,,,,,,,,,,,,,,,,,,,,,,,,,,,,,,,,,,,,,,,,,,,,,,,,,,,,,,,,,,,,,,,,,,,,,,,,,,,,,,,
1764666696.480675,25971,1,4350.520996,4354.198242,4459.917969,4468.300781,4352.656738,4472.648438,4487.798828,4330.810059,4508.505371,4409.154297,4471.533203,4473.928223,4530.027344,4372.741211,4360.215332,4493.371582,4494.885254,4507.176758,4487.998047,4348.060547,4365.330078,4535.619141,4475.670898,4444.871582,4340.995605,4581.464844,4331.759277,4500.583984,4470.47168,4367.978516,4491.524902,4463.674316,0,1,18,0,0,,,,0,4,4,4,4,4,4,4,4,4,4,4,4,4,4,4,4,4,4,4,4,4,4,4,4,4,4,4,4,4,4,4,4,100,,,,,,,,,,,,,,,,,,,,,,,,,,,,,,,,,,,,,,,,,,,,,,,,,,,,,,,,,,,,,,,,,,,,,,,,,,,,,,,,,,,,,,,,,,,,,,,,,,,,,,,,,,,,,,,,,,,,,,,,,,,,,,,,,,,,,,,,,,,,,,,,,,,,,,,,,,,,,,,,,,,,,,,,,,,,,,,,,,,,,,,,,,,,,,,,,,,,,,,,,,,,,,
1764666696.484581,25972,1,4349.260742,4353.084961,4458.674316,4467.05957,4351.70752,4470.908203,4486.15918,4329.508789,4507.937988,4410.916504,4470.193848,4472.351563,4528.646973,4372.615723,4359.59375,4493.131348,4493.42627,4506.314941,4487.231445,4347.247559,4364.628906,4534.236328,4474.511719,4443.333496,4337.795898,4580.883789,4331.066406,4499.661621,4469.59375,4366.819336,4490.67627,4462.703125,0,1,18,0,0,,,,0,4,4,4,4,4,4,4,4,4,4,4,4,4,4,4,4,4,4,4,4,4,4,4,4,4,4,4,4,4,4,4,4,100,,,,,,,,,,,,,,,,,,,,,,,,,,,,,,,,,,,,,,,,,,,,,,,,,,,,,,,,,,,,,,,,,,,,,,,,,,,,,,,,,,,,,,,,,,,,,,,,,,,,,,,,,,,,,,,,,,,,,,,,,,,,,,,,,,,,,,,,,,,,,,,,,,,,,,,,,,,,,,,,,,,,,,,,,,,,,,,,,,,,,,,,,,,,,,,,,,,,,,,,,,,,,,
