Timestamp,EEG.Counter,EEG.Interpolated,EEG.Cz,EEG.Fz,EEG.Fp1,EEG.F7,EEG.F3,EEG.FC1,EEG.C3,EEG.FC5,EEG.FT9,EEG.T7,EEG.CP5,EEG.CP1,EEG.P3,EEG.P7,EEG.PO9,EEG.O1,EEG.Pz,EEG.Oz,EEG.O2,EEG.PO10,EEG.P8,EEG.P4,EEG.CP2,EEG.CP6,EEG.T8,EEG.FT10,EEG.FC6,EEG.C4,EEG.FC2,EEG.F4,EEG.F8,EEG.Fp2,EEG.RawCq,EEG.Battery,EEG.BatteryPercent,EEG.FwBufferSize,EEG.FwClockTime,MarkerIndex,MarkerType,MarkerValueInt,EEG.MarkerHardware,CQ.Cz,CQ.Fz,CQ.Fp1,CQ.F7,CQ.F3,CQ.FC1,CQ.C3,CQ.FC5,CQ.FT9,CQ.T7,CQ.CP5,CQ.CP1,CQ.P3,CQ.P7,CQ.PO9,CQ.O1,CQ.Pz,CQ.Oz,CQ.O2,CQ.PO10,CQ.P8,CQ.P4,CQ.CP2,CQ.CP6,CQ.T8,CQ.FT10,CQ.FC6,CQ.C4,CQ.FC2,CQ.F4,CQ.F8,CQ.Fp2,CQ.Overall,EQ.SampleRateQuality,EQ.OVERALL,EQ.Cz,EQ.Fz,EQ.Fp1,EQ.F7,EQ.F3,EQ.FC1,EQ.C3,EQ.FC5,EQ.FT9,EQ.T7,EQ.CP5,EQ.CP1,EQ.P3,EQ.P7,EQ.PO9,EQ.O1,EQ.Pz,EQ.Oz,EQ.O2,EQ.PO10,EQ.P8,EQ.P4,EQ.CP2,EQ.CP6,EQ.T8,EQ.FT10,EQ.FC6,EQ.C4,EQ.FC2,EQ.F4,EQ.F8,EQ.Fp2,MOT.CounterMems,MOT.InterpolatedMems,MOT.Q0,MOT.Q1,MOT.Q2,MOT.Q3,MOT.AccX,MOT.AccY,MOT.AccZ,MOT.MagX,MOT.MagY,MOT.MagZ,POW.Cz.Theta,POW.Cz.Alpha,POW.Cz.BetaL,POW.Cz.BetaH,POW.Cz.Gamma,POW.Fz.Theta,POW.Fz.Alpha,POW.Fz.BetaL,POW.Fz.BetaH,POW.Fz.Gamma,POW.Fp1.Theta,POW.Fp1.Alpha,POW.Fp1.BetaL,POW.Fp1.BetaH,POW.Fp1.Gamma,POW.F7.Theta,POW.F7.Alpha,POW.F7.BetaL,POW.F7.BetaH,POW.F7.Gamma,POW.F3.Theta,POW.F3.Alpha,POW.F3.BetaL,POW.F3.BetaH,POW.F3.Gamma,POW.FC1.Theta,POW.FC1.Alpha,POW.FC1.BetaL,POW.FC1.BetaH,POW.FC1.Gamma,POW.C3.Theta,POW.C3.Alpha,POW.C3.BetaL,POW.C3.BetaH,POW.C3.Gamma,POW.FC5.Theta,POW.FC5.Alpha,POW.FC5.BetaL,POW.FC5.BetaH,POW.FC5.Gamma,POW.FT9.Theta,POW.FT9.Alpha,POW.FT9.BetaL,POW.FT9.BetaH,POW.FT9.Gamma,POW.T7.Theta,POW.T7.Alpha,POW.T7.BetaL,POW.T7.BetaH,POW.T7.Gamma,POW.CP5.Theta,POW.CP5.Alpha,POW.CP5.BetaL,POW.CP5.BetaH,POW.CP5.Gamma,POW.CP1.Theta,POW.CP1.Alpha,POW.CP1.BetaL,POW.CP1.BetaH,POW.CP1.Gamma,POW.P3.Theta,POW.P3.Alpha,POW.P3.BetaL,POW.P3.BetaH,POW.P3.Gamma,POW.P7.Theta,POW.P7.Alpha,POW.P7.BetaL,POW.P7.BetaH,POW.P7.Gamma,POW.PO9.Theta,POW.PO9.Alpha,POW.PO9.BetaL,POW.PO9.BetaH,POW.PO9.Gamma,POW.O1.Theta,POW.O1.Alpha,POW.O1.BetaL,POW.O1.BetaH,POW.O1.Gamma,POW.Pz.Theta,POW.Pz.Alpha,POW.Pz.BetaL,POW.Pz.BetaH,POW.Pz.Gamma,POW.Oz.Theta,POW.Oz.Alpha,POW.Oz.BetaL,POW.Oz.BetaH,POW.Oz.Gamma,POW.O2.Theta,POW.O2.Alpha,POW.O2.BetaL,POW.O2.BetaH,POW.O2.Gamma,POW.PO10.Theta,POW.PO10.Alpha,POW.PO10.BetaL,POW.PO10.BetaH,POW.PO10.Gamma,POW.P8.Theta,POW.P8.Alpha,POW.P8.BetaL,POW.P8.BetaH,POW.P8.Gamma,POW.P4.Theta,POW.P4.Alpha,POW.P4.BetaL,POW.P4.BetaH,POW.P4.Gamma,POW.CP2.Theta,POW.CP2.Alpha,POW.CP2.BetaL,POW.CP2.BetaH,POW.CP2.Gamma,POW.CP6.Theta,POW.CP6.Alpha,POW.CP6.BetaL,POW.CP6.BetaH,POW.CP6.Gamma,POW.T8.Theta,POW.T8.Alpha,POW.T8.BetaL,POW.T8.BetaH,POW.T8.Gamma,POW.FT10.Theta,POW.FT10.Alpha,POW.FT10.BetaL,POW.FT10.BetaH,POW.FT10.Gamma,POW.FC6.Theta,POW.FC6.Alpha,POW.FC6.BetaL,POW.FC6.BetaH,POW.FC6.Gamma,POW.C4.Theta,POW.C4.Alpha,POW.C4.BetaL,POW.C4.BetaH,POW.C4.Gamma,POW.FC2.Theta,POW.FC2.Alpha,POW.FC2.BetaL,POW.FC2.BetaH,POW.FC2.Gamma,POW.F4.Theta,POW.F4.Alpha,POW.F4.BetaL,POW.F4.BetaH,POW.F4.Gamma,POW.F8.Theta,POW.F8.Alpha,POW.F8.BetaL,POW.F8.BetaH,POW.F8.Gamma,POW.Fp2.Theta,POW.Fp2.Alpha,POW.Fp2.BetaL,POW.Fp2.BetaH,POW.Fp2.Gamma
1763974507.716957,30241.0,1.0,4438.393066,4432.248047,4578.444336,4604.256348,4440.03418,4552.581055,4587.495605,4442.042969,4658.786133,4446.042969,4537.769043,4552.641113,4597.683594,4442.794922,4443.367676,4545.461426,4592.624023,4577.974121,4564.512695,4444.914551,4451.444336,4618.230957,4552.683594,4563.837402,4477.931641,4620.666504,4444.760742,4612.119629,4536.162598,4464.01709,4594.598145,4555.606934,0.0,1.0,18.0,0.0,0.0,3.0,1.0,1.0,0.0,4.0,4.0,4.0,4.0,4.0,4.0,4.0,4.0,4.0,4.0,4.0,4.0,4.0,4.0,4.0,4.0,4.0,4.0,4.0,4.0,4.0,4.0,4.0,4.0,4.0,4.0,4.0,4.0,4.0,4.0,4.0,4.0,100.0,,,,,,,,,,,,,,,,,,,,,,,,,,,,,,,,,,,,,,,,,,,,,,,,,,,,,,,,,,,,,,,,,,,,,,,,,,,,,,,,,,,,,,,,,,,,,,,,,,,,,,,,,,,,,,,,,,,,,,,,,,,,,,,,,,,,,,,,,,,,,,,,,,,,,,,,,,,,,,,,,,,,,,,,,,,,,,,,,,,,,,,,,,,,,,,,,,,,,,,,,,,,,,
1763974507.720863,30242.0,1.0,4437.717773,4431.384766,4578.436035,4605.743652,4440.179688,4551.94873,4587.846191,4443.128418,4659.333496,4444.128418,4538.641113,4552.615234,4598.769043,4442.717773,4443.128418,4545.436035,4592.333496,4577.794922,4563.94873,4444.230957,4451.461426,4617.666504,4552.358887,4562.230957,4477.282227,4620.743652,4444.384766,4612.153809,4535.846191,4463.333496,4594.333496,4555.974121,0.0,1.0,18.0,0.0,0.0,,,,0.0,4.0,4.0,4.0,4.0,4.0,4.0,4.0,4.0,4.0,4.0,4.0,4.0,4.0,4.0,4.0,4.0,4.0,4.0,4.0,4.0,4.0,4.0,4.0,4.0,4.0,4.0,4.0,4.0,4.0,4.0,4.0,4.0,100.0,,,,,,,,,,,,,,,,,,,,,,,,,,,,,,,,,,,,,,,,,,,,,,,,,,,,,,,,,,,,,,,,,,,,,,,,,,,,,,,,,,,,,,,,,,,,,,,,,,,,,,,,,,,,,,,,,,,,,,,,,,,,,,,,,,,,,,,,,,,,,,,,,,,,,,,,,,,,,,,,,,,,,,,,,,,,,,,,,,,,,,,,,,,,,,,,,,,,,,,,,,,,,,
1763974507.724768,30243.0,1.0,4437.042969,4430.521484,4578.427246,4607.230957,4440.324707,4551.316406,4588.196777,4444.213867,4659.880371,4442.213867,4539.512695,4552.589844,4599.854492,4442.641113,4442.888672,4545.410156,4592.042969,4577.615234,4563.384766,4443.546875,4451.478516,4617.102539,4552.03418,4560.624023,4476.632324,4620.820313,4444.008789,4612.187988,4535.529785,4462.649414,4594.068359,4556.341797,0.0,1.0,18.0,0.0,0.0,,,,0.0,4.0,4.0,4.0,4.0,4.0,4.0,4.0,4.0,4.0,4.0,4.0,4.0,4.0,4.0,4.0,4.0,4.0,4.0,4.0,4.0,4.0,4.0,4.0,4.0,4.0,4.0,4.0,4.0,4.0,4.0,4.0,4.0,100.0,,,,,,,,,,,,,,,,,,,,,,,,,,,,,,,,,,,,,,,,,,,,,,,,,,,,,,,,,,,,,,,,,,,,,,,,,,,,,,,,,,,,,,,,,,,,,,,,,,,,,,,,,,,,,,,,,,,,,,,,,,,,,,,,,,,,,,,,,,,,,,,,,,,,,,,,,,,,,,,,,,,,,,,,,,,,,,,,,,,,,,,,,,,,,,,,,,,,,,,,,,,,,,
1763974507.728674,30244.0,1.0,4436.367676,4429.658203,4578.418945,4608.717773,4440.470215,4550.683594,4588.546875,4445.299316,4660.427246,4440.299316,4540.384766,4552.563965,4600.939941,4442.563965,4442.649414,4545.384766,4591.751953,4577.436035,4562.820313,4442.863281,4451.495605,4616.538574,4551.709473,4559.01709,4475.98291,4620.897461,4443.632324,4612.222168,4535.213867,4461.96582,4593.803223,4556.709473,0.0,1.0,18.0,0.0,0.0,,,,0.0,4.0,4.0,4.0,4.0,4.0,4.0,4.0,4.0,4.0,4.0,4.0,4.0,4.0,4.0,4.0,4.0,4.0,4.0,4.0,4.0,4.0,4.0,4.0,4.0,4.0,4.0,4.0,4.0,4.0,4.0,4.0,4.0,100.0,,,,,,,,,,,,,,,,,,,,,,,,,,,,,,,,,,,,,,,,,,,,,,,,,,,,,,,,,,,,,,,,,,,,,,,,,,,,,,,,,,,,,,,,,,,,,,,,,,,,,,,,,,,,,,,,,,,,,,,,,,,,,,,,,,,,,,,,,,,,,,,,,,,,,,,,,,,,,,,,,,,,,,,,,,,,,,,,,,,,,,,,,,,,,,,,,,,,,,,,,,,,,,
1763974507.73258,30245.0,1.0,4435.692383,4428.794922,4578.410156,4610.205078,4440.615234,4550.05127,4588.897461,4446.384766,4660.974121,4438.384766,4541.256348,4552.538574,4602.025879,4442.487305,4442.410156,4545.358887,4591.461426,4577.256348,4562.256348,4442.179688,4451.512695,4615.974121,4551.384766,4557.410156,4475.333496,4620.974121,4443.256348,4612.256348,4534.897461,4461.282227,4593.538574,4557.077148,0.0,1.0,18.0,0.0,0.0,,,,0.0,4.0,4.0,4.0,4.0,4.0,4.0,4.0,4.0,4.0,4.0,4.0,4.0,4.0,4.0,4.0,4.0,4.0,4.0,4.0,4.0,4.0,4.0,4.0,4.0,4.0,4.0,4.0,4.0,4.0,4.0,4.0,4.0,100.0,,,,,,,,,,,,,,,,,,,,,,,,,,,,,,,,,,,,,,,,,,,,,,,,,,,,,,,,,,,,,,,,,,,,,,,,,,,,,,,,,,,,,,,,,,,,,,,,,,,,,,,,,,,,,,,,,,,,,,,,,,,,,,,,,,,,,,,,,,,,,,,,,,,,,,,,,,,,,,,,,,,,,,,,,,,,,,,,,,,,,,,,,,,,,,,,,,,,,,,,,,,,,,
1763974507.736486,30246.0,1.0,4435.01709,4427.931641,4578.401855,4611.692383,4440.760742,4549.418945,4589.248047,4447.470215,4661.521484,4436.470215,4542.128418,4552.512695,4603.111328,4442.410156,4442.170898,4545.333496,4591.170898,4577.077148,4561.692383,4441.495605,4451.529785,4615.410156,4551.060059,4555.803223,4474.683594,4621.05127,4442.880371,4612.290527,4534.581055,4460.598145,4593.273438,4557.444336,0.0,1.0,18.0,0.0,0.0,,,,0.0,4.0,4.0,4.0,4.0,4.0,4.0,4.0,4.0,4.0,4.0,4.0,4.0,4.0,4.0,4.0,4.0,4.0,4.0,4.0,4.0,4.0,4.0,4.0,4.0,4.0,4.0,4.0,4.0,4.0,4.0,4.0,4.0,100.0,,,,,,,,,,,,,,,,,,,,,,,,,,,,,,,,,,,,,,,,,,,,,,,,,,,,,,,,,,,,,,,,,,,,,,,,,,,,,,,,,,,,,,,,,,,,,,,,,,,,,,,,,,,,,,,,,,,,,,,,,,,,,,,,,,,,,,,,,,,,,,,,,,,,,,,,,,,,,,,,,,,,,,,,,,,,,,,,,,,,,,,,,,,,,,,,,,,,,,,,,,,,,,
1763974507.740392,30247.0,1.0,4434.341797,4427.068359,4578.393066,4613.179688,4440.905762,4548.786133,4589.598145,4448.555664,4662.068359,4434.555664,4543.0,4552.487305,4604.196777,4442.333496,4441.931641,4545.307617,4590.880371,4576.897461,4561.128418,4440.812012,4451.546875,4614.846191,4550.734863,4554.196777,4474.03418,4621.128418,4442.504395,4612.324707,4534.265137,4459.914551,4593.008789,4557.812012,0.0,1.0,18.0,0.0,0.0,,,,0.0,4.0,4.0,4.0,4.0,4.0,4.0,4.0,4.0,4.0,4.0,4.0,4.0,4.0,4.0,4.0,4.0,4.0,4.0,4.0,4.0,4.0,4.0,4.0,4.0,4.0,4.0,4.0,4.0,4.0,4.0,4.0,4.0,100.0,,,,,,,,,,,,,,,,,,,,,,,,,,,,,,,,,,,,,,,,,,,,,,,,,,,,,,,,,,,,,,,,,,,,,,,,,,,,,,,,,,,,,,,,,,,,,,,,,,,,,,,,,,,,,,,,,,,,,,,,,,,,,,,,,,,,,,,,,,,,,,,,,,,,,,,,,,,,,,,,,,,,,,,,,,,,,,,,,,,,,,,,,,,,,,,,,,,,,,,,,,,,,,
1763974507.744297,30248.0,1.0,4433.666504,4426.205078,4578.384766,4614.666504,4441.05127,4548.153809,4589.94873,4449.641113,4662.615234,4432.641113,4543.871582,4552.461426,4605.282227,4442.256348,4441.692383,4545.282227,4590.589844,4576.717773,4560.563965,4440.128418,4451.563965,4614.282227,4550.410156,4552.589844,4473.384766,4621.205078,4442.128418,4612.358887,4533.94873,4459.230957,4592.743652,4558.179688,0.0,1.0,18.0,0.0,0.0,,,,0.0,4.0,4.0,4.0,4.0,4.0,4.0,4.0,4.0,4.0,4.0,4.0,4.0,4.0,4.0,4.0,4.0,4.0,4.0,4.0,4.0,4.0,4.0,4.0,4.0,4.0,4.0,4.0,4.0,4.0,4.0,4.0,4.0,100.0,,,,,,,,,,,,,,,,,,,,,,,,,,,,,,,,,,,,,,,,,,,,,,,,,,,,,,,,,,,,,,,,,,,,,,,,,,,,,,,,,,,,,,,,,,,,,,,,,,,,,,,,,,,,,,,,,,,,,,,,,,,,,,,,,,,,,,,,,,,,,,,,,,,,,,,,,,,,,,,,,,,,,,,,,,,,,,,,,,,,,,,,,,,,,,,,,,,,,,,,,,,,,,
1763974507.748203,30249.0,1.0,4432.991211,4425.341797,4578.375977,4616.153809,4441.196777,4547.521484,4590.299316,4450.726563,4663.162598,4430.726563,4544.743652,4552.436035,4606.367676,4442.179688,4441.453125,4545.256348,4590.299316,4576.538574,4560.0,4439.444336,4451.581055,4613.717773,4550.085449,4550.98291,4472.734863,4621.282227,4441.751953,4612.393066,4533.632324,4458.546875,4592.478516,4558.546875,0.0,1.0,18.0,0.0,0.0,,,,0.0,4.0,4.0,4.0,4.0,4.0,4.0,4.0,4.0,4.0,4.0,4.0,4.0,4.0,4.0,4.0,4.0,4.0,4.0,4.0,4.0,4.0,4.0,4.0,4.0,4.0,4.0,4.0,4.0,4.0,4.0,4.0,4.0,100.0,,,,,,,,,,,,,,,,,,,,,,,,,,,,,,,,,,,,,,,,,,,,,,,,,,,,,,,,,,,,,,,,,,,,,,,,,,,,,,,,,,,,,,,,,,,,,,,,,,,,,,,,,,,,,,,,,,,,,,,,,,,,,,,,,,,,,,,,,,,,,,,,,,,,,,,,,,,,,,,,,,,,,,,,,,,,,,,,,,,,,,,,,,,,,,,,,,,,,,,,,,,,,,
1763974507.752109,30250.0,1.0,4432.316406,4424.478516,4578.367676,4617.641113,4441.341797,4546.888672,4590.649414,4451.812012,4663.709473,4428.812012,4545.615234,4552.410156,4607.453125,4442.102539,4441.213867,4545.230957,4590.008789,4576.358887,4559.436035,4438.760742,4451.598145,4613.153809,4549.760742,4549.375977,4472.085449,4621.358887,4441.375977,4612.427246,4533.316406,4457.863281,4592.213867,4558.914551,0.0,1.0,18.0,0.0,0.0,,,,0.0,4.0,4.0,4.0,4.0,4.0,4.0,4.0,4.0,4.0,4.0,4.0,4.0,4.0,4.0,4.0,4.0,4.0,4.0,4.0,4.0,4.0,4.0,4.0,4.0,4.0,4.0,4.0,4.0,4.0,4.0,4.0,4.0,100.0,,,,,,,,,,,,,,,,,,,,,,,,,,,,,,,,,,,,,,,,,,,,,,,,,,,,,,,,,,,,,,,,,,,,,,,,,,,,,,,,,,,,,,,,,,,,,,,,,,,,,,,,,,,,,,,,,,,,,,,,,,,,,,,,,,,,,,,,,,,,,,,,,,,,,,,,,,,,,,,,,,,,,,,,,,,,,,,,,,,,,,,,,,,,,,,,,,,,,,,,,,,,,,
1763974507.756015,30251.0,1.0,4431.641113,4423.615234,4578.358887,4619.128418,4441.487305,4546.256348,4591.0,4452.897461,4664.256348,4426.897461,4546.487305,4552.384766,4608.538574,4442.025879,4440.974121,4545.205078,4589.717773,4576.179688,4558.871582,4438.077148,4451.615234,4612.589844,4549.436035,4547.769043,4471.436035,4621.436035,4441.0,4612.461426,4533.0,4457.179688,4591.94873,4559.282227,0.0,1.0,18.0,0.0,0.0,,,,0.0,4.0,4.0,4.0,4.0,4.0,4.0,4.0,4.0,4.0,4.0,4.0,4.0,4.0,4.0,4.0,4.0,4.0,4.0,4.0,4.0,4.0,4.0,4.0,4.0,4.0,4.0,4.0,4.0,4.0,4.0,4.0,4.0,100.0,,,,,,,,,,,,,,,,,,,,,,,,,,,,,,,,,,,,,,,,,,,,,,,,,,,,,,,,,,,,,,,,,,,,,,,,,,,,,,,,,,,,,,,,,,,,,,,,,,,,,,,,,,,,,,,,,,,,,,,,,,,,,,,,,,,,,,,,,,,,,,,,,,,,,,,,,,,,,,,,,,,,,,,,,,,,,,,,,,,,,,,,,,,,,,,,,,,,,,,,,,,,,,
1763974507.75992,30252.0,1.0,4430.96582,4422.751953,4578.350586,4620.615234,4441.632324,4545.624023,4591.350586,4453.98291,4664.803223,4424.98291,4547.358887,4552.358887,4609.624023,4441.94873,4440.734863,4545.179688,4589.427246,4576.0,4558.307617,4437.393066,4451.632324,4612.025879,4549.111328,4546.162598,4470.786133,4621.512695,4440.624023,4612.495605,4532.683594,4456.495605,4591.683594,4559.649414,0.0,1.0,18.0,0.0,0.0,,,,0.0,4.0,4.0,4.0,4.0,4.0,4.0,4.0,4.0,4.0,4.0,4.0,4.0,4.0,4.0,4.0,4.0,4.0,4.0,4.0,4.0,4.0,4.0,4.0,4.0,4.0,4.0,4.0,4.0,4.0,4.0,4.0,4.0,100.0,,,,,,,,,,,,,,,,,,,,,,,,,,,,,,,,,,,,,,,,,,,,,,,,,,,,,,,,,,,,,,,,,,,,,,,,,,,,,,,,,,,,,,,,,,,,,,,,,,,,,,,,,,,,,,,,,,,,,,,,,,,,,,,,,,,,,,,,,,,,,,,,,,,,,,,,,,,,,,,,,,,,,,,,,,,,,,,,,,,,,,,,,,,,,,,,,,,,,,,,,,,,,,
1763974507.763826,30253.0,1.0,4430.290527,4421.888672,4578.341797,4622.102539,4441.777832,4544.991211,4591.700684,4455.068359,4665.350586,4423.068359,4548.230957,4552.333496,4610.709473,4441.871582,4440.495605,4545.153809,4589.136719,4575.820313,4557.743652,4436.709473,4451.649414,4611.461426,4548.786133,4544.555664,4470.136719,4621.589844,4440.248047,4612.529785,4532.367676,4455.812012,4591.418945,4560.01709,0.0,1.0,18.0,0.0,0.0,,,,0.0,4.0,4.0,4.0,4.0,4.0,4.0,4.0,4.0,4.0,4.0,4.0,4.0,4.0,4.0,4.0,4.0,4.0,4.0,4.0,4.0,4.0,4.0,4.0,4.0,4.0,4.0,4.0,4.0,4.0,4.0,4.0,4.0,100.0,,,,,,,,,,,,,,,,,,,,,,,,,,,,,,,,,,,,,,,,,,,,,,,,,,,,,,,,,,,,,,,,,,,,,,,,,,,,,,,,,,,,,,,,,,,,,,,,,,,,,,,,,,,,,,,,,,,,,,,,,,,,,,,,,,,,,,,,,,,,,,,,,,,,,,,,,,,,,,,,,,,,,,,,,,,,,,,,,,,,,,,,,,,,,,,,,,,,,,,,,,,,,,
1763974507.767732,30254.0,0.0,4429.615234,4421.025879,4578.333496,4623.589844,4441.922852,4544.358887,4592.05127,4456.153809,4665.897461,4421.153809,4549.102539,4552.307617,4611.794922,4441.794922,4440.256348,4545.128418,4588.846191,4575.641113,4557.179688,4436.025879,4451.666504,4610.897461,4548.461426,4542.94873,4469.487305,4621.666504,4439.871582,4612.563965,4532.05127,4455.128418,4591.153809,4560.384766,2728.0,1.0,18.0,2576.0,31612.0,,,,0.0,4.0,4.0,4.0,4.0,4.0,4.0,4.0,4.0,4.0,4.0,4.0,4.0,4.0,4.0,4.0,4.0,4.0,4.0,4.0,4.0,4.0,4.0,4.0,4.0,4.0,4.0,4.0,4.0,4.0,4.0,4.0,4.0,100.0,,,,,,,,,,,,,,,,,,,,,,,,,,,,,,,,,,,,,,,,,,,,,,,2.494209,1.176906,1.954229,2.804019,1.567707,2.10301,0.635652,2.532044,2.958874,1.467564,1.424727,0.829468,2.715938,3.518171,1.634554,0.696842,1.538219,1.781906,2.974588,1.644142,0.817818,0.533639,1.534025,1.910522,1.104234,0.678468,0.483714,1.802276,1.721059,0.913273,1.080142,1.439807,2.941189,3.033886,1.455534,1.572869,2.120784,2.545765,2.790295,1.223888,0.95121,1.772073,1.570011,2.280599,1.315795,1.324581,2.331625,2.48659,7.706337,5.999661,2.121415,2.144942,2.398271,2.643672,1.225847,2.272886,1.573938,2.234611,2.607191,1.210277,1.964611,1.970497,2.199861,2.532353,1.32098,0.623299,0.62428,1.211396,1.55116,0.768447,0.895433,1.161682,1.245686,1.554937,0.970427,1.189091,1.359965,1.556082,3.23238,0.90629,1.820639,1.074486,1.684429,2.576748,1.221511,1.826399,2.192808,2.113184,4.31417,1.801256,1.6076,2.581262,2.108116,4.222712,3.664164,1.396106,1.659953,2.320125,4.323074,2.106303,1.630406,1.74775,1.601198,4.144736,2.070654,2.09026,1.895333,2.330765,3.68196,2.077272,2.036203,1.167195,2.30282,3.092054,1.466538,1.27545,1.106182,2.647475,3.545679,1.593952,1.974387,1.484583,2.660352,8.267632,4.597548,1.502865,1.464334,2.801202,3.058529,2.627377,1.081548,0.431416,5.272826,5.802143,2.546552,0.915039,0.970494,2.360939,3.631114,1.892862,0.707454,1.065962,3.080517,3.337779,1.537741,2.788735,0.870151,3.62831,3.465752,1.580277,1.025585,0.748842,2.221657,3.715203,1.85708,1.145856,0.640342,2.533121,2.993683,1.863471
1763974507.771638,30255.0,0.0,4438.077148,4425.641113,4583.589844,4630.256348,4447.05127,4549.230957,4595.641113,4458.717773,4671.282227,4439.358887,4551.666504,4559.102539,4617.820313,4444.743652,4445.641113,4550.512695,4597.436035,4584.743652,4571.025879,4443.717773,4458.205078,4621.282227,4556.153809,4566.410156,4472.820313,4629.102539,4444.615234,4613.846191,4536.666504,4457.820313,4594.487305,4567.436035,2860.0,1.0,18.0,2576.0,31612.0,,,,0.0,4.0,4.0,4.0,4.0,4.0,4.0,4.0,4.0,4.0,4.0,4.0,4.0,4.0,4.0,4.0,4.0,4.0,4.0,4.0,4.0,4.0,4.0,4.0,4.0,4.0,4.0,4.0,4.0,4.0,4.0,4.0,4.0,100.0,,,,,,,,,,,,,,,,,,,,,,,,,,,,,,,,,,,,,,,,,,,,,,,,,,,,,,,,,,,,,,,,,,,,,,,,,,,,,,,,,,,,,,,,,,,,,,,,,,,,,,,,,,,,,,,,,,,,,,,,,,,,,,,,,,,,,,,,,,,,,,,,,,,,,,,,,,,,,,,,,,,,,,,,,,,,,,,,,,,,,,,,,,,,,,,,,,,,,,,,,,,,,,
1763974507.775544,30256.0,1.0,4443.248047,4432.777832,4590.769043,4636.624023,4451.453125,4554.230957,4600.726563,4463.717773,4677.606934,4467.094238,4556.581055,4564.01709,4622.265137,4448.162598,4446.239258,4556.324707,4603.418945,4588.675293,4571.324707,4449.01709,4458.675293,4624.700684,4562.136719,4571.324707,4482.734863,4635.470215,4452.563965,4617.478516,4544.615234,4464.060059,4604.829102,4574.615234,0.0,1.0,18.0,0.0,0.0,,,,0.0,4.0,4.0,4.0,4.0,4.0,4.0,4.0,4.0,4.0,4.0,4.0,4.0,4.0,4.0,4.0,4.0,4.0,4.0,4.0,4.0,4.0,4.0,4.0,4.0,4.0,4.0,4.0,4.0,4.0,4.0,4.0,4.0,100.0,,,,,,,,,,,,,,,,,,,,,,,,,,,,,,,,,,,,,,,,,,,,,,,,,,,,,,,,,,,,,,,,,,,,,,,,,,,,,,,,,,,,,,,,,,,,,,,,,,,,,,,,,,,,,,,,,,,,,,,,,,,,,,,,,,,,,,,,,,,,,,,,,,,,,,,,,,,,,,,,,,,,,,,,,,,,,,,,,,,,,,,,,,,,,,,,,,,,,,,,,,,,,,
1763974507.779449,30257.0,1.0,4448.418945,4439.914551,4597.94873,4642.991211,4455.854492,4559.230957,4605.812012,4468.717773,4683.931641,4494.829102,4561.495605,4568.931641,4626.709473,4451.581055,4446.837402,4562.136719,4609.401855,4592.606934,4571.624023,4454.316406,4459.145508,4628.119629,4568.119629,4576.239258,4492.649414,4641.837402,4460.512695,4621.111328,4552.563965,4470.299316,4615.170898,4581.794922,0.0,1.0,18.0,0.0,0.0,,,,0.0,4.0,4.0,4.0,4.0,4.0,4.0,4.0,4.0,4.0,4.0,4.0,4.0,4.0,4.0,4.0,4.0,4.0,4.0,4.0,4.0,4.0,4.0,4.0,4.0,4.0,4.0,4.0,4.0,4.0,4.0,4.0,4.0,100.0,,,,,,,,,,,,,,,,,,,,,,,,,,,,,,,,,,,,,,,,,,,,,,,,,,,,,,,,,,,,,,,,,,,,,,,,,,,,,,,,,,,,,,,,,,,,,,,,,,,,,,,,,,,,,,,,,,,,,,,,,,,,,,,,,,,,,,,,,,,,,,,,,,,,,,,,,,,,,,,,,,,,,,,,,,,,,,,,,,,,,,,,,,,,,,,,,,,,,,,,,,,,,,
1763974507.783355,30258.0,0.0,4453.589844,4447.05127,4605.128418,4649.358887,4460.256348,4564.230957,4610.897461,4473.717773,4690.256348,4522.563965,4566.410156,4573.846191,4631.153809,4455.0,4447.436035,4567.94873,4615.384766,4596.538574,4571.922852,4459.615234,4459.615234,4631.538574,4574.102539,4581.153809,4502.563965,4648.205078,4468.461426,4624.743652,4560.512695,4476.538574,4625.512695,4588.974121,2820.0,1.0,18.0,2575.0,31628.0,,,,0.0,4.0,4.0,4.0,4.0,4.0,4.0,4.0,4.0,4.0,4.0,4.0,4.0,4.0,4.0,4.0,4.0,4.0,4.0,4.0,4.0,4.0,4.0,4.0,4.0,4.0,4.0,4.0,4.0,4.0,4.0,4.0,4.0,100.0,,,,,,,,,,,,,,,,,,,,,,,,,,,,,,,,,,,,,,,,,,,,,,,,,,,,,,,,,,,,,,,,,,,,,,,,,,,,,,,,,,,,,,,,,,,,,,,,,,,,,,,,,,,,,,,,,,,,,,,,,,,,,,,,,,,,,,,,,,,,,,,,,,,,,,,,,,,,,,,,,,,,,,,,,,,,,,,,,,,,,,,,,,,,,,,,,,,,,,,,,,,,,,
1763974507.787261,30259.0,0.0,4452.820313,4450.512695,4608.205078,4655.897461,4465.897461,4565.512695,4616.025879,4482.307617,4693.461426,4512.436035,4575.0,4575.256348,4632.179688,4458.717773,4448.333496,4567.05127,4614.487305,4595.897461,4568.717773,4463.717773,4461.538574,4626.538574,4573.205078,4565.897461,4502.820313,4646.538574,4469.102539,4626.025879,4562.563965,4477.94873,4628.205078,4589.615234,3011.0,1.0,18.0,2575.0,31628.0,,,,0.0,4.0,4.0,4.0,4.0,4.0,4.0,4.0,4.0,4.0,4.0,4.0,4.0,4.0,4.0,4.0,4.0,4.0,4.0,4.0,4.0,4.0,4.0,4.0,4.0,4.0,4.0,4.0,4.0,4.0,4.0,4.0,4.0,100.0,,,,,,,,,,,,,,,,,,,,,,,,,,,,,,,,,,,,,,,,,,,,,,,,,,,,,,,,,,,,,,,,,,,,,,,,,,,,,,,,,,,,,,,,,,,,,,,,,,,,,,,,,,,,,,,,,,,,,,,,,,,,,,,,,,,,,,,,,,,,,,,,,,,,,,,,,,,,,,,,,,,,,,,,,,,,,,,,,,,,,,,,,,,,,,,,,,,,,,,,,,,,,,
1763974507.791167,30260.0,0.0,4449.230957,4447.307617,4605.256348,4657.820313,4468.974121,4562.94873,4615.512695,4485.0,4691.538574,4490.512695,4578.717773,4572.820313,4628.333496,4458.205078,4447.692383,4560.641113,4608.589844,4592.692383,4566.025879,4465.384766,4462.820313,4620.256348,4567.05127,4555.128418,4497.436035,4641.666504,4460.0,4622.692383,4558.846191,4472.563965,4620.769043,4584.358887,3019.0,1.0,18.0,2576.0,31636.0,,,,0.0,4.0,4.0,4.0,4.0,4.0,4.0,4.0,4.0,4.0,4.0,4.0,4.0,4.0,4.0,4.0,4.0,4.0,4.0,4.0,4.0,4.0,4.0,4.0,4.0,4.0,4.0,4.0,4.0,4.0,4.0,4.0,4.0,100.0,,,,,,,,,,,,,,,,,,,,,,,,,,,,,,,,,,,,,,,,,,,,,,,,,,,,,,,,,,,,,,,,,,,,,,,,,,,,,,,,,,,,,,,,,,,,,,,,,,,,,,,,,,,,,,,,,,,,,,,,,,,,,,,,,,,,,,,,,,,,,,,,,,,,,,,,,,,,,,,,,,,,,,,,,,,,,,,,,,,,,,,,,,,,,,,,,,,,,,,,,,,,,,
1763974507.795072,30261.0,0.0,4442.179688,4437.179688,4595.256348,4651.666504,4465.512695,4556.025879,4606.666504,4476.410156,4682.820313,4471.922852,4573.077148,4565.128418,4618.717773,4453.205078,4443.717773,4550.512695,4598.077148,4585.384766,4560.384766,4460.384766,4458.589844,4614.102539,4556.153809,4552.436035,4490.641113,4634.230957,4443.717773,4613.974121,4550.128418,4460.897461,4604.871582,4573.461426,2924.0,1.0,18.0,2576.0,31636.0,,,,0.0,4.0,4.0,4.0,4.0,4.0,4.0,4.0,4.0,4.0,4.0,4.0,4.0,4.0,4.0,4.0,4.0,4.0,4.0,4.0,4.0,4.0,4.0,4.0,4.0,4.0,4.0,4.0,4.0,4.0,4.0,4.0,4.0,100.0,,,,,,,,,,,,,,,,,,,,,,,,,,,,,,,,,,,40333.0,0.0,0.619726,0.309143,0.298706,0.656616,1.005494,-0.054206,0.013185,27.666666,-29.0,-21.666666,,,,,,,,,,,,,,,,,,,,,,,,,,,,,,,,,,,,,,,,,,,,,,,,,,,,,,,,,,,,,,,,,,,,,,,,,,,,,,,,,,,,,,,,,,,,,,,,,,,,,,,,,,,,,,,,,,,,,,,,,,,,,,,,,,,,,,,,,,,,,,,,,,,,,,,,,,,,,,,,
1763974507.798978,30262.0,0.0,4431.794922,4423.077148,4580.384766,4637.820313,4454.487305,4546.794922,4592.179688,4456.922852,4669.230957,4465.256348,4559.615234,4553.717773,4605.512695,4447.179688,4436.282227,4540.897461,4585.512695,4574.871582,4550.897461,4447.307617,4446.538574,4607.94873,4543.974121,4553.333496,4483.589844,4624.230957,4427.820313,4601.538574,4538.589844,4446.794922,4586.922852,4559.871582,2997.0,1.0,18.0,2576.0,31644.0,,,,0.0,4.0,4.0,4.0,4.0,4.0,4.0,4.0,4.0,4.0,4.0,4.0,4.0,4.0,4.0,4.0,4.0,4.0,4.0,4.0,4.0,4.0,4.0,4.0,4.0,4.0,4.0,4.0,4.0,4.0,4.0,4.0,4.0,100.0,,,,,,,,,,,,,,,,,,,,,,,,,,,,,,,,,,,,,,,,,,,,,,,,,,,,,,,,,,,,,,,,,,,,,,,,,,,,,,,,,,,,,,,,,,,,,,,,,,,,,,,,,,,,,,,,,,,,,,,,,,,,,,,,,,,,,,,,,,,,,,,,,,,,,,,,,,,,,,,,,,,,,,,,,,,,,,,,,,,,,,,,,,,,,,,,,,,,,,,,,,,,,,
1763974507.802884,30263.0,0.0,4420.897461,4410.256348,4566.794922,4622.436035,4440.512695,4539.487305,4578.589844,4435.0,4656.025879,4470.0,4545.128418,4543.333496,4594.230957,4445.512695,4427.94873,4536.282227,4576.025879,4565.0,4540.641113,4431.153809,4431.153809,4602.05127,4535.641113,4552.179688,4473.589844,4612.563965,4420.897461,4590.769043,4528.717773,4435.897461,4574.358887,4548.333496,2933.0,1.0,18.0,2576.0,31644.0,,,,0.0,4.0,4.0,4.0,4.0,4.0,4.0,4.0,4.0,4.0,4.0,4.0,4.0,4.0,4.0,4.0,4.0,4.0,4.0,4.0,4.0,4.0,4.0,4.0,4.0,4.0,4.0,4.0,4.0,4.0,4.0,4.0,4.0,100.0,,,,,,,,,,,,,,,,,,,,,,,,,,,,,,,,,,,,,,,,,,,,,,,,,,,,,,,,,,,,,,,,,,,,,,,,,,,,,,,,,,,,,,,,,,,,,,,,,,,,,,,,,,,,,,,,,,,,,,,,,,,,,,,,,,,,,,,,,,,,,,,,,,,,,,,,,,,,,,,,,,,,,,,,,,,,,,,,,,,,,,,,,,,,,,,,,,,,,,,,,,,,,,
1763974507.80679,30264.0,0.0,4414.615234,4404.102539,4561.025879,4614.102539,4431.282227,4538.205078,4573.077148,4422.436035,4649.743652,4479.615234,4536.538574,4539.358887,4590.256348,4450.256348,4422.563965,4538.589844,4573.846191,4560.769043,4534.358887,4420.641113,4420.512695,4597.692383,4535.384766,4547.05127,4458.461426,4602.436035,4427.179688,4588.205078,4525.512695,4434.102539,4573.077148,4544.487305,2890.0,1.0,18.0,2574.0,31651.0,,,,0.0,4.0,4.0,4.0,4.0,4.0,4.0,4.0,4.0,4.0,4.0,4.0,4.0,4.0,4.0,4.0,4.0,4.0,4.0,4.0,4.0,4.0,4.0,4.0,4.0,4.0,4.0,4.0,4.0,4.0,4.0,4.0,4.0,100.0,,,,,,,,,,,,,,,,,,,,,,,,,,,,,,,,,,,,,,,,,,,,,,,,,,,,,,,,,,,,,,,,,,,,,,,,,,,,,,,,,,,,,,,,,,,,,,,,,,,,,,,,,,,,,,,,,,,,,,,,,,,,,,,,,,,,,,,,,,,,,,,,,,,,,,,,,,,,,,,,,,,,,,,,,,,,,,,,,,,,,,,,,,,,,,,,,,,,,,,,,,,,,,
1763974507.810695,30265.0,0.0,4416.922852,4407.436035,4565.897461,4618.205078,4432.307617,4544.487305,4578.589844,4426.410156,4653.974121,4486.922852,4537.307617,4545.0,4595.512695,4459.102539,4422.179688,4546.538574,4579.743652,4564.358887,4535.128418,4422.94873,4420.897461,4597.05127,4543.717773,4542.05127,4441.025879,4598.461426,4444.871582,4597.05127,4532.05127,4443.589844,4583.333496,4550.769043,2840.0,1.0,18.0,2574.0,31651.0,,,,0.0,4.0,4.0,4.0,4.0,4.0,4.0,4.0,4.0,4.0,4.0,4.0,4.0,4.0,4.0,4.0,4.0,4.0,4.0,4.0,4.0,4.0,4.0,4.0,4.0,4.0,4.0,4.0,4.0,4.0,4.0,4.0,4.0,100.0,,,,,,,,,,,,,,,,,,,,,,,,,,,,,,,,,,,40334.0,0.0,0.619776,0.30896,0.298523,0.656738,1.012331,-0.053717,0.006348,27.666666,-25.0,-24.166666,,,,,,,,,,,,,,,,,,,,,,,,,,,,,,,,,,,,,,,,,,,,,,,,,,,,,,,,,,,,,,,,,,,,,,,,,,,,,,,,,,,,,,,,,,,,,,,,,,,,,,,,,,,,,,,,,,,,,,,,,,,,,,,,,,,,,,,,,,,,,,,,,,,,,,,,,,,,,,,,
1763974507.814601,30266.0,0.0,4428.077148,4419.230957,4579.615234,4633.333496,4443.974121,4556.282227,4593.077148,4445.769043,4666.666504,4488.205078,4545.897461,4558.589844,4608.077148,4466.282227,4426.282227,4555.897461,4591.282227,4574.230957,4543.077148,4437.94873,4432.563965,4601.666504,4557.307617,4543.461426,4429.487305,4604.230957,4466.538574,4614.102539,4547.307617,4461.794922,4600.769043,4565.384766,2775.0,1.0,18.0,2574.0,31659.0,,,,0.0,4.0,4.0,4.0,4.0,4.0,4.0,4.0,4.0,4.0,4.0,4.0,4.0,4.0,4.0,4.0,4.0,4.0,4.0,4.0,4.0,4.0,4.0,4.0,4.0,4.0,4.0,4.0,4.0,4.0,4.0,4.0,4.0,100.0,,,,,,,,,,,,,,,,,,,,,,,,,,,,,,,,,,,,,,,,,,,,,,,,,,,,,,,,,,,,,,,,,,,,,,,,,,,,,,,,,,,,,,,,,,,,,,,,,,,,,,,,,,,,,,,,,,,,,,,,,,,,,,,,,,,,,,,,,,,,,,,,,,,,,,,,,,,,,,,,,,,,,,,,,,,,,,,,,,,,,,,,,,,,,,,,,,,,,,,,,,,,,,
1763974507.818507,30267.0,0.0,4443.461426,4435.128418,4597.179688,4653.205078,4461.282227,4569.102539,4611.153809,4471.282227,4682.436035,4484.615234,4558.974121,4575.256348,4623.589844,4468.205078,4432.436035,4563.589844,4604.358887,4586.666504,4556.410156,4458.846191,4451.282227,4612.05127,4571.794922,4554.487305,4433.333496,4618.846191,4483.589844,4632.05127,4565.641113,4481.922852,4618.846191,4582.820313,3000.0,1.0,18.0,2574.0,31659.0,,,,0.0,4.0,4.0,4.0,4.0,4.0,4.0,4.0,4.0,4.0,4.0,4.0,4.0,4.0,4.0,4.0,4.0,4.0,4.0,4.0,4.0,4.0,4.0,4.0,4.0,4.0,4.0,4.0,4.0,4.0,4.0,4.0,4.0,100.0,,,,,,,,,,,,,,,,,,,,,,,,,,,,,,,,,,,,,,,,,,,,,,,,,,,,,,,,,,,,,,,,,,,,,,,,,,,,,,,,,,,,,,,,,,,,,,,,,,,,,,,,,,,,,,,,,,,,,,,,,,,,,,,,,,,,,,,,,,,,,,,,,,,,,,,,,,,,,,,,,,,,,,,,,,,,,,,,,,,,,,,,,,,,,,,,,,,,,,,,,,,,,,
1763974507.822413,30268.0,0.0,4456.666504,4449.230957,4612.436035,4669.615234,4476.666504,4578.205078,4626.410156,4491.410156,4695.256348,4480.512695,4572.179688,4589.358887,4637.563965,4465.128418,4438.333496,4568.717773,4615.641113,4598.077148,4572.179688,4475.897461,4469.871582,4626.153809,4583.717773,4571.153809,4456.538574,4635.897461,4489.743652,4643.077148,4579.487305,4496.153809,4631.922852,4597.05127,2951.0,1.0,18.0,2574.0,31667.0,,,,0.0,4.0,4.0,4.0,4.0,4.0,4.0,4.0,4.0,4.0,4.0,4.0,4.0,4.0,4.0,4.0,4.0,4.0,4.0,4.0,4.0,4.0,4.0,4.0,4.0,4.0,4.0,4.0,4.0,4.0,4.0,4.0,4.0,100.0,,,,,,,,,,,,,,,,,,,,,,,,,,,,,,,,,,,,,,,,,,,,,,,,,,,,,,,,,,,,,,,,,,,,,,,,,,,,,,,,,,,,,,,,,,,,,,,,,,,,,,,,,,,,,,,,,,,,,,,,,,,,,,,,,,,,,,,,,,,,,,,,,,,,,,,,,,,,,,,,,,,,,,,,,,,,,,,,,,,,,,,,,,,,,,,,,,,,,,,,,,,,,,
1763974507.826319,30269.0,0.0,4462.179688,4456.153809,4620.641113,4676.282227,4483.589844,4580.769043,4633.589844,4496.922852,4701.153809,4481.025879,4580.897461,4596.282227,4646.153809,4460.128418,4443.333496,4571.794922,4622.94873,4605.769043,4586.025879,4482.563965,4481.153809,4638.461426,4590.769043,4583.974121,4491.538574,4647.179688,4484.102539,4642.94873,4582.692383,4498.846191,4636.025879,4603.333496,2801.0,1.0,18.0,2574.0,31667.0,,,,0.0,4.0,4.0,4.0,4.0,4.0,4.0,4.0,4.0,4.0,4.0,4.0,4.0,4.0,4.0,4.0,4.0,4.0,4.0,4.0,4.0,4.0,4.0,4.0,4.0,4.0,4.0,4.0,4.0,4.0,4.0,4.0,4.0,100.0,,,,,,,,,,,,,,,,,,,,,,,,,,,,,,,,,,,40335.0,0.0,0.619771,0.308899,0.298462,0.656799,1.009401,-0.053229,0.012209,27.5,-26.0,-24.333334,,,,,,,,,,,,,,,,,,,,,,,,,,,,,,,,,,,,,,,,,,,,,,,,,,,,,,,,,,,,,,,,,,,,,,,,,,,,,,,,,,,,,,,,,,,,,,,,,,,,,,,,,,,,,,,,,,,,,,,,,,,,,,,,,,,,,,,,,,,,,,,,,,,,,,,,,,,,,,,,
1763974507.830224,30270.0,0.0,4458.205078,4452.436035,4618.589844,4670.512695,4478.974121,4576.282227,4629.743652,4485.384766,4699.230957,4487.563965,4580.0,4593.846191,4646.538574,4456.666504,4446.666504,4572.179688,4624.615234,4606.922852,4592.307617,4477.94873,4481.410156,4642.563965,4590.512695,4584.615234,4520.641113,4648.077148,4470.0,4632.563965,4573.974121,4489.230957,4630.512695,4599.615234,3000.0,1.0,18.0,2575.0,31675.0,,,,0.0,4.0,4.0,4.0,4.0,4.0,4.0,4.0,4.0,4.0,4.0,4.0,4.0,4.0,4.0,4.0,4.0,4.0,4.0,4.0,4.0,4.0,4.0,4.0,4.0,4.0,4.0,4.0,4.0,4.0,4.0,4.0,4.0,100.0,,,,,,,,,,,,,,,,,,,,,,,,,,,,,,,,,,,,,,,,,,,,,,,,,,,,,,,,,,,,,,,,,,,,,,,,,,,,,,,,,,,,,,,,,,,,,,,,,,,,,,,,,,,,,,,,,,,,,,,,,,,,,,,,,,,,,,,,,,,,,,,,,,,,,,,,,,,,,,,,,,,,,,,,,,,,,,,,,,,,,,,,,,,,,,,,,,,,,,,,,,,,,,
1763974507.83413,30271.0,0.0,4446.666504,4439.487305,4607.692383,4655.769043,4465.256348,4566.666504,4616.282227,4463.205078,4691.794922,4497.05127,4568.205078,4582.94873,4637.94873,4456.025879,4447.692383,4568.974121,4619.871582,4601.025879,4587.436035,4465.641113,4472.05127,4635.641113,4582.436035,4572.94873,4528.589844,4640.256348,4453.846191,4616.666504,4557.820313,4472.05127,4617.820313,4587.563965,2930.0,1.0,18.0,2575.0,31675.0,,,,0.0,4.0,4.0,4.0,4.0,4.0,4.0,4.0,4.0,4.0,4.0,4.0,4.0,4.0,4.0,4.0,4.0,4.0,4.0,4.0,4.0,4.0,4.0,4.0,4.0,4.0,4.0,4.0,4.0,4.0,4.0,4.0,4.0,100.0,,,,,,,,,,,,,,,,,,,,,,,,,,,,,,,,,,,,,,,,,,,,,,,,,,,,,,,,,,,,,,,,,,,,,,,,,,,,,,,,,,,,,,,,,,,,,,,,,,,,,,,,,,,,,,,,,,,,,,,,,,,,,,,,,,,,,,,,,,,,,,,,,,,,,,,,,,,,,,,,,,,,,,,,,,,,,,,,,,,,,,,,,,,,,,,,,,,,,,,,,,,,,,
1763974507.838036,30272.0,0.0,4432.94873,4423.846191,4594.230957,4639.743652,4449.743652,4555.897461,4599.743652,4442.436035,4682.692383,4502.692383,4550.0,4568.589844,4624.102539,4457.563965,4446.153809,4562.94873,4610.897461,4590.256348,4573.717773,4452.820313,4459.871582,4622.307617,4570.897461,4558.205078,4515.128418,4630.384766,4442.692383,4602.563965,4542.307617,4456.153809,4604.871582,4573.205078,2838.0,1.0,18.0,2576.0,31683.0,,,,0.0,4.0,4.0,4.0,4.0,4.0,4.0,4.0,4.0,4.0,4.0,4.0,4.0,4.0,4.0,4.0,4.0,4.0,4.0,4.0,4.0,4.0,4.0,4.0,4.0,4.0,4.0,4.0,4.0,4.0,4.0,4.0,4.0,100.0,,,,,,,,,,,,,,,,,,,,,,,,,,,,,,,,,,,,,,,,,,,,,,,,,,,,,,,,,,,,,,,,,,,,,,,,,,,,,,,,,,,,,,,,,,,,,,,,,,,,,,,,,,,,,,,,,,,,,,,,,,,,,,,,,,,,,,,,,,,,,,,,,,,,,,,,,,,,,,,,,,,,,,,,,,,,,,,,,,,,,,,,,,,,,,,,,,,,,,,,,,,,,,
1763974507.841942,30273.0,0.0,4423.717773,4414.102539,4585.641113,4630.769043,4440.384766,4549.230957,4589.615234,4434.230957,4675.769043,4498.333496,4535.256348,4557.94873,4612.820313,4460.0,4443.461426,4556.410156,4602.179688,4580.128418,4558.077148,4445.256348,4451.282227,4612.692383,4562.563965,4551.922852,4493.717773,4624.871582,4440.897461,4596.666504,4535.128418,4450.384766,4599.230957,4563.717773,2890.0,1.0,18.0,2576.0,31683.0,,,,0.0,4.0,4.0,4.0,4.0,4.0,4.0,4.0,4.0,4.0,4.0,4.0,4.0,4.0,4.0,4.0,4.0,4.0,4.0,4.0,4.0,4.0,4.0,4.0,4.0,4.0,4.0,4.0,4.0,4.0,4.0,4.0,4.0,100.0,,,,,,,,,,,,,,,,,,,,,,,,,,,,,,,,,,,40336.0,0.0,0.619731,0.308838,0.29834,0.656921,0.992309,-0.048346,0.006348,28.333334,-26.333334,-23.5,,,,,,,,,,,,,,,,,,,,,,,,,,,,,,,,,,,,,,,,,,,,,,,,,,,,,,,,,,,,,,,,,,,,,,,,,,,,,,,,,,,,,,,,,,,,,,,,,,,,,,,,,,,,,,,,,,,,,,,,,,,,,,,,,,,,,,,,,,,,,,,,,,,,,,,,,,,,,,,,
1763974507.845847,30274.0,0.0,4422.94873,4415.128418,4586.025879,4632.05127,4441.282227,4549.871582,4592.05127,4440.512695,4672.179688,4482.692383,4532.563965,4555.769043,4611.282227,4461.538574,4441.794922,4552.436035,4598.205078,4575.128418,4547.94873,4445.0,4449.487305,4613.717773,4562.179688,4558.205078,4477.820313,4625.384766,4448.461426,4601.282227,4539.487305,4457.436035,4603.846191,4563.205078,2270.0,1.0,18.0,2576.0,31691.0,,,,0.0,4.0,4.0,4.0,4.0,4.0,4.0,4.0,4.0,4.0,4.0,4.0,4.0,4.0,4.0,4.0,4.0,4.0,4.0,4.0,4.0,4.0,4.0,4.0,4.0,4.0,4.0,4.0,4.0,4.0,4.0,4.0,4.0,100.0,,,,,,,,,,,,,,,,,,,,,,,,,,,,,,,,,,,,,,,,,,,,,,,,,,,,,,,,,,,,,,,,,,,,,,,,,,,,,,,,,,,,,,,,,,,,,,,,,,,,,,,,,,,,,,,,,,,,,,,,,,,,,,,,,,,,,,,,,,,,,,,,,,,,,,,,,,,,,,,,,,,,,,,,,,,,,,,,,,,,,,,,,,,,,,,,,,,,,,,,,,,,,,
1763974507.849753,30275.0,0.0,4428.974121,4424.102539,4592.692383,4638.846191,4449.871582,4555.641113,4604.358887,4453.589844,4671.153809,4462.820313,4541.922852,4561.153809,4619.358887,4460.769043,4442.05127,4552.436035,4599.487305,4576.410156,4546.794922,4448.717773,4451.922852,4623.077148,4567.820313,4570.256348,4470.384766,4627.94873,4460.384766,4611.666504,4551.025879,4471.282227,4613.846191,4569.487305,2953.0,1.0,18.0,2576.0,31691.0,,,,0.0,4.0,4.0,4.0,4.0,4.0,4.0,4.0,4.0,4.0,4.0,4.0,4.0,4.0,4.0,4.0,4.0,4.0,4.0,4.0,4.0,4.0,4.0,4.0,4.0,4.0,4.0,4.0,4.0,4.0,4.0,4.0,4.0,100.0,,,,,,,,,,,,,,,,,,,,,,,,,,,,,,,,,,,,,,,,,,,,,,,,,,,,,,,,,,,,,,,,,,,,,,,,,,,,,,,,,,,,,,,,,,,,,,,,,,,,,,,,,,,,,,,,,,,,,,,,,,,,,,,,,,,,,,,,,,,,,,,,,,,,,,,,,,,,,,,,,,,,,,,,,,,,,,,,,,,,,,,,,,,,,,,,,,,,,,,,,,,,,,
1763974507.853659,30276.0,0.0,4435.512695,4432.820313,4600.0,4643.717773,4459.358887,4561.282227,4616.666504,4461.794922,4671.282227,4452.436035,4554.743652,4568.205078,4630.128418,4457.307617,4443.205078,4555.512695,4602.436035,4581.282227,4553.333496,4451.025879,4453.589844,4630.897461,4572.692383,4576.794922,4465.512695,4627.05127,4468.461426,4619.102539,4560.897461,4482.179688,4620.897461,4576.410156,2865.0,1.0,18.0,2576.0,31698.0,,,,0.0,4.0,4.0,4.0,4.0,4.0,4.0,4.0,4.0,4.0,4.0,4.0,4.0,4.0,4.0,4.0,4.0,4.0,4.0,4.0,4.0,4.0,4.0,4.0,4.0,4.0,4.0,4.0,4.0,4.0,4.0,4.0,4.0,100.0,,,,,,,,,,,,,,,,,,,,,,,,,,,,,,,,,,,,,,,,,,,,,,,,,,,,,,,,,,,,,,,,,,,,,,,,,,,,,,,,,,,,,,,,,,,,,,,,,,,,,,,,,,,,,,,,,,,,,,,,,,,,,,,,,,,,,,,,,,,,,,,,,,,,,,,,,,,,,,,,,,,,,,,,,,,,,,,,,,,,,,,,,,,,,,,,,,,,,,,,,,,,,,
1763974507.857565,30277.0,0.0,4437.436035,4434.743652,4603.589844,4642.563965,4463.846191,4561.410156,4619.487305,4460.0,4671.794922,4461.666504,4560.512695,4570.769043,4635.256348,4453.077148,4443.589844,4559.615234,4602.94873,4586.153809,4562.94873,4449.102539,4451.794922,4629.102539,4570.641113,4572.436035,4459.615234,4621.410156,4467.05127,4617.563965,4561.666504,4483.333496,4619.230957,4578.717773,2449.0,1.0,18.0,2576.0,31698.0,,,,0.0,4.0,4.0,4.0,4.0,4.0,4.0,4.0,4.0,4.0,4.0,4.0,4.0,4.0,4.0,4.0,4.0,4.0,4.0,4.0,4.0,4.0,4.0,4.0,4.0,4.0,4.0,4.0,4.0,4.0,4.0,4.0,4.0,100.0,,,,,,,,,,,,,,,,,,,,,,,,,,,,,,,,,,,40337.0,0.0,0.619696,0.308838,0.298279,0.656982,0.992309,-0.048346,0.006348,27.333334,-25.833334,-23.666666,,,,,,,,,,,,,,,,,,,,,,,,,,,,,,,,,,,,,,,,,,,,,,,,,,,,,,,,,,,,,,,,,,,,,,,,,,,,,,,,,,,,,,,,,,,,,,,,,,,,,,,,,,,,,,,,,,,,,,,,,,,,,,,,,,,,,,,,,,,,,,,,,,,,,,,,,,,,,,,,
1763974507.861471,30278.0,0.0,4433.974121,4430.128418,4603.461426,4637.563965,4461.922852,4556.410156,4612.05127,4452.563965,4672.692383,4486.282227,4556.410156,4567.692383,4632.436035,4451.410156,4443.205078,4563.077148,4600.512695,4588.589844,4571.025879,4444.358887,4447.179688,4618.717773,4561.922852,4561.794922,4456.666504,4614.743652,4456.794922,4608.205078,4553.589844,4475.512695,4610.512695,4575.512695,2969.0,1.0,18.0,2576.0,31706.0,,,,0.0,4.0,4.0,4.0,4.0,4.0,4.0,4.0,4.0,4.0,4.0,4.0,4.0,4.0,4.0,4.0,4.0,4.0,4.0,4.0,4.0,4.0,4.0,4.0,4.0,4.0,4.0,4.0,4.0,4.0,4.0,4.0,4.0,100.0,,,,,,,,,,,,,,,,,,,,,,,,,,,,,,,,,,,,,,,,,,,,,,,,,,,,,,,,,,,,,,,,,,,,,,,,,,,,,,,,,,,,,,,,,,,,,,,,,,,,,,,,,,,,,,,,,,,,,,,,,,,,,,,,,,,,,,,,,,,,,,,,,,,,,,,,,,,,,,,,,,,,,,,,,,,,,,,,,,,,,,,,,,,,,,,,,,,,,,,,,,,,,,
1763974507.865376,30279.0,0.0,4428.461426,4424.230957,4601.538574,4634.487305,4456.794922,4550.897461,4601.410156,4447.94873,4672.563965,4505.641113,4548.461426,4562.307617,4625.512695,4454.230957,4442.94873,4565.128418,4597.05127,4588.333496,4573.974121,4440.641113,4443.205078,4607.820313,4552.692383,4554.230957,4462.94873,4612.05127,4444.230957,4597.94873,4543.077148,4465.128418,4600.897461,4570.0,2957.0,1.0,18.0,2576.0,31706.0,,,,0.0,4.0,4.0,4.0,4.0,4.0,4.0,4.0,4.0,4.0,4.0,4.0,4.0,4.0,4.0,4.0,4.0,4.0,4.0,4.0,4.0,4.0,4.0,4.0,4.0,4.0,4.0,4.0,4.0,4.0,4.0,4.0,4.0,100.0,,,,,,,,,,,,,,,,,,,,,,,,,,,,,,,,,,,,,,,,,,,,,,,,,,,,,,,,,,,,,,,,,,,,,,,,,,,,,,,,,,,,,,,,,,,,,,,,,,,,,,,,,,,,,,,,,,,,,,,,,,,,,,,,,,,,,,,,,,,,,,,,,,,,,,,,,,,,,,,,,,,,,,,,,,,,,,,,,,,,,,,,,,,,,,,,,,,,,,,,,,,,,,
1763974507.869282,30280.0,0.0,4424.615234,4422.436035,4599.487305,4635.897461,4453.205078,4549.487305,4596.153809,4450.769043,4669.743652,4498.717773,4545.256348,4558.846191,4619.743652,4459.743652,4443.846191,4565.256348,4594.487305,4585.641113,4570.897461,4440.641113,4441.922852,4604.102539,4548.846191,4554.615234,4478.461426,4615.384766,4436.538574,4593.846191,4537.436035,4457.820313,4595.897461,4566.025879,2676.0,1.0,18.0,2576.0,31714.0,,,,0.0,4.0,4.0,4.0,4.0,4.0,4.0,4.0,4.0,4.0,4.0,4.0,4.0,4.0,4.0,4.0,4.0,4.0,4.0,4.0,4.0,4.0,4.0,4.0,4.0,4.0,4.0,4.0,4.0,4.0,4.0,4.0,4.0,100.0,,,,,,,,,,,,,,,,,,,,,,,,,,,,,,,,,,,,,,,,,,,,,,,,,,,,,,,,,,,,,,,,,,,,,,,,,,,,,,,,,,,,,,,,,,,,,,,,,,,,,,,,,,,,,,,,,,,,,,,,,,,,,,,,,,,,,,,,,,,,,,,,,,,,,,,,,,,,,,,,,,,,,,,,,,,,,,,,,,,,,,,,,,,,,,,,,,,,,,,,,,,,,,
1763974507.873188,30281.0,0.0,4424.102539,4425.512695,4597.692383,4640.0,4453.333496,4552.563965,4598.846191,4457.692383,4663.461426,4465.384766,4549.230957,4558.077148,4616.666504,4463.974121,4445.0,4562.820313,4592.692383,4580.897461,4563.717773,4443.461426,4442.307617,4607.307617,4551.025879,4559.743652,4493.846191,4622.436035,4436.922852,4597.436035,4538.846191,4455.384766,4596.666504,4565.384766,2834.0,1.0,18.0,2576.0,31714.0,,,,0.0,4.0,4.0,4.0,4.0,4.0,4.0,4.0,4.0,4.0,4.0,4.0,4.0,4.0,4.0,4.0,4.0,4.0,4.0,4.0,4.0,4.0,4.0,4.0,4.0,4.0,4.0,4.0,4.0,4.0,4.0,4.0,4.0,100.0,,,,,,,,,,,,,,,,,,,,,,,,,,,,,,,,,,,40338.0,0.0,0.619806,0.308594,0.298035,0.657104,0.998169,-0.047857,0.003907,27.166666,-25.666666,-23.5,,,,,,,,,,,,,,,,,,,,,,,,,,,,,,,,,,,,,,,,,,,,,,,,,,,,,,,,,,,,,,,,,,,,,,,,,,,,,,,,,,,,,,,,,,,,,,,,,,,,,,,,,,,,,,,,,,,,,,,,,,,,,,,,,,,,,,,,,,,,,,,,,,,,,,,,,,,,,,,,
1763974507.877094,30282.0,0.0,4425.641113,4430.512695,4595.512695,4642.05127,4455.769043,4556.410156,4604.358887,4461.666504,4656.410156,4430.897461,4555.0,4557.436035,4614.102539,4463.846191,4444.743652,4557.820313,4589.743652,4575.0,4555.769043,4446.410156,4441.794922,4610.897461,4554.743652,4562.307617,4497.05127,4628.589844,4443.717773,4604.871582,4543.974121,4455.769043,4600.512695,4567.692383,2664.0,1.0,18.0,2576.0,31722.0,,,,0.0,4.0,4.0,4.0,4.0,4.0,4.0,4.0,4.0,4.0,4.0,4.0,4.0,4.0,4.0,4.0,4.0,4.0,4.0,4.0,4.0,4.0,4.0,4.0,4.0,4.0,4.0,4.0,4.0,4.0,4.0,4.0,4.0,100.0,,,,,,,,,,,,,,,,,,,,,,,,,,,,,,,,,,,,,,,,,,,,,,,,,,,,,,,,,,,,,,,,,,,,,,,,,,,,,,,,,,,,,,,,,,,,,,,,,,,,,,,,,,,,,,,,,,,,,,,,,,,,,,,,,,,,,,,,,,,,,,,,,,,,,,,,,,,,,,,,,,,,,,,,,,,,,,,,,,,,,,,,,,,,,,,,,,,,,,,,,,,,,,
1763974507.880999,30283.0,0.0,4426.794922,4433.846191,4592.94873,4639.615234,4457.563965,4557.436035,4605.897461,4458.077148,4652.820313,4425.769043,4555.769043,4554.358887,4609.615234,4460.0,4442.179688,4552.05127,4585.384766,4569.487305,4550.384766,4448.077148,4440.0,4608.717773,4554.743652,4558.077148,4483.846191,4630.512695,4451.666504,4610.128418,4548.077148,4456.410156,4604.102539,4571.538574,2976.0,1.0,18.0,2576.0,31722.0,,,,0.0,4.0,4.0,4.0,4.0,4.0,4.0,4.0,4.0,4.0,4.0,4.0,4.0,4.0,4.0,4.0,4.0,4.0,4.0,4.0,4.0,4.0,4.0,4.0,4.0,4.0,4.0,4.0,4.0,4.0,4.0,4.0,4.0,100.0,,,,,,,,,,,,,,,,,,,,,,,,,,,,,,,,,,,,,,,,,,,,,,,,,,,,,,,,,,,,,,,,,,,,,,,,,,,,,,,,,,,,,,,,,,,,,,,,,,,,,,,,,,,,,,,,,,,,,,,,,,,,,,,,,,,,,,,,,,,,,,,,,,,,,,,,,,,,,,,,,,,,,,,,,,,,,,,,,,,,,,,,,,,,,,,,,,,,,,,,,,,,,,
1763974507.884905,30284.0,0.0,4426.538574,4434.871582,4591.282227,4635.128418,4458.333496,4555.897461,4601.538574,4448.846191,4655.512695,4458.717773,4550.641113,4549.615234,4603.974121,4455.256348,4439.230957,4548.974121,4581.538574,4567.692383,4549.743652,4450.897461,4439.615234,4601.794922,4550.897461,4550.384766,4463.589844,4628.974121,4457.05127,4610.641113,4549.615234,4457.563965,4606.025879,4575.641113,2945.0,1.0,18.0,2576.0,31730.0,,,,0.0,4.0,4.0,4.0,4.0,4.0,4.0,4.0,4.0,4.0,4.0,4.0,4.0,4.0,4.0,4.0,4.0,4.0,4.0,4.0,4.0,4.0,4.0,4.0,4.0,4.0,4.0,4.0,4.0,4.0,4.0,4.0,4.0,100.0,,,,,,,,,,,,,,,,,,,,,,,,,,,,,,,,,,,,,,,,,,,,,,,,,,,,,,,,,,,,,,,,,,,,,,,,,,,,,,,,,,,,,,,,,,,,,,,,,,,,,,,,,,,,,,,,,,,,,,,,,,,,,,,,,,,,,,,,,,,,,,,,,,,,,,,,,,,,,,,,,,,,,,,,,,,,,,,,,,,,,,,,,,,,,,,,,,,,,,,,,,,,,,
1763974507.888811,30285.0,0.0,4427.820313,4436.025879,4593.077148,4633.846191,4460.641113,4555.897461,4596.282227,4441.794922,4663.974121,4507.436035,4546.025879,4548.333496,4601.410156,4452.94873,4439.487305,4552.436035,4582.563965,4573.461426,4555.512695,4458.589844,4445.384766,4598.077148,4549.487305,4548.333496,4452.820313,4628.846191,4460.512695,4609.615234,4551.282227,4462.436035,4608.461426,4580.512695,2773.0,1.0,18.0,2576.0,31730.0,,,,0.0,4.0,4.0,4.0,4.0,4.0,4.0,4.0,4.0,4.0,4.0,4.0,4.0,4.0,4.0,4.0,4.0,4.0,4.0,4.0,4.0,4.0,4.0,4.0,4.0,4.0,4.0,4.0,4.0,4.0,4.0,4.0,4.0,100.0,,,,,,,,,,,,,,,,,,,,,,,,,,,,,,,,,,,40339.0,0.0,0.619826,0.308411,0.297913,0.657227,0.998169,-0.047857,0.003907,26.666666,-25.166666,-23.0,,,,,,,,,,,,,,,,,,,,,,,,,,,,,,,,,,,,,,,,,,,,,,,,,,,,,,,,,,,,,,,,,,,,,,,,,,,,,,,,,,,,,,,,,,,,,,,,,,,,,,,,,,,,,,,,,,,,,,,,,,,,,,,,,,,,,,,,,,,,,,,,,,,,,,,,,,,,,,,,
1763974507.892717,30286.0,0.0,4434.230957,4441.282227,4600.641113,4640.256348,4467.563965,4561.153809,4597.94873,4444.871582,4674.743652,4537.436035,4549.871582,4554.487305,4606.538574,4454.487305,4445.641113,4563.846191,4591.666504,4588.589844,4568.077148,4472.820313,4460.0,4606.922852,4557.94873,4560.0,4463.589844,4635.641113,4465.769043,4613.589844,4557.436035,4473.077148,4615.512695,4587.94873,2736.0,1.0,18.0,2575.0,31737.0,,,,0.0,4.0,4.0,4.0,4.0,4.0,4.0,4.0,4.0,4.0,4.0,4.0,4.0,4.0,4.0,4.0,4.0,4.0,4.0,4.0,4.0,4.0,4.0,4.0,4.0,4.0,4.0,4.0,4.0,4.0,4.0,4.0,4.0,100.0,,,,,,,,,,,,,,,,,,,,,,,,,,,,,,,,,,,,,,,,,,,,,,,2.574776,1.750376,1.795591,3.045427,1.332805,2.232504,0.735652,2.186738,3.256975,1.236433,1.642026,0.911818,2.194362,3.502456,1.321537,0.825644,1.485267,1.439232,3.038724,1.381241,1.031879,0.600455,1.243025,2.109222,0.935183,0.749694,0.52644,1.571618,1.806774,0.769161,1.205628,1.657681,2.494256,3.255405,1.20751,1.606324,2.029331,2.206375,3.063261,1.152797,0.815611,1.396154,1.206726,2.28938,1.098779,1.528743,2.707734,2.472276,8.157271,5.148611,2.623614,2.129444,2.097571,2.70909,1.024551,2.300207,1.734965,1.658119,2.686329,1.011335,1.987705,1.99022,1.768266,2.667944,1.148466,0.683719,0.721602,1.170154,1.555644,0.71893,0.954917,1.27777,1.121203,1.685521,0.86144,0.998669,1.373102,1.222971,3.283015,0.827492,1.601708,1.18109,1.431329,2.687974,1.036115,1.620226,2.003829,1.617847,4.427169,1.551264,1.380081,2.609746,1.829262,4.179358,3.258587,1.274439,1.712409,1.83785,4.414115,1.721287,1.428927,1.859427,1.499194,4.365791,1.744757,1.917302,2.159701,1.831396,3.838136,1.804761,1.86394,1.277511,1.852332,3.258364,1.267529,1.117521,1.301677,2.365702,3.471823,1.384298,2.217587,2.015833,2.158903,7.355047,3.948434,1.639135,1.5889,2.187603,3.050482,2.388334,1.045161,0.631991,4.91361,6.322445,2.409422,0.933515,1.205383,1.956501,3.966858,1.700661,0.843924,1.208447,2.484547,3.648212,1.340577,2.814269,0.813135,3.18494,3.746665,1.340384,1.154942,0.758822,1.793412,3.935991,1.636276,1.438859,0.783773,2.079692,3.142866,1.521695
1763974507.896622,30287.0,0.0,4446.666504,4450.897461,4612.307617,4653.333496,4478.333496,4571.025879,4609.487305,4458.974121,4683.717773,4530.512695,4564.487305,4567.563965,4619.743652,4459.102539,4457.820313,4580.384766,4608.077148,4609.743652,4584.871582,4489.743652,4480.0,4629.358887,4576.666504,4584.487305,4494.358887,4650.128418,4474.487305,4625.641113,4569.230957,4487.05127,4628.077148,4597.820313,2865.0,1.0,18.0,2575.0,31737.0,,,,0.0,4.0,4.0,4.0,4.0,4.0,4.0,4.0,4.0,4.0,4.0,4.0,4.0,4.0,4.0,4.0,4.0,4.0,4.0,4.0,4.0,4.0,4.0,4.0,4.0,4.0,4.0,4.0,4.0,4.0,4.0,4.0,4.0,100.0,,,,,,,,,,,,,,,,,,,,,,,,,,,,,,,,,,,,,,,,,,,,,,,,,,,,,,,,,,,,,,,,,,,,,,,,,,,,,,,,,,,,,,,,,,,,,,,,,,,,,,,,,,,,,,,,,,,,,,,,,,,,,,,,,,,,,,,,,,,,,,,,,,,,,,,,,,,,,,,,,,,,,,,,,,,,,,,,,,,,,,,,,,,,,,,,,,,,,,,,,,,,,,
1763974507.900528,30288.0,0.0,4459.615234,4460.128418,4622.05127,4666.153809,4487.307617,4579.615234,4625.128418,4475.512695,4687.307617,4498.589844,4582.563965,4581.153809,4634.871582,4463.846191,4471.025879,4594.102539,4624.743652,4628.077148,4598.589844,4501.538574,4496.666504,4655.641113,4596.666504,4609.358887,4531.410156,4666.025879,4483.205078,4640.897461,4581.282227,4497.436035,4641.282227,4606.794922,2956.0,1.0,18.0,2576.0,31745.0,,,,0.0,4.0,4.0,4.0,4.0,4.0,4.0,4.0,4.0,4.0,4.0,4.0,4.0,4.0,4.0,4.0,4.0,4.0,4.0,4.0,4.0,4.0,4.0,4.0,4.0,4.0,4.0,4.0,4.0,4.0,4.0,4.0,4.0,100.0,,,,,,,,,,,,,,,,,,,,,,,,,,,,,,,,,,,,,,,,,,,,,,,,,,,,,,,,,,,,,,,,,,,,,,,,,,,,,,,,,,,,,,,,,,,,,,,,,,,,,,,,,,,,,,,,,,,,,,,,,,,,,,,,,,,,,,,,,,,,,,,,,,,,,,,,,,,,,,,,,,,,,,,,,,,,,,,,,,,,,,,,,,,,,,,,,,,,,,,,,,,,,,
1763974507.904434,30289.0,0.0,4464.230957,4462.05127,4623.077148,4669.743652,4487.179688,4580.384766,4634.358887,4482.563965,4683.717773,4470.256348,4592.307617,4586.410156,4642.820313,4465.0,4478.461426,4596.922852,4632.692383,4633.589844,4601.410156,4501.538574,4500.512695,4669.615234,4604.743652,4618.974121,4554.743652,4674.102539,4485.641113,4650.0,4585.769043,4497.179688,4646.794922,4609.358887,3056.0,1.0,18.0,2576.0,31745.0,,,,0.0,4.0,4.0,4.0,4.0,4.0,4.0,4.0,4.0,4.0,4.0,4.0,4.0,4.0,4.0,4.0,4.0,4.0,4.0,4.0,4.0,4.0,4.0,4.0,4.0,4.0,4.0,4.0,4.0,4.0,4.0,4.0,4.0,100.0,,,,,,,,,,,,,,,,,,,,,,,,,,,,,,,,,,,40340.0,0.0,0.619935,0.308167,0.297668,0.657349,0.98889,-0.065926,0.001953,26.833334,-27.0,-23.333334,,,,,,,,,,,,,,,,,,,,,,,,,,,,,,,,,,,,,,,,,,,,,,,,,,,,,,,,,,,,,,,,,,,,,,,,,,,,,,,,,,,,,,,,,,,,,,,,,,,,,,,,,,,,,,,,,,,,,,,,,,,,,,,,,,,,,,,,,,,,,,,,,,,,,,,,,,,,,,,,
1763974507.90834,30290.0,0.0,4455.769043,4453.589844,4612.94873,4660.128418,4476.538574,4571.922852,4630.128418,4474.487305,4674.102539,4465.641113,4586.666504,4579.487305,4638.077148,4461.025879,4474.871582,4586.410156,4626.794922,4622.820313,4590.641113,4488.974121,4488.205078,4661.666504,4594.230957,4605.769043,4550.384766,4668.461426,4478.589844,4646.538574,4578.333496,4485.641113,4639.487305,4602.436035,2828.0,1.0,18.0,2575.0,31753.0,,,,0.0,4.0,4.0,4.0,4.0,4.0,4.0,4.0,4.0,4.0,4.0,4.0,4.0,4.0,4.0,4.0,4.0,4.0,4.0,4.0,4.0,4.0,4.0,4.0,4.0,4.0,4.0,4.0,4.0,4.0,4.0,4.0,4.0,100.0,,,,,,,,,,,,,,,,,,,,,,,,,,,,,,,,,,,,,,,,,,,,,,,,,,,,,,,,,,,,,,,,,,,,,,,,,,,,,,,,,,,,,,,,,,,,,,,,,,,,,,,,,,,,,,,,,,,,,,,,,,,,,,,,,,,,,,,,,,,,,,,,,,,,,,,,,,,,,,,,,,,,,,,,,,,,,,,,,,,,,,,,,,,,,,,,,,,,,,,,,,,,,,
1763974507.912246,30291.0,0.0,4438.589844,4438.846191,4596.410156,4642.179688,4460.769043,4559.102539,4615.384766,4457.692383,4662.179688,4479.615234,4570.128418,4565.0,4624.487305,4453.717773,4462.05127,4567.820313,4610.897461,4602.436035,4573.205078,4470.512695,4466.153809,4636.922852,4571.666504,4577.692383,4519.102539,4651.666504,4465.769043,4633.589844,4563.333496,4469.871582,4622.692383,4588.333496,3025.0,1.0,18.0,2575.0,31753.0,,,,0.0,4.0,4.0,4.0,4.0,4.0,4.0,4.0,4.0,4.0,4.0,4.0,4.0,4.0,4.0,4.0,4.0,4.0,4.0,4.0,4.0,4.0,4.0,4.0,4.0,4.0,4.0,4.0,4.0,4.0,4.0,4.0,4.0,100.0,,,,,,,,,,,,,,,,,,,,,,,,,,,,,,,,,,,,,,,,,,,,,,,,,,,,,,,,,,,,,,,,,,,,,,,,,,,,,,,,,,,,,,,,,,,,,,,,,,,,,,,,,,,,,,,,,,,,,,,,,,,,,,,,,,,,,,,,,,,,,,,,,,,,,,,,,,,,,,,,,,,,,,,,,,,,,,,,,,,,,,,,,,,,,,,,,,,,,,,,,,,,,,
1763974507.916151,30292.0,0.0,4423.974121,4426.794922,4582.05127,4626.410156,4449.743652,4550.384766,4601.153809,4444.871582,4652.820313,4491.025879,4556.025879,4552.436035,4612.307617,4447.05127,4447.820313,4551.794922,4595.384766,4584.743652,4560.128418,4455.641113,4446.025879,4612.307617,4552.436035,4552.692383,4478.589844,4632.820313,4455.769043,4620.897461,4550.128418,4459.871582,4606.282227,4574.358887,2997.0,1.0,18.0,2570.0,31761.0,,,,0.0,4.0,4.0,4.0,4.0,4.0,4.0,4.0,4.0,4.0,4.0,4.0,4.0,4.0,4.0,4.0,4.0,4.0,4.0,4.0,4.0,4.0,4.0,4.0,4.0,4.0,4.0,4.0,4.0,4.0,4.0,4.0,4.0,100.0,,,,,,,,,,,,,,,,,,,,,,,,,,,,,,,,,,,,,,,,,,,,,,,,,,,,,,,,,,,,,,,,,,,,,,,,,,,,,,,,,,,,,,,,,,,,,,,,,,,,,,,,,,,,,,,,,,,,,,,,,,,,,,,,,,,,,,,,,,,,,,,,,,,,,,,,,,,,,,,,,,,,,,,,,,,,,,,,,,,,,,,,,,,,,,,,,,,,,,,,,,,,,,
1763974507.920057,30293.0,0.0,4421.410156,4424.743652,4576.282227,4620.769043,4449.230957,4550.641113,4598.077148,4444.230957,4648.589844,4484.487305,4556.025879,4550.0,4610.384766,4444.230957,4440.641113,4546.666504,4590.0,4579.487305,4559.615234,4450.641113,4437.436035,4604.230957,4548.974121,4545.384766,4451.666504,4621.410156,4454.230957,4617.179688,4546.282227,4461.538574,4599.487305,4567.436035,2930.0,1.0,18.0,2570.0,31761.0,,,,0.0,4.0,4.0,4.0,4.0,4.0,4.0,4.0,4.0,4.0,4.0,4.0,4.0,4.0,4.0,4.0,4.0,4.0,4.0,4.0,4.0,4.0,4.0,4.0,4.0,4.0,4.0,4.0,4.0,4.0,4.0,4.0,4.0,100.0,,,,,,,,,,,,,,,,,,,,,,,,,,,,,,,,,,,40341.0,0.0,0.620025,0.308044,0.297607,0.657349,1.005005,-0.062996,0.020022,27.5,-27.666666,-23.0,,,,,,,,,,,,,,,,,,,,,,,,,,,,,,,,,,,,,,,,,,,,,,,,,,,,,,,,,,,,,,,,,,,,,,,,,,,,,,,,,,,,,,,,,,,,,,,,,,,,,,,,,,,,,,,,,,,,,,,,,,,,,,,,,,,,,,,,,,,,,,,,,,,,,,,,,,,,,,,,
1763974507.923963,30294.0,0.0,4431.410156,4432.436035,4579.615234,4625.384766,4457.94873,4557.436035,4607.436035,4453.717773,4650.384766,4466.153809,4570.641113,4557.307617,4619.358887,4446.282227,4443.974121,4553.461426,4596.538574,4587.436035,4570.128418,4455.0,4441.666504,4615.384766,4561.153809,4556.666504,4450.128418,4621.538574,4460.128418,4623.077148,4552.179688,4471.666504,4604.102539,4570.0,2998.0,1.0,18.0,2568.0,31769.0,,,,0.0,4.0,4.0,4.0,4.0,4.0,4.0,4.0,4.0,4.0,4.0,4.0,4.0,4.0,4.0,4.0,4.0,4.0,4.0,4.0,4.0,4.0,4.0,4.0,4.0,4.0,4.0,4.0,4.0,4.0,4.0,4.0,4.0,100.0,,,,,,,,,,,,,,,,,,,,,,,,,,,,,,,,,,,,,,,,,,,,,,,,,,,,,,,,,,,,,,,,,,,,,,,,,,,,,,,,,,,,,,,,,,,,,,,,,,,,,,,,,,,,,,,,,,,,,,,,,,,,,,,,,,,,,,,,,,,,,,,,,,,,,,,,,,,,,,,,,,,,,,,,,,,,,,,,,,,,,,,,,,,,,,,,,,,,,,,,,,,,,,
1763974507.927869,30295.0,0.0,4445.256348,4442.94873,4587.563965,4634.358887,4467.94873,4563.717773,4620.0,4464.102539,4656.025879,4456.025879,4588.974121,4566.922852,4631.794922,4451.666504,4453.846191,4567.05127,4608.461426,4601.025879,4583.077148,4462.436035,4452.94873,4633.974121,4577.820313,4574.358887,4469.230957,4629.230957,4466.538574,4631.282227,4561.153809,4481.282227,4614.230957,4577.94873,2937.0,1.0,18.0,2568.0,31769.0,,,,0.0,4.0,4.0,4.0,4.0,4.0,4.0,4.0,4.0,4.0,4.0,4.0,4.0,4.0,4.0,4.0,4.0,4.0,4.0,4.0,4.0,4.0,4.0,4.0,4.0,4.0,4.0,4.0,4.0,4.0,4.0,4.0,4.0,100.0,,,,,,,,,,,,,,,,,,,,,,,,,,,,,,,,,,,,,,,,,,,,,,,,,,,,,,,,,,,,,,,,,,,,,,,,,,,,,,,,,,,,,,,,,,,,,,,,,,,,,,,,,,,,,,,,,,,,,,,,,,,,,,,,,,,,,,,,,,,,,,,,,,,,,,,,,,,,,,,,,,,,,,,,,,,,,,,,,,,,,,,,,,,,,,,,,,,,,,,,,,,,,,
1763974507.931774,30296.0,0.0,4452.436035,4448.205078,4593.461426,4640.512695,4471.153809,4564.358887,4624.743652,4467.820313,4662.307617,4466.153809,4597.179688,4570.512695,4638.717773,4457.563965,4463.205078,4580.0,4616.666504,4611.794922,4589.615234,4467.307617,4463.717773,4644.615234,4586.153809,4584.358887,4493.333496,4636.666504,4466.410156,4633.205078,4565.256348,4482.692383,4621.538574,4584.358887,2909.0,1.0,18.0,2565.0,31776.0,,,,0.0,4.0,4.0,4.0,4.0,4.0,4.0,4.0,4.0,4.0,4.0,4.0,4.0,4.0,4.0,4.0,4.0,4.0,4.0,4.0,4.0,4.0,4.0,4.0,4.0,4.0,4.0,4.0,4.0,4.0,4.0,4.0,4.0,100.0,,,,,,,,,,,,,,,,,,,,,,,,,,,,,,,,,,,,,,,,,,,,,,,,,,,,,,,,,,,,,,,,,,,,,,,,,,,,,,,,,,,,,,,,,,,,,,,,,,,,,,,,,,,,,,,,,,,,,,,,,,,,,,,,,,,,,,,,,,,,,,,,,,,,,,,,,,,,,,,,,,,,,,,,,,,,,,,,,,,,,,,,,,,,,,,,,,,,,,,,,,,,,,
1763974507.93568,30297.0,0.0,4448.205078,4444.487305,4593.077148,4640.512695,4465.512695,4558.717773,4617.179688,4463.846191,4665.512695,4487.307617,4588.333496,4564.871582,4636.410156,4461.922852,4467.436035,4587.436035,4615.641113,4614.743652,4587.436035,4467.692383,4469.230957,4640.769043,4580.897461,4580.128418,4507.563965,4637.692383,4457.94873,4625.512695,4561.538574,4474.743652,4620.769043,4583.205078,2850.0,1.0,18.0,2565.0,31776.0,,,,0.0,4.0,4.0,4.0,4.0,4.0,4.0,4.0,4.0,4.0,4.0,4.0,4.0,4.0,4.0,4.0,4.0,4.0,4.0,4.0,4.0,4.0,4.0,4.0,4.0,4.0,4.0,4.0,4.0,4.0,4.0,4.0,4.0,100.0,,,,,,,,,,,,,,,,,,,,,,,,,,,,,,,,,,,40342.0,0.0,0.620025,0.308044,0.297607,0.657349,1.002075,-0.054206,0.008302,27.666666,-26.166666,-21.166666,,,,,,,,,,,,,,,,,,,,,,,,,,,,,,,,,,,,,,,,,,,,,,,,,,,,,,,,,,,,,,,,,,,,,,,,,,,,,,,,,,,,,,,,,,,,,,,,,,,,,,,,,,,,,,,,,,,,,,,,,,,,,,,,,,,,,,,,,,,,,,,,,,,,,,,,,,,,,,,,
1763974507.939586,30298.0,0.0,4435.641113,4433.974121,4585.512695,4635.256348,4455.0,4550.512695,4601.794922,4456.922852,4664.358887,4499.102539,4566.410156,4553.333496,4627.307617,4462.692383,4466.794922,4587.820313,4606.538574,4610.0,4579.358887,4465.256348,4468.333496,4626.794922,4566.922852,4565.641113,4505.0,4631.922852,4445.641113,4612.436035,4552.563965,4462.436035,4612.436035,4574.230957,2792.0,1.0,18.0,2563.0,31784.0,,,,0.0,4.0,4.0,4.0,4.0,4.0,4.0,4.0,4.0,4.0,4.0,4.0,4.0,4.0,4.0,4.0,4.0,4.0,4.0,4.0,4.0,4.0,4.0,4.0,4.0,4.0,4.0,4.0,4.0,4.0,4.0,4.0,4.0,100.0,,,,,,,,,,,,,,,,,,,,,,,,,,,,,,,,,,,,,,,,,,,,,,,,,,,,,,,,,,,,,,,,,,,,,,,,,,,,,,,,,,,,,,,,,,,,,,,,,,,,,,,,,,,,,,,,,,,,,,,,,,,,,,,,,,,,,,,,,,,,,,,,,,,,,,,,,,,,,,,,,,,,,,,,,,,,,,,,,,,,,,,,,,,,,,,,,,,,,,,,,,,,,,
1763974507.943492,30299.0,0.0,4422.179688,4422.05127,4574.358887,4628.077148,4446.025879,4543.717773,4586.666504,4451.282227,4660.641113,4490.256348,4542.436035,4542.179688,4615.897461,4458.974121,4463.205078,4582.307617,4594.358887,4601.282227,4570.0,4461.922852,4462.307617,4611.922852,4552.820313,4550.641113,4489.615234,4624.102539,4436.282227,4601.153809,4542.820313,4452.692383,4601.153809,4561.794922,3016.0,1.0,18.0,2563.0,31784.0,,,,0.0,4.0,4.0,4.0,4.0,4.0,4.0,4.0,4.0,4.0,4.0,4.0,4.0,4.0,4.0,4.0,4.0,4.0,4.0,4.0,4.0,4.0,4.0,4.0,4.0,4.0,4.0,4.0,4.0,4.0,4.0,4.0,4.0,100.0,,,,,,,,,,,,,,,,,,,,,,,,,,,,,,,,,,,,,,,,,,,,,,,,,,,,,,,,,,,,,,,,,,,,,,,,,,,,,,,,,,,,,,,,,,,,,,,,,,,,,,,,,,,,,,,,,,,,,,,,,,,,,,,,,,,,,,,,,,,,,,,,,,,,,,,,,,,,,,,,,,,,,,,,,,,,,,,,,,,,,,,,,,,,,,,,,,,,,,,,,,,,,,
1763974507.947398,30300.0,0.0,4414.102539,4414.102539,4565.128418,4622.05127,4443.333496,4540.256348,4578.333496,4448.077148,4657.563965,4469.230957,4526.922852,4536.282227,4606.410156,4451.794922,4458.333496,4573.846191,4584.358887,4592.563965,4561.922852,4458.589844,4453.846191,4603.333496,4545.0,4542.820313,4472.94873,4619.615234,4434.358887,4596.410156,4535.769043,4449.615234,4592.94873,4552.307617,2950.0,1.0,18.0,2564.0,31792.0,,,,0.0,4.0,4.0,4.0,4.0,4.0,4.0,4.0,4.0,4.0,4.0,4.0,4.0,4.0,4.0,4.0,4.0,4.0,4.0,4.0,4.0,4.0,4.0,4.0,4.0,4.0,4.0,4.0,4.0,4.0,4.0,4.0,4.0,100.0,,,,,,,,,,,,,,,,,,,,,,,,,,,,,,,,,,,,,,,,,,,,,,,,,,,,,,,,,,,,,,,,,,,,,,,,,,,,,,,,,,,,,,,,,,,,,,,,,,,,,,,,,,,,,,,,,,,,,,,,,,,,,,,,,,,,,,,,,,,,,,,,,,,,,,,,,,,,,,,,,,,,,,,,,,,,,,,,,,,,,,,,,,,,,,,,,,,,,,,,,,,,,,
1763974507.951303,30301.0,0.0,4413.717773,4413.205078,4562.563965,4619.615234,4447.563965,4540.512695,4578.461426,4447.307617,4657.563965,4455.897461,4525.256348,4536.794922,4601.666504,4443.846191,4452.820313,4566.410156,4580.128418,4587.307617,4556.410156,4456.025879,4446.538574,4602.436035,4545.0,4544.615234,4466.153809,4621.025879,4439.358887,4598.589844,4533.461426,4453.589844,4591.538574,4549.871582,2820.0,1.0,18.0,2564.0,31792.0,,,,0.0,4.0,4.0,4.0,4.0,4.0,4.0,4.0,4.0,4.0,4.0,4.0,4.0,4.0,4.0,4.0,4.0,4.0,4.0,4.0,4.0,4.0,4.0,4.0,4.0,4.0,4.0,4.0,4.0,4.0,4.0,4.0,4.0,100.0,,,,,,,,,,,,,,,,,,,,,,,,,,,,,,,,,,,40343.0,0.0,0.619971,0.308167,0.297729,0.657288,1.005005,-0.052741,0.002442,27.333334,-27.333334,-23.666666,,,,,,,,,,,,,,,,,,,,,,,,,,,,,,,,,,,,,,,,,,,,,,,,,,,,,,,,,,,,,,,,,,,,,,,,,,,,,,,,,,,,,,,,,,,,,,,,,,,,,,,,,,,,,,,,,,,,,,,,,,,,,,,,,,,,,,,,,,,,,,,,,,,,,,,,,,,,,,,,
1763974507.955209,30302.0,0.0,4419.615234,4418.717773,4568.205078,4621.794922,4455.769043,4543.461426,4585.0,4449.230957,4661.153809,4463.077148,4535.0,4542.563965,4602.179688,4439.358887,4448.974121,4564.102539,4581.922852,4587.179688,4555.0,4455.641113,4443.589844,4606.922852,4550.512695,4552.820313,4472.05127,4626.538574,4448.205078,4605.128418,4536.794922,4461.666504,4597.307617,4554.743652,3017.0,1.0,18.0,2565.0,31800.0,,,,0.0,4.0,4.0,4.0,4.0,4.0,4.0,4.0,4.0,4.0,4.0,4.0,4.0,4.0,4.0,4.0,4.0,4.0,4.0,4.0,4.0,4.0,4.0,4.0,4.0,4.0,4.0,4.0,4.0,4.0,4.0,4.0,4.0,100.0,,,,,,,,,,,,,,,,,,,,,,,,,,,,,,,,,,,,,,,,,,,,,,,,,,,,,,,,,,,,,,,,,,,,,,,,,,,,,,,,,,,,,,,,,,,,,,,,,,,,,,,,,,,,,,,,,,,,,,,,,,,,,,,,,,,,,,,,,,,,,,,,,,,,,,,,,,,,,,,,,,,,,,,,,,,,,,,,,,,,,,,,,,,,,,,,,,,,,,,,,,,,,,
1763974507.959115,30303.0,0.0,4428.077148,4427.692383,4579.487305,4627.692383,4464.358887,4548.205078,4593.205078,4453.589844,4665.0,4487.179688,4548.846191,4551.153809,4606.538574,4441.153809,4449.102539,4568.461426,4587.820313,4591.922852,4558.974121,4458.077148,4446.025879,4612.436035,4557.94873,4562.307617,4483.205078,4632.436035,4456.922852,4613.077148,4545.0,4470.256348,4607.05127,4563.333496,2940.0,1.0,18.0,2565.0,31800.0,,,,0.0,4.0,4.0,4.0,4.0,4.0,4.0,4.0,4.0,4.0,4.0,4.0,4.0,4.0,4.0,4.0,4.0,4.0,4.0,4.0,4.0,4.0,4.0,4.0,4.0,4.0,4.0,4.0,4.0,4.0,4.0,4.0,4.0,100.0,,,,,,,,,,,,,,,,,,,,,,,,,,,,,,,,,,,,,,,,,,,,,,,,,,,,,,,,,,,,,,,,,,,,,,,,,,,,,,,,,,,,,,,,,,,,,,,,,,,,,,,,,,,,,,,,,,,,,,,,,,,,,,,,,,,,,,,,,,,,,,,,,,,,,,,,,,,,,,,,,,,,,,,,,,,,,,,,,,,,,,,,,,,,,,,,,,,,,,,,,,,,,,
1763974507.963021,30304.0,0.0,4435.0,4436.282227,4591.282227,4634.743652,4470.0,4553.333496,4598.846191,4458.077148,4665.512695,4512.94873,4558.717773,4559.102539,4611.922852,4449.230957,4453.846191,4576.410156,4594.358887,4598.589844,4566.794922,4461.153809,4451.794922,4615.897461,4564.230957,4569.230957,4489.871582,4635.384766,4462.820313,4620.0,4554.743652,4476.282227,4615.769043,4571.153809,2850.0,1.0,18.0,2566.0,31808.0,,,,0.0,4.0,4.0,4.0,4.0,4.0,4.0,4.0,4.0,4.0,4.0,4.0,4.0,4.0,4.0,4.0,4.0,4.0,4.0,4.0,4.0,4.0,4.0,4.0,4.0,4.0,4.0,4.0,4.0,4.0,4.0,4.0,4.0,100.0,,,,,,,,,,,,,,,,,,,,,,,,,,,,,,,,,,,,,,,,,,,,,,,,,,,,,,,,,,,,,,,,,,,,,,,,,,,,,,,,,,,,,,,,,,,,,,,,,,,,,,,,,,,,,,,,,,,,,,,,,,,,,,,,,,,,,,,,,,,,,,,,,,,,,,,,,,,,,,,,,,,,,,,,,,,,,,,,,,,,,,,,,,,,,,,,,,,,,,,,,,,,,,
1763974507.966926,30305.0,0.0,4437.820313,4441.666504,4598.717773,4639.230957,4471.282227,4556.794922,4599.102539,4459.102539,4660.384766,4525.769043,4559.358887,4562.94873,4614.487305,4458.974121,4459.487305,4581.794922,4598.077148,4602.436035,4573.974121,4461.538574,4456.922852,4616.282227,4567.692383,4572.692383,4489.230957,4635.128418,4464.230957,4623.974121,4561.282227,4477.94873,4619.358887,4575.512695,2914.0,1.0,18.0,2566.0,31808.0,,,,0.0,4.0,4.0,4.0,4.0,4.0,4.0,4.0,4.0,4.0,4.0,4.0,4.0,4.0,4.0,4.0,4.0,4.0,4.0,4.0,4.0,4.0,4.0,4.0,4.0,4.0,4.0,4.0,4.0,4.0,4.0,4.0,4.0,100.0,,,,,,,,,,,,,,,,,,,,,,,,,,,,,,,,,,,40344.0,0.0,0.62,0.308167,0.297668,0.657288,1.001587,-0.055671,0.024417,26.166666,-26.166666,-23.666666,,,,,,,,,,,,,,,,,,,,,,,,,,,,,,,,,,,,,,,,,,,,,,,,,,,,,,,,,,,,,,,,,,,,,,,,,,,,,,,,,,,,,,,,,,,,,,,,,,,,,,,,,,,,,,,,,,,,,,,,,,,,,,,,,,,,,,,,,,,,,,,,,,,,,,,,,,,,,,,,
1763974507.970832,30306.0,0.0,4436.538574,4442.820313,4599.615234,4638.974121,4468.974121,4557.307617,4594.358887,4454.230957,4652.436035,4521.666504,4552.05127,4561.410156,4613.077148,4464.871582,4460.256348,4579.871582,4597.563965,4600.384766,4575.384766,4458.077148,4458.589844,4615.0,4567.692383,4574.358887,4486.410156,4633.589844,4460.256348,4623.589844,4560.897461,4475.384766,4616.922852,4576.282227,2289.0,1.0,18.0,2567.0,31816.0,,,,0.0,4.0,4.0,4.0,4.0,4.0,4.0,4.0,4.0,4.0,4.0,4.0,4.0,4.0,4.0,4.0,4.0,4.0,4.0,4.0,4.0,4.0,4.0,4.0,4.0,4.0,4.0,4.0,4.0,4.0,4.0,4.0,4.0,100.0,,,,,,,,,,,,,,,,,,,,,,,,,,,,,,,,,,,,,,,,,,,,,,,,,,,,,,,,,,,,,,,,,,,,,,,,,,,,,,,,,,,,,,,,,,,,,,,,,,,,,,,,,,,,,,,,,,,,,,,,,,,,,,,,,,,,,,,,,,,,,,,,,,,,,,,,,,,,,,,,,,,,,,,,,,,,,,,,,,,,,,,,,,,,,,,,,,,,,,,,,,,,,,
1763974507.974738,30307.0,0.0,4434.487305,4442.307617,4596.922852,4636.410156,4466.410156,4555.897461,4589.102539,4446.410156,4647.563965,4506.794922,4544.871582,4557.94873,4610.384766,4463.717773,4454.358887,4571.410156,4594.871582,4593.974121,4571.025879,4454.358887,4457.307617,4614.487305,4565.897461,4576.282227,4488.461426,4633.846191,4453.846191,4620.256348,4555.512695,4471.794922,4611.922852,4576.666504,2976.0,1.0,18.0,2567.0,31816.0,,,,0.0,4.0,4.0,4.0,4.0,4.0,4.0,4.0,4.0,4.0,4.0,4.0,4.0,4.0,4.0,4.0,4.0,4.0,4.0,4.0,4.0,4.0,4.0,4.0,4.0,4.0,4.0,4.0,4.0,4.0,4.0,4.0,4.0,100.0,,,,,,,,,,,,,,,,,,,,,,,,,,,,,,,,,,,,,,,,,,,,,,,,,,,,,,,,,,,,,,,,,,,,,,,,,,,,,,,,,,,,,,,,,,,,,,,,,,,,,,,,,,,,,,,,,,,,,,,,,,,,,,,,,,,,,,,,,,,,,,,,,,,,,,,,,,,,,,,,,,,,,,,,,,,,,,,,,,,,,,,,,,,,,,,,,,,,,,,,,,,,,,
1763974507.978644,30308.0,0.0,4436.666504,4444.487305,4597.307617,4637.179688,4468.846191,4556.538574,4590.641113,4444.102539,4651.282227,4490.641113,4547.05127,4558.846191,4612.436035,4458.333496,4446.794922,4563.461426,4595.0,4589.743652,4566.922852,4456.410156,4457.05127,4618.077148,4566.794922,4579.615234,4496.025879,4638.461426,4450.897461,4619.487305,4552.179688,4473.461426,4610.512695,4581.282227,2888.0,1.0,18.0,2568.0,31823.0,,,,0.0,4.0,4.0,4.0,4.0,4.0,4.0,4.0,4.0,4.0,4.0,4.0,4.0,4.0,4.0,4.0,4.0,4.0,4.0,4.0,4.0,4.0,4.0,4.0,4.0,4.0,4.0,4.0,4.0,4.0,4.0,4.0,4.0,100.0,,,,,,,,,,,,,,,,,,,,,,,,,,,,,,,,,,,,,,,,,,,,,,,,,,,,,,,,,,,,,,,,,,,,,,,,,,,,,,,,,,,,,,,,,,,,,,,,,,,,,,,,,,,,,,,,,,,,,,,,,,,,,,,,,,,,,,,,,,,,,,,,,,,,,,,,,,,,,,,,,,,,,,,,,,,,,,,,,,,,,,,,,,,,,,,,,,,,,,,,,,,,,,
1763974507.982549,30309.0,0.0,4446.282227,4452.436035,4606.666504,4646.282227,4479.102539,4562.05127,4602.94873,4455.256348,4663.717773,4480.128418,4562.307617,4568.589844,4623.461426,4455.769043,4446.025879,4563.461426,4602.307617,4593.974121,4570.384766,4467.436035,4461.794922,4627.436035,4574.358887,4584.871582,4502.820313,4647.307617,4457.94873,4627.179688,4558.077148,4484.230957,4617.820313,4592.307617,2468.0,1.0,18.0,2568.0,31823.0,,,,0.0,4.0,4.0,4.0,4.0,4.0,4.0,4.0,4.0,4.0,4.0,4.0,4.0,4.0,4.0,4.0,4.0,4.0,4.0,4.0,4.0,4.0,4.0,4.0,4.0,4.0,4.0,4.0,4.0,4.0,4.0,4.0,4.0,100.0,,,,,,,,,,,,,,,,,,,,,,,,,,,,,,,,,,,40345.0,0.0,0.62008,0.307922,0.297485,0.65741,0.993285,-0.058601,-0.003907,26.666666,-26.0,-23.833334,,,,,,,,,,,,,,,,,,,,,,,,,,,,,,,,,,,,,,,,,,,,,,,,,,,,,,,,,,,,,,,,,,,,,,,,,,,,,,,,,,,,,,,,,,,,,,,,,,,,,,,,,,,,,,,,,,,,,,,,,,,,,,,,,,,,,,,,,,,,,,,,,,,,,,,,,,,,,,,,
1763974507.986455,30310.0,0.0,4461.153809,4464.615234,4623.717773,4662.436035,4494.230957,4571.410156,4622.563965,4478.717773,4678.589844,4477.820313,4584.230957,4584.871582,4641.153809,4461.666504,4455.512695,4572.94873,4616.025879,4606.666504,4582.820313,4483.846191,4471.410156,4640.512695,4587.692383,4590.769043,4503.077148,4656.538574,4474.487305,4643.205078,4573.461426,4501.282227,4633.077148,4606.666504,2988.0,1.0,18.0,2569.0,31831.0,,,,0.0,4.0,4.0,4.0,4.0,4.0,4.0,4.0,4.0,4.0,4.0,4.0,4.0,4.0,4.0,4.0,4.0,4.0,4.0,4.0,4.0,4.0,4.0,4.0,4.0,4.0,4.0,4.0,4.0,4.0,4.0,4.0,4.0,100.0,,,,,,,,,,,,,,,,,,,,,,,,,,,,,,,,,,,,,,,,,,,,,,,,,,,,,,,,,,,,,,,,,,,,,,,,,,,,,,,,,,,,,,,,,,,,,,,,,,,,,,,,,,,,,,,,,,,,,,,,,,,,,,,,,,,,,,,,,,,,,,,,,,,,,,,,,,,,,,,,,,,,,,,,,,,,,,,,,,,,,,,,,,,,,,,,,,,,,,,,,,,,,,
1763974507.990361,30311.0,0.0,4473.205078,4473.717773,4638.589844,4676.282227,4505.128418,4578.974121,4638.333496,4501.282227,4685.512695,4481.794922,4599.743652,4598.461426,4656.153809,4474.230957,4469.615234,4585.384766,4628.717773,4619.871582,4596.410156,4496.025879,4481.153809,4650.769043,4599.871582,4592.94873,4497.692383,4659.743652,4490.897461,4658.461426,4588.717773,4515.0,4646.922852,4616.025879,2976.0,1.0,18.0,2569.0,31831.0,,,,0.0,4.0,4.0,4.0,4.0,4.0,4.0,4.0,4.0,4.0,4.0,4.0,4.0,4.0,4.0,4.0,4.0,4.0,4.0,4.0,4.0,4.0,4.0,4.0,4.0,4.0,4.0,4.0,4.0,4.0,4.0,4.0,4.0,100.0,,,,,,,,,,,,,,,,,,,,,,,,,,,,,,,,,,,,,,,,,,,,,,,,,,,,,,,,,,,,,,,,,,,,,,,,,,,,,,,,,,,,,,,,,,,,,,,,,,,,,,,,,,,,,,,,,,,,,,,,,,,,,,,,,,,,,,,,,,,,,,,,,,,,,,,,,,,,,,,,,,,,,,,,,,,,,,,,,,,,,,,,,,,,,,,,,,,,,,,,,,,,,,
1763974507.994267,30312.0,0.0,4472.563965,4471.666504,4639.102539,4676.282227,4503.333496,4578.077148,4638.974121,4505.769043,4678.333496,4486.922852,4597.94873,4599.743652,4658.333496,4483.846191,4476.538574,4589.871582,4631.025879,4622.820313,4600.0,4494.743652,4484.102539,4650.128418,4600.641113,4585.641113,4493.589844,4653.589844,4493.717773,4660.384766,4590.897461,4514.743652,4647.94873,4612.692383,2697.0,1.0,18.0,2570.0,31839.0,,,,0.0,4.0,4.0,4.0,4.0,4.0,4.0,4.0,4.0,4.0,4.0,4.0,4.0,4.0,4.0,4.0,4.0,4.0,4.0,4.0,4.0,4.0,4.0,4.0,4.0,4.0,4.0,4.0,4.0,4.0,4.0,4.0,4.0,100.0,,,,,,,,,,,,,,,,,,,,,,,,,,,,,,,,,,,,,,,,,,,,,,,,,,,,,,,,,,,,,,,,,,,,,,,,,,,,,,,,,,,,,,,,,,,,,,,,,,,,,,,,,,,,,,,,,,,,,,,,,,,,,,,,,,,,,,,,,,,,,,,,,,,,,,,,,,,,,,,,,,,,,,,,,,,,,,,,,,,,,,,,,,,,,,,,,,,,,,,,,,,,,,
1763974507.998173,30313.0,0.0,4456.153809,4456.666504,4621.153809,4658.461426,4487.05127,4566.410156,4621.666504,4484.871582,4659.230957,4488.333496,4578.717773,4585.512695,4644.743652,4481.538574,4468.974121,4580.256348,4618.846191,4611.153809,4588.589844,4478.974121,4476.666504,4635.641113,4585.641113,4567.179688,4494.743652,4640.512695,4476.794922,4643.717773,4573.974121,4497.820313,4631.538574,4596.282227,2857.0,1.0,18.0,2570.0,31839.0,,,,0.0,4.0,4.0,4.0,4.0,4.0,4.0,4.0,4.0,4.0,4.0,4.0,4.0,4.0,4.0,4.0,4.0,4.0,4.0,4.0,4.0,4.0,4.0,4.0,4.0,4.0,4.0,4.0,4.0,4.0,4.0,4.0,4.0,100.0,,,,,,,,,,,,,,,,,,,,,,,,,,,,,,,,,,,40346.0,0.0,0.62017,0.3078,0.297424,0.65741,0.995727,-0.064461,-0.002442,27.333334,-27.333334,-22.5,,,,,,,,,,,,,,,,,,,,,,,,,,,,,,,,,,,,,,,,,,,,,,,,,,,,,,,,,,,,,,,,,,,,,,,,,,,,,,,,,,,,,,,,,,,,,,,,,,,,,,,,,,,,,,,,,,,,,,,,,,,,,,,,,,,,,,,,,,,,,,,,,,,,,,,,,,,,,,,,
1763974508.002078,30314.0,0.0,4432.179688,4436.153809,4593.974121,4631.794922,4464.871582,4549.743652,4595.384766,4449.230957,4639.102539,4485.128418,4553.589844,4563.974121,4623.461426,4466.922852,4450.512695,4561.794922,4598.333496,4591.538574,4568.077148,4458.589844,4462.563965,4613.589844,4561.666504,4545.128418,4497.94873,4628.333496,4449.102539,4616.538574,4546.794922,4472.94873,4606.666504,4575.512695,2689.0,1.0,18.0,2570.0,31847.0,,,,0.0,4.0,4.0,4.0,4.0,4.0,4.0,4.0,4.0,4.0,4.0,4.0,4.0,4.0,4.0,4.0,4.0,4.0,4.0,4.0,4.0,4.0,4.0,4.0,4.0,4.0,4.0,4.0,4.0,4.0,4.0,4.0,4.0,100.0,,,,,,,,,,,,,,,,,,,,,,,,,,,,,,,,,,,,,,,,,,,,,,,,,,,,,,,,,,,,,,,,,,,,,,,,,,,,,,,,,,,,,,,,,,,,,,,,,,,,,,,,,,,,,,,,,,,,,,,,,,,,,,,,,,,,,,,,,,,,,,,,,,,,,,,,,,,,,,,,,,,,,,,,,,,,,,,,,,,,,,,,,,,,,,,,,,,,,,,,,,,,,,
1763974508.005984,30315.0,0.0,4415.512695,4423.461426,4574.358887,4613.589844,4450.512695,4538.205078,4575.641113,4421.922852,4630.641113,4482.307617,4539.102539,4549.102539,4608.333496,4450.128418,4434.230957,4547.05127,4582.692383,4577.94873,4552.179688,4447.692383,4451.410156,4597.563965,4543.717773,4533.846191,4497.436035,4624.487305,4430.256348,4595.641113,4527.436035,4455.641113,4590.128418,4563.205078,2991.0,1.0,18.0,2570.0,31847.0,,,,0.0,4.0,4.0,4.0,4.0,4.0,4.0,4.0,4.0,4.0,4.0,4.0,4.0,4.0,4.0,4.0,4.0,4.0,4.0,4.0,4.0,4.0,4.0,4.0,4.0,4.0,4.0,4.0,4.0,4.0,4.0,4.0,4.0,100.0,,,,,,,,,,,,,,,,,,,,,,,,,,,,,,,,,,,,,,,,,,,,,,,,,,,,,,,,,,,,,,,,,,,,,,,,,,,,,,,,,,,,,,,,,,,,,,,,,,,,,,,,,,,,,,,,,,,,,,,,,,,,,,,,,,,,,,,,,,,,,,,,,,,,,,,,,,,,,,,,,,,,,,,,,,,,,,,,,,,,,,,,,,,,,,,,,,,,,,,,,,,,,,
1763974508.00989,30316.0,0.0,4417.94873,4427.692383,4575.128418,4616.538574,4453.846191,4539.487305,4574.615234,4421.666504,4639.743652,4486.666504,4544.487305,4551.666504,4609.358887,4442.820313,4432.179688,4547.563965,4583.205078,4580.256348,4552.307617,4454.615234,4451.922852,4599.487305,4544.743652,4544.102539,4492.436035,4631.410156,4435.0,4594.871582,4530.256348,4457.307617,4593.846191,4567.05127,2967.0,1.0,18.0,2571.0,31855.0,,,,0.0,4.0,4.0,4.0,4.0,4.0,4.0,4.0,4.0,4.0,4.0,4.0,4.0,4.0,4.0,4.0,4.0,4.0,4.0,4.0,4.0,4.0,4.0,4.0,4.0,4.0,4.0,4.0,4.0,4.0,4.0,4.0,4.0,100.0,,,,,,,,,,,,,,,,,,,,,,,,,,,,,,,,,,,,,,,,,,,,,,,,,,,,,,,,,,,,,,,,,,,,,,,,,,,,,,,,,,,,,,,,,,,,,,,,,,,,,,,,,,,,,,,,,,,,,,,,,,,,,,,,,,,,,,,,,,,,,,,,,,,,,,,,,,,,,,,,,,,,,,,,,,,,,,,,,,,,,,,,,,,,,,,,,,,,,,,,,,,,,,
1763974508.013796,30317.0,0.0,4438.205078,4446.153809,4595.641113,4639.487305,4473.077148,4552.94873,4591.538574,4448.205078,4661.922852,4501.410156,4565.897461,4570.128418,4625.0,4449.230957,4445.641113,4563.333496,4600.256348,4597.05127,4568.205078,4474.743652,4464.230957,4619.230957,4564.743652,4573.077148,4488.589844,4644.615234,4462.05127,4614.743652,4554.487305,4476.282227,4615.641113,4584.487305,2775.0,1.0,18.0,2571.0,31855.0,,,,0.0,4.0,4.0,4.0,4.0,4.0,4.0,4.0,4.0,4.0,4.0,4.0,4.0,4.0,4.0,4.0,4.0,4.0,4.0,4.0,4.0,4.0,4.0,4.0,4.0,4.0,4.0,4.0,4.0,4.0,4.0,4.0,4.0,100.0,,,,,,,,,,,,,,,,,,,,,,,,,,,,,,,,,,,40347.0,0.0,0.62008,0.307922,0.297485,0.65741,0.995727,-0.064461,-0.002442,28.333334,-26.833334,-23.0,,,,,,,,,,,,,,,,,,,,,,,,,,,,,,,,,,,,,,,,,,,,,,,,,,,,,,,,,,,,,,,,,,,,,,,,,,,,,,,,,,,,,,,,,,,,,,,,,,,,,,,,,,,,,,,,,,,,,,,,,,,,,,,,,,,,,,,,,,,,,,,,,,,,,,,,,,,,,,,,
1763974508.017701,30318.0,0.0,4462.692383,4466.282227,4622.820313,4667.94873,4496.025879,4569.230957,4614.230957,4483.333496,4683.974121,4520.769043,4588.974121,4591.538574,4643.205078,4462.820313,4464.358887,4583.205078,4622.563965,4616.025879,4587.94873,4494.230957,4479.358887,4643.205078,4590.128418,4603.846191,4492.05127,4656.282227,4493.846191,4642.307617,4583.846191,4499.487305,4640.512695,4604.615234,2755.0,1.0,18.0,2572.0,31862.0,,,,0.0,4.0,4.0,4.0,4.0,4.0,4.0,4.0,4.0,4.0,4.0,4.0,4.0,4.0,4.0,4.0,4.0,4.0,4.0,4.0,4.0,4.0,4.0,4.0,4.0,4.0,4.0,4.0,4.0,4.0,4.0,4.0,4.0,100.0,,,,,,,,,,,,,,,,,,,,,,,,,,,,,,,,,,,,,,,,,,,,,,,2.564897,2.466614,1.756228,3.123656,1.091703,2.286529,0.946343,1.838712,3.410067,1.007749,2.012102,1.117819,1.648118,3.332116,1.045713,1.079133,1.439525,1.169542,2.982287,1.104261,1.324304,0.716382,1.045862,2.219172,0.766561,0.842866,0.654358,1.368357,1.818246,0.628934,1.349487,1.96663,2.12056,3.299595,0.961393,1.708503,2.144607,1.998573,3.249999,1.053958,0.770553,1.039021,0.851077,2.151708,0.859218,2.107695,3.339716,2.501102,7.945623,4.1299,3.277831,2.164443,1.865235,2.587069,0.835258,2.346373,1.970373,1.250924,2.615664,0.801426,2.056129,2.02247,1.416382,2.656819,0.961171,0.806803,0.80985,1.10845,1.526906,0.638318,1.075152,1.352969,0.936745,1.730013,0.74219,0.849843,1.347751,0.866486,3.11153,0.71845,1.410372,1.390154,1.250632,2.656626,0.848254,1.322276,1.749458,1.17295,4.212727,1.256794,1.109558,2.519049,1.613733,3.891739,2.742637,1.170693,1.750278,1.360738,4.236282,1.319955,1.18735,1.970731,1.372722,4.294358,1.383684,1.629433,2.380506,1.521148,3.815485,1.496277,1.606668,1.514176,1.539256,3.266073,1.060496,0.936976,1.561593,2.169634,3.168244,1.148882,2.505164,2.757153,2.043014,6.216687,3.263778,1.79761,1.792786,1.706756,2.843862,2.044447,0.963633,0.939203,4.40051,6.600935,2.271821,1.035796,1.568029,1.700594,4.145922,1.497953,1.030724,1.459929,1.956559,3.784931,1.155571,2.736754,0.818274,2.586315,3.84469,1.129667,1.29434,0.865316,1.424328,3.930829,1.412141,1.769501,1.040764,1.699035,3.139657,1.191273
1763974508.021607,30319.0,0.0,4475.512695,4475.128418,4640.769043,4684.487305,4508.205078,4578.077148,4628.461426,4504.743652,4693.717773,4532.820313,4600.256348,4601.538574,4651.153809,4472.692383,4474.487305,4593.846191,4635.512695,4624.358887,4596.666504,4500.0,4486.153809,4654.743652,4603.974121,4618.205078,4504.102539,4661.794922,4509.487305,4660.256348,4598.717773,4512.05127,4652.820313,4615.512695,2887.0,1.0,18.0,2572.0,31862.0,,,,0.0,4.0,4.0,4.0,4.0,4.0,4.0,4.0,4.0,4.0,4.0,4.0,4.0,4.0,4.0,4.0,4.0,4.0,4.0,4.0,4.0,4.0,4.0,4.0,4.0,4.0,4.0,4.0,4.0,4.0,4.0,4.0,4.0,100.0,,,,,,,,,,,,,,,,,,,,,,,,,,,,,,,,,,,,,,,,,,,,,,,,,,,,,,,,,,,,,,,,,,,,,,,,,,,,,,,,,,,,,,,,,,,,,,,,,,,,,,,,,,,,,,,,,,,,,,,,,,,,,,,,,,,,,,,,,,,,,,,,,,,,,,,,,,,,,,,,,,,,,,,,,,,,,,,,,,,,,,,,,,,,,,,,,,,,,,,,,,,,,,
1763974508.025513,30320.0,0.0,4469.615234,4468.461426,4640.897461,4681.410156,4503.205078,4575.256348,4628.461426,4502.692383,4687.820313,4529.743652,4595.897461,4595.128418,4644.615234,4472.820313,4470.641113,4590.128418,4631.794922,4617.820313,4589.230957,4489.615234,4480.769043,4647.179688,4598.717773,4609.230957,4521.025879,4661.153809,4499.743652,4658.333496,4590.512695,4507.563965,4646.922852,4612.307617,2973.0,1.0,18.0,2567.0,31870.0,,,,0.0,4.0,4.0,4.0,4.0,4.0,4.0,4.0,4.0,4.0,4.0,4.0,4.0,4.0,4.0,4.0,4.0,4.0,4.0,4.0,4.0,4.0,4.0,4.0,4.0,4.0,4.0,4.0,4.0,4.0,4.0,4.0,4.0,100.0,,,,,,,,,,,,,,,,,,,,,,,,,,,,,,,,,,,,,,,,,,,,,,,,,,,,,,,,,,,,,,,,,,,,,,,,,,,,,,,,,,,,,,,,,,,,,,,,,,,,,,,,,,,,,,,,,,,,,,,,,,,,,,,,,,,,,,,,,,,,,,,,,,,,,,,,,,,,,,,,,,,,,,,,,,,,,,,,,,,,,,,,,,,,,,,,,,,,,,,,,,,,,,
1763974508.029419,30321.0,0.0,4451.153809,4453.077148,4625.897461,4664.102539,4486.282227,4564.487305,4618.205078,4483.333496,4673.205078,4515.128418,4581.794922,4578.717773,4628.974121,4465.384766,4458.974121,4577.436035,4616.153809,4602.692383,4573.461426,4471.794922,4468.589844,4628.589844,4580.769043,4586.282227,4534.615234,4657.436035,4472.436035,4640.128418,4566.282227,4490.512695,4629.358887,4598.589844,3035.0,1.0,18.0,2567.0,31870.0,,,,0.0,4.0,4.0,4.0,4.0,4.0,4.0,4.0,4.0,4.0,4.0,4.0,4.0,4.0,4.0,4.0,4.0,4.0,4.0,4.0,4.0,4.0,4.0,4.0,4.0,4.0,4.0,4.0,4.0,4.0,4.0,4.0,4.0,100.0,,,,,,,,,,,,,,,,,,,,,,,,,,,,,,,,,,,40348.0,0.0,0.62002,0.307983,0.297546,0.65741,0.998169,-0.060066,0.009278,27.5,-28.0,-23.0,,,,,,,,,,,,,,,,,,,,,,,,,,,,,,,,,,,,,,,,,,,,,,,,,,,,,,,,,,,,,,,,,,,,,,,,,,,,,,,,,,,,,,,,,,,,,,,,,,,,,,,,,,,,,,,,,,,,,,,,,,,,,,,,,,,,,,,,,,,,,,,,,,,,,,,,,,,,,,,,
1763974508.033325,30322.0,0.0,4432.307617,4439.487305,4605.769043,4644.871582,4468.846191,4553.461426,4606.410156,4460.512695,4660.384766,4501.025879,4567.179688,4563.077148,4613.846191,4457.05127,4449.487305,4565.128418,4599.230957,4589.487305,4561.794922,4457.820313,4458.589844,4612.820313,4562.820313,4565.641113,4536.153809,4652.692383,4445.384766,4618.333496,4541.794922,4471.153809,4611.794922,4582.820313,2844.0,1.0,18.0,2567.0,31878.0,,,,0.0,4.0,4.0,4.0,4.0,4.0,4.0,4.0,4.0,4.0,4.0,4.0,4.0,4.0,4.0,4.0,4.0,4.0,4.0,4.0,4.0,4.0,4.0,4.0,4.0,4.0,4.0,4.0,4.0,4.0,4.0,4.0,4.0,100.0,,,,,,,,,,,,,,,,,,,,,,,,,,,,,,,,,,,,,,,,,,,,,,,,,,,,,,,,,,,,,,,,,,,,,,,,,,,,,,,,,,,,,,,,,,,,,,,,,,,,,,,,,,,,,,,,,,,,,,,,,,,,,,,,,,,,,,,,,,,,,,,,,,,,,,,,,,,,,,,,,,,,,,,,,,,,,,,,,,,,,,,,,,,,,,,,,,,,,,,,,,,,,,
1763974508.03723,30323.0,0.0,4422.179688,4433.974121,4590.128418,4632.820313,4459.102539,4547.179688,4599.102539,4445.0,4653.846191,4495.0,4557.94873,4555.0,4605.128418,4453.333496,4447.05127,4558.589844,4589.871582,4583.846191,4560.384766,4452.94873,4455.512695,4608.461426,4554.358887,4557.307617,4521.153809,4646.666504,4433.205078,4604.743652,4529.615234,4458.077148,4601.794922,4571.922852,3041.0,1.0,18.0,2567.0,31878.0,,,,0.0,4.0,4.0,4.0,4.0,4.0,4.0,4.0,4.0,4.0,4.0,4.0,4.0,4.0,4.0,4.0,4.0,4.0,4.0,4.0,4.0,4.0,4.0,4.0,4.0,4.0,4.0,4.0,4.0,4.0,4.0,4.0,4.0,100.0,,,,,,,,,,,,,,,,,,,,,,,,,,,,,,,,,,,,,,,,,,,,,,,,,,,,,,,,,,,,,,,,,,,,,,,,,,,,,,,,,,,,,,,,,,,,,,,,,,,,,,,,,,,,,,,,,,,,,,,,,,,,,,,,,,,,,,,,,,,,,,,,,,,,,,,,,,,,,,,,,,,,,,,,,,,,,,,,,,,,,,,,,,,,,,,,,,,,,,,,,,,,,,
1763974508.041136,30324.0,0.0,4421.666504,4435.769043,4582.94873,4629.615234,4458.205078,4546.025879,4597.05127,4439.102539,4651.025879,4494.487305,4553.846191,4553.974121,4603.205078,4455.128418,4448.589844,4558.077148,4589.487305,4584.615234,4565.641113,4454.358887,4457.436035,4613.077148,4555.897461,4559.743652,4494.615234,4638.846191,4438.205078,4603.974121,4532.436035,4454.230957,4599.358887,4567.692383,3004.0,1.0,18.0,2565.0,31886.0,,,,0.0,4.0,4.0,4.0,4.0,4.0,4.0,4.0,4.0,4.0,4.0,4.0,4.0,4.0,4.0,4.0,4.0,4.0,4.0,4.0,4.0,4.0,4.0,4.0,4.0,4.0,4.0,4.0,4.0,4.0,4.0,4.0,4.0,100.0,,,,,,,,,,,,,,,,,,,,,,,,,,,,,,,,,,,,,,,,,,,,,,,,,,,,,,,,,,,,,,,,,,,,,,,,,,,,,,,,,,,,,,,,,,,,,,,,,,,,,,,,,,,,,,,,,,,,,,,,,,,,,,,,,,,,,,,,,,,,,,,,,,,,,,,,,,,,,,,,,,,,,,,,,,,,,,,,,,,,,,,,,,,,,,,,,,,,,,,,,,,,,,
1763974508.045042,30325.0,0.0,4426.410156,4439.871582,4583.205078,4631.282227,4462.05127,4548.077148,4597.05127,4440.128418,4647.820313,4493.205078,4552.307617,4556.025879,4605.641113,4459.871582,4448.461426,4561.025879,4593.846191,4587.436035,4570.256348,4456.794922,4460.0,4618.846191,4562.05127,4563.589844,4470.0,4630.641113,4452.179688,4612.692383,4543.589844,4457.436035,4600.128418,4568.974121,2937.0,1.0,18.0,2565.0,31886.0,,,,0.0,4.0,4.0,4.0,4.0,4.0,4.0,4.0,4.0,4.0,4.0,4.0,4.0,4.0,4.0,4.0,4.0,4.0,4.0,4.0,4.0,4.0,4.0,4.0,4.0,4.0,4.0,4.0,4.0,4.0,4.0,4.0,4.0,100.0,,,,,,,,,,,,,,,,,,,,,,,,,,,,,,,,,,,40349.0,0.0,0.62003,0.308105,0.297668,0.657288,1.005005,-0.060066,0.007325,27.5,-28.0,-23.0,,,,,,,,,,,,,,,,,,,,,,,,,,,,,,,,,,,,,,,,,,,,,,,,,,,,,,,,,,,,,,,,,,,,,,,,,,,,,,,,,,,,,,,,,,,,,,,,,,,,,,,,,,,,,,,,,,,,,,,,,,,,,,,,,,,,,,,,,,,,,,,,,,,,,,,,,,,,,,,,
1763974508.048948,30326.0,0.0,4431.794922,4442.94873,4588.077148,4634.102539,4467.05127,4551.538574,4596.794922,4445.0,4644.102539,4490.384766,4552.05127,4558.589844,4610.256348,4464.230957,4445.128418,4566.410156,4598.589844,4589.487305,4570.0,4457.692383,4460.0,4620.128418,4567.436035,4562.179688,4459.487305,4625.641113,4464.743652,4623.846191,4554.615234,4464.102539,4601.410156,4573.846191,3000.0,1.0,18.0,2564.0,31894.0,,,,0.0,4.0,4.0,4.0,4.0,4.0,4.0,4.0,4.0,4.0,4.0,4.0,4.0,4.0,4.0,4.0,4.0,4.0,4.0,4.0,4.0,4.0,4.0,4.0,4.0,4.0,4.0,4.0,4.0,4.0,4.0,4.0,4.0,100.0,,,,,,,,,,,,,,,,,,,,,,,,,,,,,,,,,,,,,,,,,,,,,,,,,,,,,,,,,,,,,,,,,,,,,,,,,,,,,,,,,,,,,,,,,,,,,,,,,,,,,,,,,,,,,,,,,,,,,,,,,,,,,,,,,,,,,,,,,,,,,,,,,,,,,,,,,,,,,,,,,,,,,,,,,,,,,,,,,,,,,,,,,,,,,,,,,,,,,,,,,,,,,,
1763974508.052853,30327.0,0.0,4436.153809,4445.897461,4594.871582,4637.307617,4471.794922,4556.153809,4596.794922,4452.563965,4643.205078,4491.153809,4554.743652,4562.05127,4616.410156,4467.307617,4442.05127,4573.461426,4602.05127,4591.410156,4566.282227,4458.461426,4457.563965,4617.307617,4570.256348,4556.794922,4465.641113,4626.282227,4471.153809,4632.307617,4561.282227,4472.820313,4604.230957,4581.538574,2953.0,1.0,18.0,2564.0,31894.0,,,,0.0,4.0,4.0,4.0,4.0,4.0,4.0,4.0,4.0,4.0,4.0,4.0,4.0,4.0,4.0,4.0,4.0,4.0,4.0,4.0,4.0,4.0,4.0,4.0,4.0,4.0,4.0,4.0,4.0,4.0,4.0,4.0,4.0,100.0,,,,,,,,,,,,,,,,,,,,,,,,,,,,,,,,,,,,,,,,,,,,,,,,,,,,,,,,,,,,,,,,,,,,,,,,,,,,,,,,,,,,,,,,,,,,,,,,,,,,,,,,,,,,,,,,,,,,,,,,,,,,,,,,,,,,,,,,,,,,,,,,,,,,,,,,,,,,,,,,,,,,,,,,,,,,,,,,,,,,,,,,,,,,,,,,,,,,,,,,,,,,,,
1763974508.056759,30328.0,0.0,4439.871582,4450.897461,4602.307617,4642.436035,4476.794922,4561.922852,4599.358887,4462.820313,4647.820313,4498.461426,4562.05127,4567.820313,4623.974121,4470.256348,4443.589844,4581.025879,4605.128418,4595.0,4562.820313,4460.769043,4455.256348,4615.384766,4572.436035,4554.358887,4481.922852,4631.922852,4473.077148,4637.179688,4564.358887,4482.820313,4610.512695,4590.769043,2927.0,1.0,18.0,2565.0,31901.0,,,,0.0,4.0,4.0,4.0,4.0,4.0,4.0,4.0,4.0,4.0,4.0,4.0,4.0,4.0,4.0,4.0,4.0,4.0,4.0,4.0,4.0,4.0,4.0,4.0,4.0,4.0,4.0,4.0,4.0,4.0,4.0,4.0,4.0,100.0,,,,,,,,,,,,,,,,,,,,,,,,,,,,,,,,,,,,,,,,,,,,,,,,,,,,,,,,,,,,,,,,,,,,,,,,,,,,,,,,,,,,,,,,,,,,,,,,,,,,,,,,,,,,,,,,,,,,,,,,,,,,,,,,,,,,,,,,,,,,,,,,,,,,,,,,,,,,,,,,,,,,,,,,,,,,,,,,,,,,,,,,,,,,,,,,,,,,,,,,,,,,,,
1763974508.060665,30329.0,0.0,4443.846191,4458.333496,4609.230957,4649.871582,4482.179688,4567.436035,4605.512695,4473.846191,4656.538574,4509.230957,4572.436035,4575.256348,4631.282227,4474.230957,4450.128418,4586.794922,4609.230957,4600.897461,4563.333496,4465.128418,4455.512695,4618.974121,4576.538574,4560.897461,4501.025879,4639.615234,4474.102539,4639.743652,4567.05127,4492.307617,4619.743652,4599.102539,2864.0,1.0,18.0,2565.0,31901.0,,,,0.0,4.0,4.0,4.0,4.0,4.0,4.0,4.0,4.0,4.0,4.0,4.0,4.0,4.0,4.0,4.0,4.0,4.0,4.0,4.0,4.0,4.0,4.0,4.0,4.0,4.0,4.0,4.0,4.0,4.0,4.0,4.0,4.0,100.0,,,,,,,,,,,,,,,,,,,,,,,,,,,,,,,,,,,40350.0,0.0,0.620179,0.307983,0.297485,0.657288,1.008912,-0.054694,0.003907,27.666666,-25.833334,-23.333334,,,,,,,,,,,,,,,,,,,,,,,,,,,,,,,,,,,,,,,,,,,,,,,,,,,,,,,,,,,,,,,,,,,,,,,,,,,,,,,,,,,,,,,,,,,,,,,,,,,,,,,,,,,,,,,,,,,,,,,,,,,,,,,,,,,,,,,,,,,,,,,,,,,,,,,,,,,,,,,,
1763974508.064571,30330.0,0.0,4448.205078,4465.897461,4614.358887,4658.205078,4486.538574,4570.384766,4613.333496,4481.666504,4664.615234,4517.05127,4581.025879,4582.179688,4636.410156,4477.820313,4458.717773,4588.974121,4614.230957,4608.589844,4569.615234,4470.256348,4459.102539,4628.846191,4582.820313,4575.641113,4519.871582,4646.666504,4475.769043,4641.282227,4571.025879,4498.717773,4628.333496,4603.205078,2811.0,1.0,18.0,2566.0,31909.0,,,,0.0,4.0,4.0,4.0,4.0,4.0,4.0,4.0,4.0,4.0,4.0,4.0,4.0,4.0,4.0,4.0,4.0,4.0,4.0,4.0,4.0,4.0,4.0,4.0,4.0,4.0,4.0,4.0,4.0,4.0,4.0,4.0,4.0,100.0,,,,,,,,,,,,,,,,,,,,,,,,,,,,,,,,,,,,,,,,,,,,,,,,,,,,,,,,,,,,,,,,,,,,,,,,,,,,,,,,,,,,,,,,,,,,,,,,,,,,,,,,,,,,,,,,,,,,,,,,,,,,,,,,,,,,,,,,,,,,,,,,,,,,,,,,,,,,,,,,,,,,,,,,,,,,,,,,,,,,,,,,,,,,,,,,,,,,,,,,,,,,,,
1763974508.068477,30331.0,0.0,4451.922852,4470.128418,4616.922852,4664.615234,4488.846191,4570.384766,4620.128418,4483.205078,4667.436035,4517.307617,4583.589844,4585.897461,4638.461426,4479.102539,4465.0,4588.077148,4619.230957,4615.897461,4580.897461,4473.333496,4463.974121,4640.256348,4588.974121,4590.641113,4535.641113,4652.436035,4477.179688,4642.307617,4575.0,4499.487305,4631.922852,4601.538574,3032.0,1.0,18.0,2566.0,31909.0,,,,0.0,4.0,4.0,4.0,4.0,4.0,4.0,4.0,4.0,4.0,4.0,4.0,4.0,4.0,4.0,4.0,4.0,4.0,4.0,4.0,4.0,4.0,4.0,4.0,4.0,4.0,4.0,4.0,4.0,4.0,4.0,4.0,4.0,100.0,,,,,,,,,,,,,,,,,,,,,,,,,,,,,,,,,,,,,,,,,,,,,,,,,,,,,,,,,,,,,,,,,,,,,,,,,,,,,,,,,,,,,,,,,,,,,,,,,,,,,,,,,,,,,,,,,,,,,,,,,,,,,,,,,,,,,,,,,,,,,,,,,,,,,,,,,,,,,,,,,,,,,,,,,,,,,,,,,,,,,,,,,,,,,,,,,,,,,,,,,,,,,,
1763974508.072382,30332.0,0.0,4452.436035,4468.846191,4615.128418,4665.769043,4488.077148,4567.820313,4623.205078,4478.717773,4662.94873,4510.769043,4579.743652,4585.384766,4637.436035,4476.794922,4465.384766,4585.0,4622.436035,4619.230957,4591.666504,4471.153809,4467.05127,4646.538574,4591.794922,4596.410156,4541.922852,4656.282227,4477.692383,4642.179688,4576.410156,4494.102539,4629.358887,4594.743652,2965.0,1.0,18.0,2567.0,31917.0,,,,0.0,4.0,4.0,4.0,4.0,4.0,4.0,4.0,4.0,4.0,4.0,4.0,4.0,4.0,4.0,4.0,4.0,4.0,4.0,4.0,4.0,4.0,4.0,4.0,4.0,4.0,4.0,4.0,4.0,4.0,4.0,4.0,4.0,100.0,,,,,,,,,,,,,,,,,,,,,,,,,,,,,,,,,,,,,,,,,,,,,,,,,,,,,,,,,,,,,,,,,,,,,,,,,,,,,,,,,,,,,,,,,,,,,,,,,,,,,,,,,,,,,,,,,,,,,,,,,,,,,,,,,,,,,,,,,,,,,,,,,,,,,,,,,,,,,,,,,,,,,,,,,,,,,,,,,,,,,,,,,,,,,,,,,,,,,,,,,,,,,,
1763974508.076288,30333.0,0.0,4448.205078,4462.820313,4607.94873,4660.384766,4484.230957,4564.102539,4621.025879,4471.538574,4652.436035,4500.641113,4572.820313,4581.153809,4633.974121,4471.025879,4458.461426,4579.487305,4621.538574,4614.230957,4594.487305,4463.461426,4465.897461,4642.94873,4589.230957,4588.589844,4531.538574,4655.897461,4476.666504,4640.256348,4574.230957,4484.871582,4622.179688,4585.256348,2843.0,1.0,18.0,2567.0,31917.0,,,,0.0,4.0,4.0,4.0,4.0,4.0,4.0,4.0,4.0,4.0,4.0,4.0,4.0,4.0,4.0,4.0,4.0,4.0,4.0,4.0,4.0,4.0,4.0,4.0,4.0,4.0,4.0,4.0,4.0,4.0,4.0,4.0,4.0,100.0,,,,,,,,,,,,,,,,,,,,,,,,,,,,,,,,,,,40351.0,0.0,0.620207,0.308044,0.297363,0.657288,1.011354,-0.049322,0.003418,28.333334,-25.666666,-23.833334,,,,,,,,,,,,,,,,,,,,,,,,,,,,,,,,,,,,,,,,,,,,,,,,,,,,,,,,,,,,,,,,,,,,,,,,,,,,,,,,,,,,,,,,,,,,,,,,,,,,,,,,,,,,,,,,,,,,,,,,,,,,,,,,,,,,,,,,,,,,,,,,,,,,,,,,,,,,,,,,
1763974508.080194,30334.0,0.0,4441.153809,4454.487305,4596.922852,4650.641113,4478.461426,4560.512695,4615.128418,4465.384766,4639.871582,4490.128418,4567.692383,4576.153809,4629.102539,4464.230957,4445.769043,4571.666504,4615.897461,4601.025879,4584.358887,4453.589844,4461.153809,4631.025879,4582.436035,4572.05127,4506.410156,4648.717773,4473.461426,4636.410156,4570.384766,4475.641113,4613.589844,4576.282227,3025.0,1.0,18.0,2568.0,31925.0,,,,0.0,4.0,4.0,4.0,4.0,4.0,4.0,4.0,4.0,4.0,4.0,4.0,4.0,4.0,4.0,4.0,4.0,4.0,4.0,4.0,4.0,4.0,4.0,4.0,4.0,4.0,4.0,4.0,4.0,4.0,4.0,4.0,4.0,100.0,,,,,,,,,,,,,,,,,,,,,,,,,,,,,,,,,,,,,,,,,,,,,,,,,,,,,,,,,,,,,,,,,,,,,,,,,,,,,,,,,,,,,,,,,,,,,,,,,,,,,,,,,,,,,,,,,,,,,,,,,,,,,,,,,,,,,,,,,,,,,,,,,,,,,,,,,,,,,,,,,,,,,,,,,,,,,,,,,,,,,,,,,,,,,,,,,,,,,,,,,,,,,,
1763974508.0841,30335.0,0.0,4436.282227,4448.461426,4586.922852,4641.410156,4473.461426,4558.717773,4609.230957,4463.333496,4630.897461,4482.179688,4568.461426,4573.974121,4625.512695,4459.102539,4432.436035,4563.589844,4608.333496,4585.897461,4565.897461,4447.563965,4456.922852,4618.717773,4576.153809,4557.179688,4480.641113,4637.436035,4467.692383,4632.436035,4568.205078,4470.512695,4606.666504,4571.025879,2946.0,1.0,18.0,2568.0,31925.0,,,,0.0,4.0,4.0,4.0,4.0,4.0,4.0,4.0,4.0,4.0,4.0,4.0,4.0,4.0,4.0,4.0,4.0,4.0,4.0,4.0,4.0,4.0,4.0,4.0,4.0,4.0,4.0,4.0,4.0,4.0,4.0,4.0,4.0,100.0,,,,,,,,,,,,,,,,,,,,,,,,,,,,,,,,,,,,,,,,,,,,,,,,,,,,,,,,,,,,,,,,,,,,,,,,,,,,,,,,,,,,,,,,,,,,,,,,,,,,,,,,,,,,,,,,,,,,,,,,,,,,,,,,,,,,,,,,,,,,,,,,,,,,,,,,,,,,,,,,,,,,,,,,,,,,,,,,,,,,,,,,,,,,,,,,,,,,,,,,,,,,,,
1763974508.088005,30336.0,0.0,4438.333496,4448.333496,4583.717773,4637.563965,4472.307617,4559.615234,4607.436035,4466.410156,4630.769043,4482.94873,4575.769043,4576.666504,4625.897461,4457.692383,4424.871582,4559.358887,4604.358887,4578.077148,4550.641113,4449.615234,4457.05127,4614.615234,4575.384766,4552.436035,4472.179688,4628.846191,4461.153809,4631.282227,4570.128418,4471.538574,4602.820313,4570.384766,2853.0,1.0,18.0,2569.0,31933.0,,,,0.0,4.0,4.0,4.0,4.0,4.0,4.0,4.0,4.0,4.0,4.0,4.0,4.0,4.0,4.0,4.0,4.0,4.0,4.0,4.0,4.0,4.0,4.0,4.0,4.0,4.0,4.0,4.0,4.0,4.0,4.0,4.0,4.0,100.0,,,,,,,,,,,,,,,,,,,,,,,,,,,,,,,,,,,,,,,,,,,,,,,,,,,,,,,,,,,,,,,,,,,,,,,,,,,,,,,,,,,,,,,,,,,,,,,,,,,,,,,,,,,,,,,,,,,,,,,,,,,,,,,,,,,,,,,,,,,,,,,,,,,,,,,,,,,,,,,,,,,,,,,,,,,,,,,,,,,,,,,,,,,,,,,,,,,,,,,,,,,,,,
1763974508.091911,30337.0,0.0,4446.666504,4453.589844,4589.102539,4639.487305,4475.0,4562.563965,4609.743652,4471.410156,4639.743652,4498.846191,4584.230957,4582.05127,4630.256348,4459.615234,4426.410156,4561.153809,4606.666504,4582.436035,4547.820313,4457.307617,4461.410156,4620.769043,4581.025879,4558.205078,4486.153809,4628.461426,4456.666504,4633.717773,4575.0,4476.282227,4602.179688,4572.820313,2960.0,1.0,18.0,2569.0,31933.0,,,,0.0,4.0,4.0,4.0,4.0,4.0,4.0,4.0,4.0,4.0,4.0,4.0,4.0,4.0,4.0,4.0,4.0,4.0,4.0,4.0,4.0,4.0,4.0,4.0,4.0,4.0,4.0,4.0,4.0,4.0,4.0,4.0,4.0,100.0,,,,,,,,,,,,,,,,,,,,,,,,,,,,,,,,,,,40352.0,0.0,0.620206,0.308105,0.297302,0.657288,1.009401,-0.048346,0.006837,27.666666,-25.833334,-23.666666,,,,,,,,,,,,,,,,,,,,,,,,,,,,,,,,,,,,,,,,,,,,,,,,,,,,,,,,,,,,,,,,,,,,,,,,,,,,,,,,,,,,,,,,,,,,,,,,,,,,,,,,,,,,,,,,,,,,,,,,,,,,,,,,,,,,,,,,,,,,,,,,,,,,,,,,,,,,,,,,
1763974508.095817,30338.0,0.0,4454.871582,4458.974121,4597.436035,4642.563965,4478.205078,4564.743652,4611.282227,4472.94873,4651.410156,4527.820313,4585.641113,4584.871582,4633.846191,4462.307617,4434.102539,4566.794922,4612.436035,4593.846191,4556.282227,4463.333496,4465.384766,4630.384766,4587.820313,4566.922852,4509.871582,4634.358887,4455.384766,4636.282227,4577.94873,4479.487305,4602.179688,4574.358887,2293.0,1.0,18.0,2570.0,31941.0,,,,0.0,4.0,4.0,4.0,4.0,4.0,4.0,4.0,4.0,4.0,4.0,4.0,4.0,4.0,4.0,4.0,4.0,4.0,4.0,4.0,4.0,4.0,4.0,4.0,4.0,4.0,4.0,4.0,4.0,4.0,4.0,4.0,4.0,100.0,,,,,,,,,,,,,,,,,,,,,,,,,,,,,,,,,,,,,,,,,,,,,,,,,,,,,,,,,,,,,,,,,,,,,,,,,,,,,,,,,,,,,,,,,,,,,,,,,,,,,,,,,,,,,,,,,,,,,,,,,,,,,,,,,,,,,,,,,,,,,,,,,,,,,,,,,,,,,,,,,,,,,,,,,,,,,,,,,,,,,,,,,,,,,,,,,,,,,,,,,,,,,,
1763974508.099723,30339.0,0.0,4455.384766,4458.589844,4600.256348,4640.769043,4477.692383,4563.077148,4606.666504,4466.922852,4656.410156,4554.358887,4575.641113,4581.025879,4631.410156,4462.563965,4441.666504,4571.282227,4615.641113,4601.922852,4566.666504,4461.282227,4464.487305,4634.487305,4589.487305,4570.641113,4523.077148,4638.717773,4455.769043,4633.589844,4574.743652,4476.410156,4600.769043,4572.436035,2975.0,1.0,18.0,2570.0,31941.0,,,,0.0,4.0,4.0,4.0,4.0,4.0,4.0,4.0,4.0,4.0,4.0,4.0,4.0,4.0,4.0,4.0,4.0,4.0,4.0,4.0,4.0,4.0,4.0,4.0,4.0,4.0,4.0,4.0,4.0,4.0,4.0,4.0,4.0,100.0,,,,,,,,,,,,,,,,,,,,,,,,,,,,,,,,,,,,,,,,,,,,,,,,,,,,,,,,,,,,,,,,,,,,,,,,,,,,,,,,,,,,,,,,,,,,,,,,,,,,,,,,,,,,,,,,,,,,,,,,,,,,,,,,,,,,,,,,,,,,,,,,,,,,,,,,,,,,,,,,,,,,,,,,,,,,,,,,,,,,,,,,,,,,,,,,,,,,,,,,,,,,,,
1763974508.103628,30340.0,0.0,4447.307617,4451.922852,4594.487305,4633.077148,4473.333496,4558.717773,4596.922852,4455.641113,4650.512695,4559.358887,4560.769043,4572.692383,4623.333496,4460.128418,4445.0,4571.410156,4613.846191,4600.641113,4571.282227,4452.307617,4459.743652,4630.384766,4584.230957,4568.589844,4517.436035,4636.538574,4455.641113,4624.358887,4566.666504,4467.820313,4597.94873,4568.205078,2897.0,1.0,18.0,2571.0,31948.0,,,,0.0,4.0,4.0,4.0,4.0,4.0,4.0,4.0,4.0,4.0,4.0,4.0,4.0,4.0,4.0,4.0,4.0,4.0,4.0,4.0,4.0,4.0,4.0,4.0,4.0,4.0,4.0,4.0,4.0,4.0,4.0,4.0,4.0,100.0,,,,,,,,,,,,,,,,,,,,,,,,,,,,,,,,,,,,,,,,,,,,,,,,,,,,,,,,,,,,,,,,,,,,,,,,,,,,,,,,,,,,,,,,,,,,,,,,,,,,,,,,,,,,,,,,,,,,,,,,,,,,,,,,,,,,,,,,,,,,,,,,,,,,,,,,,,,,,,,,,,,,,,,,,,,,,,,,,,,,,,,,,,,,,,,,,,,,,,,,,,,,,,
1763974508.107534,30341.0,0.0,4437.94873,4445.0,4586.025879,4625.769043,4470.769043,4556.922852,4590.128418,4447.563965,4638.589844,4536.538574,4554.487305,4568.461426,4617.436035,4458.205078,4444.871582,4568.974121,4611.282227,4593.846191,4571.025879,4445.256348,4457.05127,4624.743652,4578.461426,4566.666504,4502.563965,4631.025879,4455.384766,4615.0,4560.641113,4460.128418,4597.820313,4567.179688,2467.0,1.0,18.0,2571.0,31948.0,,,,0.0,4.0,4.0,4.0,4.0,4.0,4.0,4.0,4.0,4.0,4.0,4.0,4.0,4.0,4.0,4.0,4.0,4.0,4.0,4.0,4.0,4.0,4.0,4.0,4.0,4.0,4.0,4.0,4.0,4.0,4.0,4.0,4.0,100.0,,,,,,,,,,,,,,,,,,,,,,,,,,,,,,,,,,,40353.0,0.0,0.620081,0.308228,0.297302,0.657349,0.993774,-0.058113,0.018069,27.333334,-27.333334,-23.666666,,,,,,,,,,,,,,,,,,,,,,,,,,,,,,,,,,,,,,,,,,,,,,,,,,,,,,,,,,,,,,,,,,,,,,,,,,,,,,,,,,,,,,,,,,,,,,,,,,,,,,,,,,,,,,,,,,,,,,,,,,,,,,,,,,,,,,,,,,,,,,,,,,,,,,,,,,,,,,,,
1763974508.11144,30342.0,0.0,4437.692383,4445.769043,4585.384766,4627.563965,4475.769043,4562.307617,4596.025879,4451.025879,4631.538574,4499.871582,4566.538574,4575.256348,4622.05127,4460.897461,4445.897461,4568.589844,4614.358887,4591.153809,4571.666504,4449.871582,4462.05127,4627.307617,4580.128418,4572.179688,4495.897461,4630.641113,4457.94873,4614.871582,4563.333496,4460.769043,4604.615234,4574.358887,2991.0,1.0,18.0,2568.0,31956.0,,,,0.0,4.0,4.0,4.0,4.0,4.0,4.0,4.0,4.0,4.0,4.0,4.0,4.0,4.0,4.0,4.0,4.0,4.0,4.0,4.0,4.0,4.0,4.0,4.0,4.0,4.0,4.0,4.0,4.0,4.0,4.0,4.0,4.0,100.0,,,,,,,,,,,,,,,,,,,,,,,,,,,,,,,,,,,,,,,,,,,,,,,,,,,,,,,,,,,,,,,,,,,,,,,,,,,,,,,,,,,,,,,,,,,,,,,,,,,,,,,,,,,,,,,,,,,,,,,,,,,,,,,,,,,,,,,,,,,,,,,,,,,,,,,,,,,,,,,,,,,,,,,,,,,,,,,,,,,,,,,,,,,,,,,,,,,,,,,,,,,,,,
1763974508.115346,30343.0,0.0,4450.128418,4456.538574,4597.307617,4640.769043,4488.461426,4574.102539,4615.128418,4466.794922,4636.922852,4472.820313,4592.307617,4592.179688,4637.94873,4468.717773,4451.153809,4573.205078,4624.743652,4597.94873,4576.025879,4468.077148,4473.846191,4640.128418,4591.153809,4586.025879,4506.410156,4640.0,4465.512695,4627.94873,4575.512695,4472.307617,4617.820313,4589.230957,2978.0,1.0,18.0,2568.0,31956.0,,,,0.0,4.0,4.0,4.0,4.0,4.0,4.0,4.0,4.0,4.0,4.0,4.0,4.0,4.0,4.0,4.0,4.0,4.0,4.0,4.0,4.0,4.0,4.0,4.0,4.0,4.0,4.0,4.0,4.0,4.0,4.0,4.0,4.0,100.0,,,,,,,,,,,,,,,,,,,,,,,,,,,,,,,,,,,,,,,,,,,,,,,,,,,,,,,,,,,,,,,,,,,,,,,,,,,,,,,,,,,,,,,,,,,,,,,,,,,,,,,,,,,,,,,,,,,,,,,,,,,,,,,,,,,,,,,,,,,,,,,,,,,,,,,,,,,,,,,,,,,,,,,,,,,,,,,,,,,,,,,,,,,,,,,,,,,,,,,,,,,,,,
1763974508.119252,30344.0,0.0,4468.461426,4471.282227,4615.512695,4657.820313,4502.179688,4585.641113,4636.282227,4485.512695,4652.436035,4470.256348,4614.615234,4609.102539,4655.641113,4477.436035,4459.230957,4580.897461,4636.410156,4610.256348,4580.641113,4490.256348,4485.0,4655.128418,4605.0,4601.153809,4527.94873,4654.871582,4476.282227,4647.692383,4589.487305,4488.717773,4630.897461,4603.974121,2695.0,1.0,18.0,2565.0,31964.0,,,,0.0,4.0,4.0,4.0,4.0,4.0,4.0,4.0,4.0,4.0,4.0,4.0,4.0,4.0,4.0,4.0,4.0,4.0,4.0,4.0,4.0,4.0,4.0,4.0,4.0,4.0,4.0,4.0,4.0,4.0,4.0,4.0,4.0,100.0,,,,,,,,,,,,,,,,,,,,,,,,,,,,,,,,,,,,,,,,,,,,,,,,,,,,,,,,,,,,,,,,,,,,,,,,,,,,,,,,,,,,,,,,,,,,,,,,,,,,,,,,,,,,,,,,,,,,,,,,,,,,,,,,,,,,,,,,,,,,,,,,,,,,,,,,,,,,,,,,,,,,,,,,,,,,,,,,,,,,,,,,,,,,,,,,,,,,,,,,,,,,,,
1763974508.123157,30345.0,0.0,4480.128418,4479.615234,4627.05127,4666.282227,4508.077148,4588.717773,4644.487305,4493.974121,4667.563965,4487.820313,4616.922852,4614.102539,4662.179688,4479.871582,4465.0,4586.153809,4640.384766,4618.077148,4579.871582,4501.922852,4487.692383,4660.0,4611.025879,4607.563965,4545.897461,4665.0,4483.077148,4660.769043,4595.0,4499.102539,4635.641113,4609.102539,2851.0,1.0,18.0,2565.0,31964.0,,,,0.0,4.0,4.0,4.0,4.0,4.0,4.0,4.0,4.0,4.0,4.0,4.0,4.0,4.0,4.0,4.0,4.0,4.0,4.0,4.0,4.0,4.0,4.0,4.0,4.0,4.0,4.0,4.0,4.0,4.0,4.0,4.0,4.0,100.0,,,,,,,,,,,,,,,,,,,,,,,,,,,,,,,,,,,40354.0,0.0,0.61996,0.308411,0.297363,0.657349,0.993774,-0.058113,0.018069,26.833334,-27.333334,-22.5,,,,,,,,,,,,,,,,,,,,,,,,,,,,,,,,,,,,,,,,,,,,,,,,,,,,,,,,,,,,,,,,,,,,,,,,,,,,,,,,,,,,,,,,,,,,,,,,,,,,,,,,,,,,,,,,,,,,,,,,,,,,,,,,,,,,,,,,,,,,,,,,,,,,,,,,,,,,,,,,
1763974508.127063,30346.0,0.0,4476.025879,4475.128418,4622.94873,4658.589844,4501.153809,4581.025879,4632.692383,4485.128418,4670.897461,4508.077148,4597.179688,4602.820313,4651.282227,4472.94873,4463.717773,4584.487305,4632.05127,4614.487305,4571.922852,4494.615234,4479.743652,4649.102539,4603.717773,4600.0,4549.615234,4663.333496,4478.974121,4656.922852,4586.410156,4496.153809,4627.692383,4600.128418,2693.0,1.0,18.0,2566.0,31972.0,,,,0.0,4.0,4.0,4.0,4.0,4.0,4.0,4.0,4.0,4.0,4.0,4.0,4.0,4.0,4.0,4.0,4.0,4.0,4.0,4.0,4.0,4.0,4.0,4.0,4.0,4.0,4.0,4.0,4.0,4.0,4.0,4.0,4.0,100.0,,,,,,,,,,,,,,,,,,,,,,,,,,,,,,,,,,,,,,,,,,,,,,,,,,,,,,,,,,,,,,,,,,,,,,,,,,,,,,,,,,,,,,,,,,,,,,,,,,,,,,,,,,,,,,,,,,,,,,,,,,,,,,,,,,,,,,,,,,,,,,,,,,,,,,,,,,,,,,,,,,,,,,,,,,,,,,,,,,,,,,,,,,,,,,,,,,,,,,,,,,,,,,
1763974508.130969,30347.0,0.0,4458.717773,4460.641113,4605.641113,4638.846191,4485.512695,4567.692383,4608.974121,4463.846191,4659.358887,4517.307617,4569.487305,4582.692383,4629.615234,4461.410156,4455.512695,4576.538574,4616.025879,4601.666504,4561.666504,4472.563965,4467.563965,4628.974121,4587.05127,4582.820313,4540.641113,4652.307617,4464.487305,4637.692383,4567.692383,4482.307617,4611.538574,4582.436035,2993.0,1.0,18.0,2566.0,31972.0,,,,0.0,4.0,4.0,4.0,4.0,4.0,4.0,4.0,4.0,4.0,4.0,4.0,4.0,4.0,4.0,4.0,4.0,4.0,4.0,4.0,4.0,4.0,4.0,4.0,4.0,4.0,4.0,4.0,4.0,4.0,4.0,4.0,4.0,100.0,,,,,,,,,,,,,,,,,,,,,,,,,,,,,,,,,,,,,,,,,,,,,,,,,,,,,,,,,,,,,,,,,,,,,,,,,,,,,,,,,,,,,,,,,,,,,,,,,,,,,,,,,,,,,,,,,,,,,,,,,,,,,,,,,,,,,,,,,,,,,,,,,,,,,,,,,,,,,,,,,,,,,,,,,,,,,,,,,,,,,,,,,,,,,,,,,,,,,,,,,,,,,,
1763974508.134875,30348.0,0.0,4440.384766,4446.153809,4587.436035,4620.769043,4470.897461,4557.94873,4589.358887,4443.205078,4641.666504,4516.794922,4552.820313,4567.820313,4611.922852,4453.974121,4446.538574,4568.077148,4602.692383,4589.487305,4557.563965,4450.128418,4460.384766,4613.205078,4572.563965,4567.179688,4528.974121,4640.769043,4448.846191,4616.538574,4550.512695,4468.717773,4597.436035,4566.794922,2967.0,1.0,18.0,2567.0,31980.0,,,,0.0,4.0,4.0,4.0,4.0,4.0,4.0,4.0,4.0,4.0,4.0,4.0,4.0,4.0,4.0,4.0,4.0,4.0,4.0,4.0,4.0,4.0,4.0,4.0,4.0,4.0,4.0,4.0,4.0,4.0,4.0,4.0,4.0,100.0,,,,,,,,,,,,,,,,,,,,,,,,,,,,,,,,,,,,,,,,,,,,,,,,,,,,,,,,,,,,,,,,,,,,,,,,,,,,,,,,,,,,,,,,,,,,,,,,,,,,,,,,,,,,,,,,,,,,,,,,,,,,,,,,,,,,,,,,,,,,,,,,,,,,,,,,,,,,,,,,,,,,,,,,,,,,,,,,,,,,,,,,,,,,,,,,,,,,,,,,,,,,,,
1763974508.13878,30349.0,0.0,4433.461426,4441.153809,4580.512695,4616.538574,4466.025879,4557.179688,4585.256348,4434.487305,4630.769043,4518.205078,4555.256348,4567.179688,4609.358887,4455.641113,4442.307617,4564.615234,4600.0,4586.410156,4563.077148,4440.769043,4462.05127,4611.666504,4569.615234,4561.922852,4522.179688,4635.641113,4443.717773,4607.692383,4545.897461,4465.769043,4593.717773,4562.820313,2776.0,1.0,18.0,2567.0,31980.0,,,,0.0,4.0,4.0,4.0,4.0,4.0,4.0,4.0,4.0,4.0,4.0,4.0,4.0,4.0,4.0,4.0,4.0,4.0,4.0,4.0,4.0,4.0,4.0,4.0,4.0,4.0,4.0,4.0,4.0,4.0,4.0,4.0,4.0,100.0,,,,,,,,,,,,,,,,,,,,,,,,,,,,,,,,,,,40355.0,0.0,0.619664,0.30896,0.297546,0.657288,0.992797,-0.056648,0.009278,26.333334,-27.166666,-21.833334,,,,,,,,,,,,,,,,,,,,,,,,,,,,,,,,,,,,,,,,,,,,,,,,,,,,,,,,,,,,,,,,,,,,,,,,,,,,,,,,,,,,,,,,,,,,,,,,,,,,,,,,,,,,,,,,,,,,,,,,,,,,,,,,,,,,,,,,,,,,,,,,,,,,,,,,,,,,,,,,
1763974508.142686,30350.0,0.0,4440.769043,4447.05127,4587.94873,4627.820313,4472.05127,4564.358887,4595.384766,4439.871582,4634.102539,4526.922852,4569.102539,4578.717773,4620.641113,4462.94873,4443.333496,4566.282227,4607.179688,4592.94873,4573.333496,4447.436035,4468.717773,4622.436035,4577.94873,4567.179688,4516.410156,4635.897461,4453.333496,4615.641113,4555.512695,4475.256348,4600.0,4571.025879,2750.0,1.0,18.0,2565.0,31987.0,,,,0.0,4.0,4.0,4.0,4.0,4.0,4.0,4.0,4.0,4.0,4.0,4.0,4.0,4.0,4.0,4.0,4.0,4.0,4.0,4.0,4.0,4.0,4.0,4.0,4.0,4.0,4.0,4.0,4.0,4.0,4.0,4.0,4.0,100.0,0.828125,41.666668,4.0,4.0,4.0,4.0,4.0,4.0,4.0,4.0,4.0,1.0,4.0,4.0,4.0,4.0,4.0,4.0,4.0,4.0,3.0,4.0,4.0,4.0,4.0,4.0,1.0,4.0,3.0,4.0,4.0,4.0,4.0,4.0,,,,,,,,,,,,,2.438035,3.120996,1.735315,2.986509,0.892485,2.214522,1.218454,1.517371,3.33181,0.825148,2.421045,1.390221,1.187943,3.006911,0.843228,1.428161,1.389255,0.97165,2.775796,0.863778,1.602114,0.846851,0.928708,2.180694,0.636901,0.923313,0.837488,1.193957,1.729853,0.517356,1.464647,2.259605,1.823432,3.119741,0.764842,1.842683,2.376196,1.895061,3.256921,0.959576,0.850977,0.767229,0.574444,1.90868,0.648339,3.158526,4.267575,2.527018,7.146543,3.169243,3.936417,2.211184,1.669052,2.323702,0.68639,2.396645,2.16859,0.994717,2.402829,0.624488,2.147143,2.005006,1.145128,2.503476,0.798676,0.994981,0.852169,1.01089,1.419245,0.538965,1.228279,1.364479,0.741353,1.672611,0.635774,0.732437,1.27131,0.560735,2.741338,0.608274,1.226901,1.588149,1.127103,2.473629,0.695477,0.970173,1.488588,0.841953,3.699461,0.993785,0.840076,2.311835,1.443258,3.388914,2.232189,1.087687,1.783018,0.955261,3.805666,0.99128,0.918662,2.05059,1.249775,3.918681,1.067054,1.26341,2.457614,1.375793,3.581409,1.219653,1.325391,1.772282,1.325374,3.078032,0.884499,0.737697,1.803704,2.031895,2.725215,0.939544,2.741604,3.602886,2.392656,5.173104,2.680131,1.966966,2.05902,1.478965,2.493339,1.667658,0.875453,1.307567,3.741523,6.457155,2.122004,1.171852,1.941474,1.521154,4.045603,1.30852,1.216181,1.750572,1.55138,3.668441,1.009806,2.578351,0.887573,1.996117,3.684528,0.975085,1.381979,1.029319,1.149554,3.685773,1.211561,2.056804,1.396676,1.436486,2.958349,0.936061
1763974508.146592,30351.0,0.0,4454.230957,4457.05127,4602.05127,4644.615234,4482.820313,4573.077148,4608.974121,4452.820313,4647.179688,4533.717773,4580.256348,4591.282227,4633.974121,4468.205078,4446.153809,4568.589844,4616.538574,4601.153809,4579.102539,4461.922852,4472.436035,4635.0,4588.461426,4574.743652,4502.692383,4635.384766,4471.282227,4631.794922,4571.153809,4489.615234,4608.717773,4584.358887,2893.0,1.0,18.0,2565.0,31987.0,,,,0.0,4.0,4.0,4.0,4.0,4.0,4.0,4.0,4.0,4.0,4.0,4.0,4.0,4.0,4.0,4.0,4.0,4.0,4.0,4.0,4.0,4.0,4.0,4.0,4.0,4.0,4.0,4.0,4.0,4.0,4.0,4.0,4.0,100.0,,,,,,,,,,,,,,,,,,,,,,,,,,,,,,,,,,,,,,,,,,,,,,,,,,,,,,,,,,,,,,,,,,,,,,,,,,,,,,,,,,,,,,,,,,,,,,,,,,,,,,,,,,,,,,,,,,,,,,,,,,,,,,,,,,,,,,,,,,,,,,,,,,,,,,,,,,,,,,,,,,,,,,,,,,,,,,,,,,,,,,,,,,,,,,,,,,,,,,,,,,,,,,
1763974508.150498,30352.0,0.0,4462.307617,4462.179688,4611.153809,4653.717773,4489.615234,4576.794922,4615.641113,4463.589844,4657.692383,4523.717773,4579.743652,4595.128418,4637.820313,4466.282227,4447.94873,4566.666504,4620.0,4602.436035,4574.358887,4472.436035,4469.102539,4638.333496,4591.794922,4576.025879,4480.512695,4630.256348,4484.487305,4642.820313,4581.025879,4498.205078,4611.282227,4593.333496,2967.0,1.0,18.0,2563.0,31995.0,,,,0.0,4.0,4.0,4.0,4.0,4.0,4.0,4.0,4.0,4.0,4.0,4.0,4.0,4.0,4.0,4.0,4.0,4.0,4.0,4.0,4.0,4.0,4.0,4.0,4.0,4.0,4.0,4.0,4.0,4.0,4.0,4.0,4.0,100.0,,,,,,,,,,,,,,,,,,,,,,,,,,,,,,,,,,,,,,,,,,,,,,,,,,,,,,,,,,,,,,,,,,,,,,,,,,,,,,,,,,,,,,,,,,,,,,,,,,,,,,,,,,,,,,,,,,,,,,,,,,,,,,,,,,,,,,,,,,,,,,,,,,,,,,,,,,,,,,,,,,,,,,,,,,,,,,,,,,,,,,,,,,,,,,,,,,,,,,,,,,,,,,
1763974508.154404,30353.0,0.0,4458.974121,4457.05127,4607.94873,4648.077148,4487.563965,4572.563965,4611.794922,4465.256348,4656.025879,4495.0,4568.461426,4587.820313,4628.717773,4458.333496,4448.205078,4559.615234,4614.487305,4594.487305,4561.025879,4472.692383,4459.743652,4629.230957,4584.743652,4567.692383,4462.563965,4622.436035,4481.794922,4639.743652,4578.205078,4494.743652,4604.615234,4592.436035,3011.0,1.0,18.0,2563.0,31995.0,,,,0.0,4.0,4.0,4.0,4.0,4.0,4.0,4.0,4.0,4.0,4.0,4.0,4.0,4.0,4.0,4.0,4.0,4.0,4.0,4.0,4.0,4.0,4.0,4.0,4.0,4.0,4.0,4.0,4.0,4.0,4.0,4.0,4.0,100.0,,,,,,,,,,,,,,,,,,,,,,,,,,,,,,,,,,,40356.0,0.0,0.619563,0.30896,0.297485,0.65741,0.992797,-0.056648,0.009278,26.5,-26.166666,-22.5,,,,,,,,,,,,,,,,,,,,,,,,,,,,,,,,,,,,,,,,,,,,,,,,,,,,,,,,,,,,,,,,,,,,,,,,,,,,,,,,,,,,,,,,,,,,,,,,,,,,,,,,,,,,,,,,,,,,,,,,,,,,,,,,,,,,,,,,,,,,,,,,,,,,,,,,,,,,,,,,
1763974508.158309,30354.0,0.0,4446.282227,4443.461426,4593.846191,4631.410156,4478.205078,4562.820313,4600.512695,4456.282227,4642.94873,4464.487305,4553.077148,4574.358887,4611.666504,4449.358887,4448.461426,4550.769043,4603.077148,4582.563965,4546.410156,4463.846191,4449.487305,4613.333496,4570.897461,4553.846191,4463.846191,4616.922852,4462.179688,4623.333496,4564.358887,4481.153809,4592.05127,4582.307617,2843.0,1.0,18.0,2563.0,32003.0,,,,0.0,4.0,4.0,4.0,4.0,4.0,4.0,4.0,4.0,4.0,4.0,4.0,4.0,4.0,4.0,4.0,4.0,4.0,4.0,4.0,4.0,4.0,4.0,4.0,4.0,4.0,4.0,4.0,4.0,4.0,4.0,4.0,4.0,100.0,,,,,,,,,,,,,,,,,,,,,,,,,,,,,,,,,,,,,,,,,,,,,,,,,,,,,,,,,,,,,,,,,,,,,,,,,,,,,,,,,,,,,,,,,,,,,,,,,,,,,,,,,,,,,,,,,,,,,,,,,,,,,,,,,,,,,,,,,,,,,,,,,,,,,,,,,,,,,,,,,,,,,,,,,,,,,,,,,,,,,,,,,,,,,,,,,,,,,,,,,,,,,,
1763974508.162215,30355.0,0.0,4431.794922,4430.0,4577.692383,4615.256348,4468.333496,4552.692383,4588.461426,4442.563965,4628.846191,4455.897461,4541.794922,4562.692383,4596.282227,4444.615234,4449.230957,4545.256348,4592.05127,4574.615234,4538.589844,4452.436035,4443.077148,4599.871582,4558.461426,4542.179688,4485.769043,4617.692383,4435.897461,4604.230957,4548.589844,4466.153809,4581.538574,4569.615234,3026.0,1.0,18.0,2563.0,32003.0,,,,0.0,4.0,4.0,4.0,4.0,4.0,4.0,4.0,4.0,4.0,4.0,4.0,4.0,4.0,4.0,4.0,4.0,4.0,4.0,4.0,4.0,4.0,4.0,4.0,4.0,4.0,4.0,4.0,4.0,4.0,4.0,4.0,4.0,100.0,,,,,,,,,,,,,,,,,,,,,,,,,,,,,,,,,,,,,,,,,,,,,,,,,,,,,,,,,,,,,,,,,,,,,,,,,,,,,,,,,,,,,,,,,,,,,,,,,,,,,,,,,,,,,,,,,,,,,,,,,,,,,,,,,,,,,,,,,,,,,,,,,,,,,,,,,,,,,,,,,,,,,,,,,,,,,,,,,,,,,,,,,,,,,,,,,,,,,,,,,,,,,,
1763974508.166121,30356.0,0.0,4423.974121,4425.512695,4569.230957,4609.743652,4464.743652,4547.94873,4582.307617,4433.333496,4623.974121,4476.538574,4540.0,4559.230957,4590.641113,4446.538574,4450.256348,4546.410156,4587.820313,4575.769043,4541.282227,4445.769043,4443.205078,4596.666504,4554.358887,4539.743652,4513.589844,4623.846191,4419.487305,4595.128418,4541.410156,4459.487305,4579.743652,4562.179688,2992.0,1.0,18.0,2564.0,32011.0,,,,0.0,4.0,4.0,4.0,4.0,4.0,4.0,4.0,4.0,4.0,4.0,4.0,4.0,4.0,4.0,4.0,4.0,4.0,4.0,4.0,4.0,4.0,4.0,4.0,4.0,4.0,4.0,4.0,4.0,4.0,4.0,4.0,4.0,100.0,,,,,,,,,,,,,,,,,,,,,,,,,,,,,,,,,,,,,,,,,,,,,,,,,,,,,,,,,,,,,,,,,,,,,,,,,,,,,,,,,,,,,,,,,,,,,,,,,,,,,,,,,,,,,,,,,,,,,,,,,,,,,,,,,,,,,,,,,,,,,,,,,,,,,,,,,,,,,,,,,,,,,,,,,,,,,,,,,,,,,,,,,,,,,,,,,,,,,,,,,,,,,,
1763974508.170027,30357.0,0.0,4426.666504,4433.717773,4573.333496,4617.436035,4470.128418,4551.025879,4585.897461,4435.384766,4630.384766,4509.230957,4549.230957,4566.153809,4597.563965,4454.230957,4451.153809,4554.871582,4592.692383,4585.769043,4552.820313,4448.589844,4449.743652,4605.128418,4560.641113,4548.205078,4528.589844,4631.794922,4423.589844,4601.666504,4547.94873,4464.743652,4588.205078,4564.358887,2934.0,1.0,18.0,2564.0,32011.0,,,,0.0,4.0,4.0,4.0,4.0,4.0,4.0,4.0,4.0,4.0,4.0,4.0,4.0,4.0,4.0,4.0,4.0,4.0,4.0,4.0,4.0,4.0,4.0,4.0,4.0,4.0,4.0,4.0,4.0,4.0,4.0,4.0,4.0,100.0,,,,,,,,,,,,,,,,,,,,,,,,,,,,,,,,,,,40357.0,0.0,0.619647,0.308838,0.297302,0.657471,0.990355,-0.058601,-0.005372,27.5,-25.666666,-23.833334,,,,,,,,,,,,,,,,,,,,,,,,,,,,,,,,,,,,,,,,,,,,,,,,,,,,,,,,,,,,,,,,,,,,,,,,,,,,,,,,,,,,,,,,,,,,,,,,,,,,,,,,,,,,,,,,,,,,,,,,,,,,,,,,,,,,,,,,,,,,,,,,,,,,,,,,,,,,,,,,
1763974508.173932,30358.0,0.0,4437.94873,4450.128418,4587.94873,4632.05127,4481.410156,4559.358887,4598.589844,4448.205078,4641.025879,4526.794922,4565.512695,4580.512695,4613.846191,4464.615234,4452.436035,4568.077148,4604.871582,4600.384766,4567.820313,4461.025879,4460.256348,4620.769043,4573.461426,4563.077148,4524.487305,4638.077148,4444.743652,4619.358887,4563.846191,4477.820313,4601.922852,4574.358887,2988.0,1.0,18.0,2565.0,32019.0,,,,0.0,4.0,4.0,4.0,4.0,4.0,4.0,4.0,4.0,4.0,4.0,4.0,4.0,4.0,4.0,4.0,4.0,4.0,4.0,4.0,4.0,4.0,4.0,4.0,4.0,4.0,4.0,4.0,4.0,4.0,4.0,4.0,4.0,100.0,,,,,,,,,,,,,,,,,,,,,,,,,,,,,,,,,,,,,,,,,,,,,,,,,,,,,,,,,,,,,,,,,,,,,,,,,,,,,,,,,,,,,,,,,,,,,,,,,,,,,,,,,,,,,,,,,,,,,,,,,,,,,,,,,,,,,,,,,,,,,,,,,,,,,,,,,,,,,,,,,,,,,,,,,,,,,,,,,,,,,,,,,,,,,,,,,,,,,,,,,,,,,,
1763974508.177838,30359.0,0.0,4451.282227,4466.282227,4604.871582,4643.717773,4492.563965,4567.820313,4615.256348,4464.102539,4647.94873,4519.871582,4581.666504,4595.641113,4632.307617,4473.717773,4455.384766,4581.282227,4619.230957,4614.743652,4581.794922,4477.94873,4471.666504,4637.179688,4586.794922,4577.563965,4512.179688,4641.794922,4468.589844,4636.794922,4579.358887,4490.256348,4613.077148,4586.153809,2950.0,1.0,18.0,2565.0,32019.0,,,,0.0,4.0,4.0,4.0,4.0,4.0,4.0,4.0,4.0,4.0,4.0,4.0,4.0,4.0,4.0,4.0,4.0,4.0,4.0,4.0,4.0,4.0,4.0,4.0,4.0,4.0,4.0,4.0,4.0,4.0,4.0,4.0,4.0,100.0,,,,,,,,,,,,,,,,,,,,,,,,,,,,,,,,,,,,,,,,,,,,,,,,,,,,,,,,,,,,,,,,,,,,,,,,,,,,,,,,,,,,,,,,,,,,,,,,,,,,,,,,,,,,,,,,,,,,,,,,,,,,,,,,,,,,,,,,,,,,,,,,,,,,,,,,,,,,,,,,,,,,,,,,,,,,,,,,,,,,,,,,,,,,,,,,,,,,,,,,,,,,,,
1763974508.181744,30360.0,0.0,4459.230957,4474.871582,4615.769043,4646.025879,4498.205078,4571.794922,4628.974121,4473.717773,4648.974121,4505.897461,4590.512695,4605.256348,4645.897461,4478.846191,4460.0,4589.615234,4630.256348,4624.487305,4591.410156,4491.282227,4480.512695,4649.230957,4595.897461,4586.666504,4507.179688,4644.487305,4481.282227,4644.743652,4586.538574,4495.512695,4616.282227,4593.589844,2933.0,1.0,18.0,2566.0,32026.0,,,,0.0,4.0,4.0,4.0,4.0,4.0,4.0,4.0,4.0,4.0,4.0,4.0,4.0,4.0,4.0,4.0,4.0,4.0,4.0,4.0,4.0,4.0,4.0,4.0,4.0,4.0,4.0,4.0,4.0,4.0,4.0,4.0,4.0,100.0,,,,,,,,,,,,,,,,,,,,,,,,,,,,,,,,,,,,,,,,,,,,,,,,,,,,,,,,,,,,,,,,,,,,,,,,,,,,,,,,,,,,,,,,,,,,,,,,,,,,,,,,,,,,,,,,,,,,,,,,,,,,,,,,,,,,,,,,,,,,,,,,,,,,,,,,,,,,,,,,,,,,,,,,,,,,,,,,,,,,,,,,,,,,,,,,,,,,,,,,,,,,,,
1763974508.18565,30361.0,0.0,4457.820313,4472.94873,4615.384766,4638.846191,4496.025879,4569.615234,4633.974121,4471.922852,4647.05127,4509.230957,4587.692383,4606.282227,4650.128418,4479.615234,4464.487305,4590.0,4634.230957,4626.666504,4595.256348,4494.230957,4483.974121,4654.358887,4598.461426,4588.846191,4513.589844,4647.05127,4478.717773,4641.538574,4583.846191,4492.436035,4611.666504,4594.102539,2860.0,1.0,18.0,2566.0,32026.0,,,,0.0,4.0,4.0,4.0,4.0,4.0,4.0,4.0,4.0,4.0,4.0,4.0,4.0,4.0,4.0,4.0,4.0,4.0,4.0,4.0,4.0,4.0,4.0,4.0,4.0,4.0,4.0,4.0,4.0,4.0,4.0,4.0,4.0,100.0,,,,,,,,,,,,,,,,,,,,,,,,,,,,,,,,,,,40358.0,0.0,0.619731,0.308716,0.297119,0.657532,0.995727,-0.064949,0.0,27.5,-25.666666,-23.833334,,,,,,,,,,,,,,,,,,,,,,,,,,,,,,,,,,,,,,,,,,,,,,,,,,,,,,,,,,,,,,,,,,,,,,,,,,,,,,,,,,,,,,,,,,,,,,,,,,,,,,,,,,,,,,,,,,,,,,,,,,,,,,,,,,,,,,,,,,,,,,,,,,,,,,,,,,,,,,,,
1763974508.189555,30362.0,1.0,4455.384766,4470.384766,4610.205078,4638.025879,4494.333496,4568.487305,4630.256348,4470.717773,4647.717773,4500.641113,4583.922852,4603.333496,4646.666504,4477.589844,4462.410156,4586.358887,4631.384766,4621.230957,4591.128418,4489.487305,4479.717773,4650.846191,4596.102539,4585.846191,4512.436035,4647.05127,4476.820313,4640.461426,4582.666504,4489.384766,4611.871582,4592.282227,2769.0,1.0,18.0,0.0,0.0,,,,0.0,4.0,4.0,4.0,4.0,4.0,4.0,4.0,4.0,4.0,4.0,4.0,4.0,4.0,4.0,4.0,4.0,4.0,4.0,4.0,4.0,4.0,4.0,4.0,4.0,4.0,4.0,4.0,4.0,4.0,4.0,4.0,4.0,100.0,,,,,,,,,,,,,,,,,,,,,,,,,,,,,,,,,,,,,,,,,,,,,,,,,,,,,,,,,,,,,,,,,,,,,,,,,,,,,,,,,,,,,,,,,,,,,,,,,,,,,,,,,,,,,,,,,,,,,,,,,,,,,,,,,,,,,,,,,,,,,,,,,,,,,,,,,,,,,,,,,,,,,,,,,,,,,,,,,,,,,,,,,,,,,,,,,,,,,,,,,,,,,,
1763974508.193461,30363.0,1.0,4452.94873,4467.820313,4605.025879,4637.205078,4492.641113,4567.358887,4626.538574,4469.512695,4648.384766,4492.05127,4580.153809,4600.384766,4643.205078,4475.563965,4460.333496,4582.717773,4628.538574,4615.794922,4587.0,4484.743652,4475.461426,4647.333496,4593.743652,4582.846191,4511.282227,4647.05127,4474.922852,4639.384766,4581.487305,4486.333496,4612.077148,4590.461426,2991.0,1.0,18.0,0.0,0.0,,,,0.0,4.0,4.0,4.0,4.0,4.0,4.0,4.0,4.0,4.0,4.0,4.0,4.0,4.0,4.0,4.0,4.0,4.0,4.0,4.0,4.0,4.0,4.0,4.0,4.0,4.0,4.0,4.0,4.0,4.0,4.0,4.0,4.0,100.0,,,,,,,,,,,,,,,,,,,,,,,,,,,,,,,,,,,,,,,,,,,,,,,,,,,,,,,,,,,,,,,,,,,,,,,,,,,,,,,,,,,,,,,,,,,,,,,,,,,,,,,,,,,,,,,,,,,,,,,,,,,,,,,,,,,,,,,,,,,,,,,,,,,,,,,,,,,,,,,,,,,,,,,,,,,,,,,,,,,,,,,,,,,,,,,,,,,,,,,,,,,,,,
1763974508.197367,30364.0,1.0,4450.512695,4465.256348,4599.846191,4636.384766,4490.94873,4566.230957,4622.820313,4468.307617,4649.05127,4483.461426,4576.384766,4597.436035,4639.743652,4473.538574,4458.256348,4579.077148,4625.692383,4610.358887,4582.871582,4480.0,4471.205078,4643.820313,4591.384766,4579.846191,4510.128418,4647.05127,4473.025879,4638.307617,4580.307617,4483.282227,4612.282227,4588.641113,2937.0,1.0,18.0,0.0,0.0,,,,0.0,4.0,4.0,4.0,4.0,4.0,4.0,4.0,4.0,4.0,4.0,4.0,4.0,4.0,4.0,4.0,4.0,4.0,4.0,4.0,4.0,4.0,4.0,4.0,4.0,4.0,4.0,4.0,4.0,4.0,4.0,4.0,4.0,100.0,,,,,,,,,,,,,,,,,,,,,,,,,,,,,,,,,,,,,,,,,,,,,,,,,,,,,,,,,,,,,,,,,,,,,,,,,,,,,,,,,,,,,,,,,,,,,,,,,,,,,,,,,,,,,,,,,,,,,,,,,,,,,,,,,,,,,,,,,,,,,,,,,,,,,,,,,,,,,,,,,,,,,,,,,,,,,,,,,,,,,,,,,,,,,,,,,,,,,,,,,,,,,,
1763974508.201273,30365.0,1.0,4448.077148,4462.692383,4594.666504,4635.563965,4489.256348,4565.102539,4619.102539,4467.102539,4649.717773,4474.871582,4572.615234,4594.487305,4636.282227,4471.512695,4456.179688,4575.436035,4622.846191,4604.922852,4578.743652,4475.256348,4466.94873,4640.307617,4589.025879,4576.846191,4508.974121,4647.05127,4471.128418,4637.230957,4579.128418,4480.230957,4612.487305,4586.820313,2790.0,1.0,18.0,0.0,0.0,,,,0.0,4.0,4.0,4.0,4.0,4.0,4.0,4.0,4.0,4.0,4.0,4.0,4.0,4.0,4.0,4.0,4.0,4.0,4.0,4.0,4.0,4.0,4.0,4.0,4.0,4.0,4.0,4.0,4.0,4.0,4.0,4.0,4.0,100.0,,,,,,,,,,,,,,,,,,,,,,,,,,,,,,,,,,,,,,,,,,,,,,,,,,,,,,,,,,,,,,,,,,,,,,,,,,,,,,,,,,,,,,,,,,,,,,,,,,,,,,,,,,,,,,,,,,,,,,,,,,,,,,,,,,,,,,,,,,,,,,,,,,,,,,,,,,,,,,,,,,,,,,,,,,,,,,,,,,,,,,,,,,,,,,,,,,,,,,,,,,,,,,
1763974508.205179,30366.0,0.0,4445.641113,4460.128418,4589.487305,4634.743652,4487.563965,4563.974121,4615.384766,4465.897461,4650.384766,4466.282227,4568.846191,4591.538574,4632.820313,4469.487305,4454.102539,4571.794922,4620.0,4599.487305,4574.615234,4470.512695,4462.692383,4636.794922,4586.666504,4573.846191,4507.820313,4647.05127,4469.230957,4636.153809,4577.94873,4477.179688,4612.692383,4585.0,3035.0,1.0,18.0,2569.0,32050.0,,,,0.0,4.0,4.0,4.0,4.0,4.0,4.0,4.0,4.0,4.0,4.0,4.0,4.0,4.0,4.0,4.0,4.0,4.0,4.0,4.0,4.0,4.0,4.0,4.0,4.0,4.0,4.0,4.0,4.0,4.0,4.0,4.0,4.0,100.0,,,,,,,,,,,,,,,,,,,,,,,,,,,,,,,,,,,,,,,,,,,,,,,,,,,,,,,,,,,,,,,,,,,,,,,,,,,,,,,,,,,,,,,,,,,,,,,,,,,,,,,,,,,,,,,,,,,,,,,,,,,,,,,,,,,,,,,,,,,,,,,,,,,,,,,,,,,,,,,,,,,,,,,,,,,,,,,,,,,,,,,,,,,,,,,,,,,,,,,,,,,,,,
1763974508.209084,30367.0,0.0,4455.384766,4466.282227,4600.384766,4643.461426,4496.282227,4569.102539,4624.358887,4472.94873,4654.358887,4457.05127,4581.025879,4599.871582,4641.922852,4474.358887,4460.641113,4581.025879,4627.820313,4607.563965,4580.0,4481.666504,4465.0,4645.641113,4593.333496,4579.743652,4536.666504,4647.307617,4469.487305,4641.153809,4580.128418,4478.717773,4613.205078,4587.179688,2950.0,1.0,18.0,2569.0,32050.0,,,,0.0,4.0,4.0,4.0,4.0,4.0,4.0,4.0,4.0,4.0,4.0,4.0,4.0,4.0,4.0,4.0,4.0,4.0,4.0,4.0,4.0,4.0,4.0,4.0,4.0,4.0,4.0,4.0,4.0,4.0,4.0,4.0,4.0,100.0,,,,,,,,,,,,,,,,,,,,,,,,,,,,,,,,,,,,,,,,,,,,,,,,,,,,,,,,,,,,,,,,,,,,,,,,,,,,,,,,,,,,,,,,,,,,,,,,,,,,,,,,,,,,,,,,,,,,,,,,,,,,,,,,,,,,,,,,,,,,,,,,,,,,,,,,,,,,,,,,,,,,,,,,,,,,,,,,,,,,,,,,,,,,,,,,,,,,,,,,,,,,,,
1763974508.21299,30368.0,1.0,4451.94873,4464.153809,4599.128418,4638.871582,4493.794922,4567.077148,4619.538574,4468.0,4653.615234,4471.871582,4579.358887,4595.641113,4637.205078,4473.102539,4460.179688,4578.615234,4623.94873,4604.94873,4577.666504,4479.461426,4464.077148,4641.153809,4590.487305,4577.846191,4523.128418,4647.102539,4469.897461,4637.256348,4578.128418,4478.436035,4613.743652,4588.769043,0.0,1.0,18.0,0.0,0.0,,,,0.0,4.0,4.0,4.0,4.0,4.0,4.0,4.0,4.0,4.0,4.0,4.0,4.0,4.0,4.0,4.0,4.0,4.0,4.0,4.0,4.0,4.0,4.0,4.0,4.0,4.0,4.0,4.0,4.0,4.0,4.0,4.0,4.0,100.0,,,,,,,,,,,,,,,,,,,,,,,,,,,,,,,,,,,,,,,,,,,,,,,,,,,,,,,,,,,,,,,,,,,,,,,,,,,,,,,,,,,,,,,,,,,,,,,,,,,,,,,,,,,,,,,,,,,,,,,,,,,,,,,,,,,,,,,,,,,,,,,,,,,,,,,,,,,,,,,,,,,,,,,,,,,,,,,,,,,,,,,,,,,,,,,,,,,,,,,,,,,,,,
1763974508.216896,30369.0,1.0,4448.512695,4462.025879,4597.871582,4634.282227,4491.307617,4565.05127,4614.717773,4463.05127,4652.871582,4486.692383,4577.692383,4591.410156,4632.487305,4471.846191,4459.717773,4576.205078,4620.077148,4602.333496,4575.333496,4477.256348,4463.153809,4636.666504,4587.641113,4575.94873,4509.589844,4646.897461,4470.307617,4633.358887,4576.128418,4478.153809,4614.282227,4590.358887,0.0,1.0,18.0,0.0,0.0,,,,0.0,4.0,4.0,4.0,4.0,4.0,4.0,4.0,4.0,4.0,4.0,4.0,4.0,4.0,4.0,4.0,4.0,4.0,4.0,4.0,4.0,4.0,4.0,4.0,4.0,4.0,4.0,4.0,4.0,4.0,4.0,4.0,4.0,100.0,,,,,,,,,,,,,,,,,,,,,,,,,,,,,,,,,,,40359.0,1.0,0.619683,0.308818,0.29716,0.657511,0.997029,-0.062345,0.002116,27.5,-25.388889,-23.833334,,,,,,,,,,,,,,,,,,,,,,,,,,,,,,,,,,,,,,,,,,,,,,,,,,,,,,,,,,,,,,,,,,,,,,,,,,,,,,,,,,,,,,,,,,,,,,,,,,,,,,,,,,,,,,,,,,,,,,,,,,,,,,,,,,,,,,,,,,,,,,,,,,,,,,,,,,,,,,,,
1763974508.220802,30370.0,1.0,4445.077148,4459.897461,4596.615234,4629.692383,4488.820313,4563.025879,4609.897461,4458.102539,4652.128418,4501.512695,4576.025879,4587.179688,4627.769043,4470.589844,4459.256348,4573.794922,4616.205078,4599.717773,4573.0,4475.05127,4462.230957,4632.179688,4584.794922,4574.05127,4496.05127,4646.692383,4470.717773,4629.461426,4574.128418,4477.871582,4614.820313,4591.94873,0.0,1.0,18.0,0.0,0.0,,,,0.0,4.0,4.0,4.0,4.0,4.0,4.0,4.0,4.0,4.0,4.0,4.0,4.0,4.0,4.0,4.0,4.0,4.0,4.0,4.0,4.0,4.0,4.0,4.0,4.0,4.0,4.0,4.0,4.0,4.0,4.0,4.0,4.0,100.0,,,,,,,,,,,,,,,,,,,,,,,,,,,,,,,,,,,,,,,,,,,,,,,,,,,,,,,,,,,,,,,,,,,,,,,,,,,,,,,,,,,,,,,,,,,,,,,,,,,,,,,,,,,,,,,,,,,,,,,,,,,,,,,,,,,,,,,,,,,,,,,,,,,,,,,,,,,,,,,,,,,,,,,,,,,,,,,,,,,,,,,,,,,,,,,,,,,,,,,,,,,,,,
1763974508.224707,30371.0,1.0,4441.641113,4457.769043,4595.358887,4625.102539,4486.333496,4561.0,4605.077148,4453.153809,4651.384766,4516.333496,4574.358887,4582.94873,4623.05127,4469.333496,4458.794922,4571.384766,4612.333496,4597.102539,4570.666504,4472.846191,4461.307617,4627.692383,4581.94873,4572.153809,4482.512695,4646.487305,4471.128418,4625.563965,4572.128418,4477.589844,4615.358887,4593.538574,0.0,1.0,18.0,0.0,0.0,,,,0.0,4.0,4.0,4.0,4.0,4.0,4.0,4.0,4.0,4.0,4.0,4.0,4.0,4.0,4.0,4.0,4.0,4.0,4.0,4.0,4.0,4.0,4.0,4.0,4.0,4.0,4.0,4.0,4.0,4.0,4.0,4.0,4.0,100.0,,,,,,,,,,,,,,,,,,,,,,,,,,,,,,,,,,,40360.0,1.0,0.619634,0.308919,0.297201,0.657491,0.998331,-0.05974,0.004232,27.5,-25.111111,-23.833334,,,,,,,,,,,,,,,,,,,,,,,,,,,,,,,,,,,,,,,,,,,,,,,,,,,,,,,,,,,,,,,,,,,,,,,,,,,,,,,,,,,,,,,,,,,,,,,,,,,,,,,,,,,,,,,,,,,,,,,,,,,,,,,,,,,,,,,,,,,,,,,,,,,,,,,,,,,,,,,,
1763974508.228613,30372.0,0.0,4438.205078,4455.641113,4594.102539,4620.512695,4483.846191,4558.974121,4600.256348,4448.205078,4650.641113,4531.153809,4572.692383,4578.717773,4618.333496,4468.077148,4458.333496,4568.974121,4608.461426,4594.487305,4568.333496,4470.641113,4460.384766,4623.205078,4579.102539,4570.256348,4468.974121,4646.282227,4471.538574,4621.666504,4570.128418,4477.307617,4615.897461,4595.128418,2889.0,1.0,18.0,2572.0,32073.0,,,,0.0,4.0,4.0,4.0,4.0,4.0,4.0,4.0,4.0,4.0,4.0,4.0,4.0,4.0,4.0,4.0,4.0,4.0,4.0,4.0,4.0,4.0,4.0,4.0,4.0,4.0,4.0,4.0,4.0,4.0,4.0,4.0,4.0,100.0,,,,,,,,,,,,,,,,,,,,,,,,,,,,,,,,,,,,,,,,,,,,,,,,,,,,,,,,,,,,,,,,,,,,,,,,,,,,,,,,,,,,,,,,,,,,,,,,,,,,,,,,,,,,,,,,,,,,,,,,,,,,,,,,,,,,,,,,,,,,,,,,,,,,,,,,,,,,,,,,,,,,,,,,,,,,,,,,,,,,,,,,,,,,,,,,,,,,,,,,,,,,,,
1763974508.232519,30373.0,0.0,4442.307617,4461.410156,4592.05127,4619.615234,4489.358887,4562.179688,4602.692383,4454.871582,4643.846191,4511.025879,4575.384766,4579.615234,4619.487305,4471.666504,4458.589844,4572.692383,4610.897461,4597.94873,4571.666504,4475.128418,4463.846191,4623.333496,4579.358887,4570.512695,4467.307617,4648.717773,4479.871582,4620.897461,4569.743652,4478.846191,4622.692383,4595.384766,2473.0,1.0,18.0,2572.0,32073.0,,,,0.0,4.0,4.0,4.0,4.0,4.0,4.0,4.0,4.0,4.0,4.0,4.0,4.0,4.0,4.0,4.0,4.0,4.0,4.0,4.0,4.0,4.0,4.0,4.0,4.0,4.0,4.0,4.0,4.0,4.0,4.0,4.0,4.0,100.0,,,,,,,,,,,,,,,,,,,,,,,,,,,,,,,,,,,40361.0,0.0,0.619585,0.309021,0.297241,0.657471,0.999634,-0.057136,0.006348,27.5,-24.833334,-23.833334,,,,,,,,,,,,,,,,,,,,,,,,,,,,,,,,,,,,,,,,,,,,,,,,,,,,,,,,,,,,,,,,,,,,,,,,,,,,,,,,,,,,,,,,,,,,,,,,,,,,,,,,,,,,,,,,,,,,,,,,,,,,,,,,,,,,,,,,,,,,,,,,,,,,,,,,,,,,,,,,
1763974508.236425,30374.0,0.0,4445.384766,4463.461426,4588.717773,4620.512695,4490.641113,4561.794922,4603.717773,4454.230957,4636.025879,4502.563965,4574.743652,4581.025879,4621.794922,4475.0,4456.410156,4574.358887,4611.794922,4599.102539,4567.94873,4477.563965,4461.538574,4624.743652,4578.717773,4570.769043,4492.820313,4646.794922,4476.282227,4617.94873,4565.384766,4477.307617,4621.282227,4590.128418,2996.0,1.0,18.0,2573.0,32081.0,,,,0.0,4.0,4.0,4.0,4.0,4.0,4.0,4.0,4.0,4.0,4.0,4.0,4.0,4.0,4.0,4.0,4.0,4.0,4.0,4.0,4.0,4.0,4.0,4.0,4.0,4.0,4.0,4.0,4.0,4.0,4.0,4.0,4.0,100.0,,,,,,,,,,,,,,,,,,,,,,,,,,,,,,,,,,,,,,,,,,,,,,,,,,,,,,,,,,,,,,,,,,,,,,,,,,,,,,,,,,,,,,,,,,,,,,,,,,,,,,,,,,,,,,,,,,,,,,,,,,,,,,,,,,,,,,,,,,,,,,,,,,,,,,,,,,,,,,,,,,,,,,,,,,,,,,,,,,,,,,,,,,,,,,,,,,,,,,,,,,,,,,
1763974508.240331,30375.0,0.0,4446.666504,4461.794922,4586.922852,4623.846191,4488.077148,4559.871582,4604.102539,4449.358887,4631.153809,4508.333496,4574.230957,4583.077148,4625.128418,4476.538574,4452.307617,4573.589844,4611.538574,4598.461426,4559.487305,4477.179688,4457.307617,4627.179688,4578.846191,4570.512695,4528.077148,4643.461426,4465.897461,4617.179688,4561.410156,4475.769043,4614.230957,4584.102539,2990.0,1.0,18.0,2573.0,32081.0,,,,0.0,4.0,4.0,4.0,4.0,4.0,4.0,4.0,4.0,4.0,4.0,4.0,4.0,4.0,4.0,4.0,4.0,4.0,4.0,4.0,4.0,4.0,4.0,4.0,4.0,4.0,4.0,4.0,4.0,4.0,4.0,4.0,4.0,100.0,,,,,,,,,,,,,,,,,,,,,,,,,,,,,,,,,,,,,,,,,,,,,,,,,,,,,,,,,,,,,,,,,,,,,,,,,,,,,,,,,,,,,,,,,,,,,,,,,,,,,,,,,,,,,,,,,,,,,,,,,,,,,,,,,,,,,,,,,,,,,,,,,,,,,,,,,,,,,,,,,,,,,,,,,,,,,,,,,,,,,,,,,,,,,,,,,,,,,,,,,,,,,,
1763974508.244236,30376.0,0.0,4447.563965,4459.871582,4589.102539,4629.615234,4485.384766,4559.358887,4606.922852,4447.436035,4630.512695,4517.692383,4577.179688,4586.922852,4630.256348,4477.05127,4450.128418,4573.333496,4612.692383,4599.487305,4554.743652,4476.538574,4457.436035,4631.025879,4581.666504,4570.384766,4550.897461,4642.820313,4459.358887,4623.205078,4562.05127,4477.94873,4608.461426,4582.563965,2704.0,1.0,18.0,2569.0,32089.0,,,,0.0,4.0,4.0,4.0,4.0,4.0,4.0,4.0,4.0,4.0,4.0,4.0,4.0,4.0,4.0,4.0,4.0,4.0,4.0,4.0,4.0,4.0,4.0,4.0,4.0,4.0,4.0,4.0,4.0,4.0,4.0,4.0,4.0,100.0,,,,,,,,,,,,,,,,,,,,,,,,,,,,,,,,,,,,,,,,,,,,,,,,,,,,,,,,,,,,,,,,,,,,,,,,,,,,,,,,,,,,,,,,,,,,,,,,,,,,,,,,,,,,,,,,,,,,,,,,,,,,,,,,,,,,,,,,,,,,,,,,,,,,,,,,,,,,,,,,,,,,,,,,,,,,,,,,,,,,,,,,,,,,,,,,,,,,,,,,,,,,,,
1763974508.248142,30377.0,0.0,4448.333496,4459.743652,4593.205078,4634.487305,4485.512695,4561.153809,4612.179688,4451.538574,4631.666504,4516.153809,4580.512695,4590.769043,4635.769043,4476.922852,4452.307617,4575.641113,4616.025879,4604.487305,4560.641113,4477.820313,4464.102539,4635.0,4585.512695,4569.743652,4547.436035,4645.512695,4462.563965,4634.102539,4566.666504,4482.94873,4607.436035,4586.153809,2865.0,1.0,18.0,2569.0,32089.0,,,,0.0,4.0,4.0,4.0,4.0,4.0,4.0,4.0,4.0,4.0,4.0,4.0,4.0,4.0,4.0,4.0,4.0,4.0,4.0,4.0,4.0,4.0,4.0,4.0,4.0,4.0,4.0,4.0,4.0,4.0,4.0,4.0,4.0,100.0,,,,,,,,,,,,,,,,,,,,,,,,,,,,,,,,,,,40362.0,0.0,0.619719,0.308716,0.296875,0.657654,1.002075,-0.064949,0.005372,27.5,-27.166666,-25.166666,,,,,,,,,,,,,,,,,,,,,,,,,,,,,,,,,,,,,,,,,,,,,,,,,,,,,,,,,,,,,,,,,,,,,,,,,,,,,,,,,,,,,,,,,,,,,,,,,,,,,,,,,,,,,,,,,,,,,,,,,,,,,,,,,,,,,,,,,,,,,,,,,,,,,,,,,,,,,,,,
1763974508.252048,30378.0,0.0,4446.922852,4459.230957,4594.487305,4633.974121,4486.538574,4562.05127,4615.769043,4456.794922,4629.615234,4500.128418,4577.692383,4590.769043,4637.820313,4475.641113,4456.666504,4579.102539,4618.717773,4610.897461,4575.769043,4479.230957,4472.94873,4636.410156,4586.025879,4567.179688,4520.256348,4647.692383,4471.282227,4641.794922,4570.0,4486.153809,4608.846191,4589.871582,2706.0,1.0,18.0,2569.0,32097.0,,,,0.0,4.0,4.0,4.0,4.0,4.0,4.0,4.0,4.0,4.0,4.0,4.0,4.0,4.0,4.0,4.0,4.0,4.0,4.0,4.0,4.0,4.0,4.0,4.0,4.0,4.0,4.0,4.0,4.0,4.0,4.0,4.0,4.0,100.0,,,,,,,,,,,,,,,,,,,,,,,,,,,,,,,,,,,,,,,,,,,,,,,,,,,,,,,,,,,,,,,,,,,,,,,,,,,,,,,,,,,,,,,,,,,,,,,,,,,,,,,,,,,,,,,,,,,,,,,,,,,,,,,,,,,,,,,,,,,,,,,,,,,,,,,,,,,,,,,,,,,,,,,,,,,,,,,,,,,,,,,,,,,,,,,,,,,,,,,,,,,,,,
