Timestamp,EEG.Counter,EEG.Interpolated,EEG.Cz,EEG.Fz,EEG.Fp1,EEG.F7,EEG.F3,EEG.FC1,EEG.C3,EEG.FC5,EEG.FT9,EEG.T7,EEG.CP5,EEG.CP1,EEG.P3,EEG.P7,EEG.PO9,EEG.O1,EEG.Pz,EEG.Oz,EEG.O2,EEG.PO10,EEG.P8,EEG.P4,EEG.CP2,EEG.CP6,EEG.T8,EEG.FT10,EEG.FC6,EEG.C4,EEG.FC2,EEG.F4,EEG.F8,EEG.Fp2,EEG.RawCq,EEG.Battery,EEG.BatteryPercent,EEG.FwBufferSize,EEG.FwClockTime,MarkerIndex,MarkerType,MarkerValueInt,EEG.MarkerHardware,CQ.Cz,CQ.Fz,CQ.Fp1,CQ.F7,CQ.F3,CQ.FC1,CQ.C3,CQ.FC5,CQ.FT9,CQ.T7,CQ.CP5,CQ.CP1,CQ.P3,CQ.P7,CQ.PO9,CQ.O1,CQ.Pz,CQ.Oz,CQ.O2,CQ.PO10,CQ.P8,CQ.P4,CQ.CP2,CQ.CP6,CQ.T8,CQ.FT10,CQ.FC6,CQ.C4,CQ.FC2,CQ.F4,CQ.F8,CQ.Fp2,CQ.Overall,EQ.SampleRateQuality,EQ.OVERALL,EQ.Cz,EQ.Fz,EQ.Fp1,EQ.F7,EQ.F3,EQ.FC1,EQ.C3,EQ.FC5,EQ.FT9,EQ.T7,EQ.CP5,EQ.CP1,EQ.P3,EQ.P7,EQ.PO9,EQ.O1,EQ.Pz,EQ.Oz,EQ.O2,EQ.PO10,EQ.P8,EQ.P4,EQ.CP2,EQ.CP6,EQ.T8,EQ.FT10,EQ.FC6,EQ.C4,EQ.FC2,EQ.F4,EQ.F8,EQ.Fp2,MOT.CounterMems,MOT.InterpolatedMems,MOT.Q0,MOT.Q1,MOT.Q2,MOT.Q3,MOT.AccX,MOT.AccY,MOT.AccZ,MOT.MagX,MOT.MagY,MOT.MagZ,POW.Cz.Theta,POW.Cz.Alpha,POW.Cz.BetaL,POW.Cz.BetaH,POW.Cz.Gamma,POW.Fz.Theta,POW.Fz.Alpha,POW.Fz.BetaL,POW.Fz.BetaH,POW.Fz.Gamma,POW.Fp1.Theta,POW.Fp1.Alpha,POW.Fp1.BetaL,POW.Fp1.BetaH,POW.Fp1.Gamma,POW.F7.Theta,POW.F7.Alpha,POW.F7.BetaL,POW.F7.BetaH,POW.F7.Gamma,POW.F3.Theta,POW.F3.Alpha,POW.F3.BetaL,POW.F3.BetaH,POW.F3.Gamma,POW.FC1.Theta,POW.FC1.Alpha,POW.FC1.BetaL,POW.FC1.BetaH,POW.FC1.Gamma,POW.C3.Theta,POW.C3.Alpha,POW.C3.BetaL,POW.C3.BetaH,POW.C3.Gamma,POW.FC5.Theta,POW.FC5.Alpha,POW.FC5.BetaL,POW.FC5.BetaH,POW.FC5.Gamma,POW.FT9.Theta,POW.FT9.Alpha,POW.FT9.BetaL,POW.FT9.BetaH,POW.FT9.Gamma,POW.T7.Theta,POW.T7.Alpha,POW.T7.BetaL,POW.T7.BetaH,POW.T7.Gamma,POW.CP5.Theta,POW.CP5.Alpha,POW.CP5.BetaL,POW.CP5.BetaH,POW.CP5.Gamma,POW.CP1.Theta,POW.CP1.Alpha,POW.CP1.BetaL,POW.CP1.BetaH,POW.CP1.Gamma,POW.P3.Theta,POW.P3.Alpha,POW.P3.BetaL,POW.P3.BetaH,POW.P3.Gamma,POW.P7.Theta,POW.P7.Alpha,POW.P7.BetaL,POW.P7.BetaH,POW.P7.Gamma,POW.PO9.Theta,POW.PO9.Alpha,POW.PO9.BetaL,POW.PO9.BetaH,POW.PO9.Gamma,POW.O1.Theta,POW.O1.Alpha,POW.O1.BetaL,POW.O1.BetaH,POW.O1.Gamma,POW.Pz.Theta,POW.Pz.Alpha,POW.Pz.BetaL,POW.Pz.BetaH,POW.Pz.Gamma,POW.Oz.Theta,POW.Oz.Alpha,POW.Oz.BetaL,POW.Oz.BetaH,POW.Oz.Gamma,POW.O2.Theta,POW.O2.Alpha,POW.O2.BetaL,POW.O2.BetaH,POW.O2.Gamma,POW.PO10.Theta,POW.PO10.Alpha,POW.PO10.BetaL,POW.PO10.BetaH,POW.PO10.Gamma,POW.P8.Theta,POW.P8.Alpha,POW.P8.BetaL,POW.P8.BetaH,POW.P8.Gamma,POW.P4.Theta,POW.P4.Alpha,POW.P4.BetaL,POW.P4.BetaH,POW.P4.Gamma,POW.CP2.Theta,POW.CP2.Alpha,POW.CP2.BetaL,POW.CP2.BetaH,POW.CP2.Gamma,POW.CP6.Theta,POW.CP6.Alpha,POW.CP6.BetaL,POW.CP6.BetaH,POW.CP6.Gamma,POW.T8.Theta,POW.T8.Alpha,POW.T8.BetaL,POW.T8.BetaH,POW.T8.Gamma,POW.FT10.Theta,POW.FT10.Alpha,POW.FT10.BetaL,POW.FT10.BetaH,POW.FT10.Gamma,POW.FC6.Theta,POW.FC6.Alpha,POW.FC6.BetaL,POW.FC6.BetaH,POW.FC6.Gamma,POW.C4.Theta,POW.C4.Alpha,POW.C4.BetaL,POW.C4.BetaH,POW.C4.Gamma,POW.FC2.Theta,POW.FC2.Alpha,POW.FC2.BetaL,POW.FC2.BetaH,POW.FC2.Gamma,POW.F4.Theta,POW.F4.Alpha,POW.F4.BetaL,POW.F4.BetaH,POW.F4.Gamma,POW.F8.Theta,POW.F8.Alpha,POW.F8.BetaL,POW.F8.BetaH,POW.F8.Gamma,POW.Fp2.Theta,POW.Fp2.Alpha,POW.Fp2.BetaL,POW.Fp2.BetaH,POW.Fp2.Gamma
1763976041.353894,29673.0,0.0,4438.077148,4435.0,4519.487305,4569.743652,4423.589844,4572.820313,4601.410156,4457.436035,4586.666504,4296.282227,4561.025879,4561.922852,4604.358887,4358.974121,4395.384766,4489.102539,4596.282227,4534.230957,4530.641113,4393.589844,4407.692383,4592.692383,4556.282227,4504.743652,4421.153809,4615.897461,4408.205078,4590.128418,4533.461426,4425.512695,4571.282227,4514.358887,2872.0,0.0,11.0,256.0,57781.0,3.0,1.0,7.0,0.0,4.0,4.0,4.0,4.0,4.0,4.0,4.0,4.0,4.0,4.0,4.0,4.0,4.0,4.0,4.0,4.0,4.0,4.0,4.0,4.0,4.0,4.0,4.0,4.0,4.0,4.0,4.0,4.0,4.0,4.0,4.0,4.0,100.0,,,,,,,,,,,,,,,,,,,,,,,,,,,,,,,,,,,7418.0,0.0,0.243322,0.641968,0.621643,0.377136,0.984007,-0.104993,0.161641,33.666668,-25.166666,29.333334,,,,,,,,,,,,,,,,,,,,,,,,,,,,,,,,,,,,,,,,,,,,,,,,,,,,,,,,,,,,,,,,,,,,,,,,,,,,,,,,,,,,,,,,,,,,,,,,,,,,,,,,,,,,,,,,,,,,,,,,,,,,,,,,,,,,,,,,,,,,,,,,,,,,,,,,,,,,,,,,
1763976041.3579,29674.0,0.0,4388.846191,4385.897461,4467.94873,4504.615234,4380.0,4533.461426,4536.410156,4390.0,4512.179688,4210.384766,4468.717773,4508.717773,4546.153809,4388.717773,4382.05127,4496.282227,4552.692383,4505.384766,4493.333496,4360.641113,4395.128418,4557.179688,4505.769043,4443.461426,4379.230957,4564.358887,4349.615234,4531.922852,4481.025879,4372.179688,4523.333496,4464.358887,2579.0,0.0,11.0,512.0,57788.0,,,,0.0,4.0,4.0,4.0,4.0,4.0,4.0,4.0,4.0,4.0,4.0,4.0,4.0,4.0,4.0,4.0,4.0,4.0,4.0,4.0,4.0,4.0,4.0,4.0,4.0,4.0,4.0,4.0,4.0,4.0,4.0,4.0,4.0,100.0,,,,,,,,,,,,,,,,,,,,,,,,,,,,,,,,,,,,,,,,,,,,,,,,,,,,,,,,,,,,,,,,,,,,,,,,,,,,,,,,,,,,,,,,,,,,,,,,,,,,,,,,,,,,,,,,,,,,,,,,,,,,,,,,,,,,,,,,,,,,,,,,,,,,,,,,,,,,,,,,,,,,,,,,,,,,,,,,,,,,,,,,,,,,,,,,,,,,,,,,,,,,,,
1763976041.361806,29675.0,0.0,4353.974121,4352.307617,4428.461426,4449.230957,4348.077148,4504.743652,4481.025879,4326.666504,4457.307617,4212.436035,4397.307617,4470.384766,4507.692383,4418.077148,4372.563965,4509.487305,4521.282227,4492.179688,4470.128418,4341.410156,4385.769043,4536.538574,4472.436035,4412.307617,4347.563965,4529.102539,4315.897461,4490.256348,4446.922852,4338.717773,4488.974121,4431.025879,2973.0,0.0,11.0,512.0,57788.0,,,,0.0,4.0,4.0,4.0,4.0,4.0,4.0,4.0,4.0,4.0,4.0,4.0,4.0,4.0,4.0,4.0,4.0,4.0,4.0,4.0,4.0,4.0,4.0,4.0,4.0,4.0,4.0,4.0,4.0,4.0,4.0,4.0,4.0,100.0,,,,,,,,,,,,,,,,,,,,,,,,,,,,,,,,,,,,,,,,,,,,,,,,,,,,,,,,,,,,,,,,,,,,,,,,,,,,,,,,,,,,,,,,,,,,,,,,,,,,,,,,,,,,,,,,,,,,,,,,,,,,,,,,,,,,,,,,,,,,,,,,,,,,,,,,,,,,,,,,,,,,,,,,,,,,,,,,,,,,,,,,,,,,,,,,,,,,,,,,,,,,,,
1763976041.365712,29676.0,0.0,4352.563965,4353.333496,4422.692383,4435.384766,4345.512695,4503.077148,4465.769043,4302.307617,4454.102539,4305.384766,4386.282227,4467.692383,4509.615234,4430.769043,4373.077148,4528.974121,4521.153809,4504.102539,4473.461426,4345.256348,4381.922852,4543.461426,4475.512695,4430.641113,4345.384766,4531.153809,4328.205078,4488.846191,4449.487305,4344.358887,4490.128418,4433.333496,2987.0,0.0,11.0,768.0,57796.0,,,,0.0,4.0,4.0,4.0,4.0,4.0,4.0,4.0,4.0,4.0,4.0,4.0,4.0,4.0,4.0,4.0,4.0,4.0,4.0,4.0,4.0,4.0,4.0,4.0,4.0,4.0,4.0,4.0,4.0,4.0,4.0,4.0,4.0,100.0,,,,,,,,,,,,,,,,,,,,,,,,,,,,,,,,,,,,,,,,,,,,,,,,,,,,,,,,,,,,,,,,,,,,,,,,,,,,,,,,,,,,,,,,,,,,,,,,,,,,,,,,,,,,,,,,,,,,,,,,,,,,,,,,,,,,,,,,,,,,,,,,,,,,,,,,,,,,,,,,,,,,,,,,,,,,,,,,,,,,,,,,,,,,,,,,,,,,,,,,,,,,,,
1763976041.369618,29677.0,0.0,4381.282227,4384.487305,4449.230957,4466.410156,4369.743652,4525.897461,4494.230957,4324.871582,4499.871582,4431.922852,4434.871582,4497.436035,4545.641113,4424.358887,4384.102539,4547.179688,4549.358887,4533.077148,4497.94873,4366.410156,4380.897461,4571.922852,4509.487305,4485.128418,4369.230957,4564.615234,4377.692383,4525.128418,4482.94873,4381.794922,4524.230957,4466.282227,2659.0,0.0,11.0,768.0,57796.0,,,,0.0,4.0,4.0,4.0,4.0,4.0,4.0,4.0,4.0,4.0,4.0,4.0,4.0,4.0,4.0,4.0,4.0,4.0,4.0,4.0,4.0,4.0,4.0,4.0,4.0,4.0,4.0,4.0,4.0,4.0,4.0,4.0,4.0,100.0,,,,,,,,,,,,,,,,,,,,,,,,,,,,,,,,,,,7419.0,0.0,0.243181,0.641724,0.621765,0.377441,0.984007,-0.104993,0.161641,33.5,-27.333334,30.0,,,,,,,,,,,,,,,,,,,,,,,,,,,,,,,,,,,,,,,,,,,,,,,,,,,,,,,,,,,,,,,,,,,,,,,,,,,,,,,,,,,,,,,,,,,,,,,,,,,,,,,,,,,,,,,,,,,,,,,,,,,,,,,,,,,,,,,,,,,,,,,,,,,,,,,,,,,,,,,,
1763976041.373524,29678.0,0.0,4418.333496,4421.922852,4486.410156,4517.563965,4401.025879,4554.615234,4543.077148,4373.333496,4560.897461,4514.743652,4507.307617,4537.563965,4591.025879,4407.692383,4398.077148,4552.436035,4585.256348,4561.282227,4527.692383,4390.256348,4382.436035,4603.717773,4550.512695,4538.589844,4398.717773,4602.820313,4432.05127,4572.563965,4522.436035,4422.692383,4566.666504,4505.769043,2737.0,0.0,11.0,1024.0,57804.0,,,,0.0,4.0,4.0,4.0,4.0,4.0,4.0,4.0,4.0,4.0,4.0,4.0,4.0,4.0,4.0,4.0,4.0,4.0,4.0,4.0,4.0,4.0,4.0,4.0,4.0,4.0,4.0,4.0,4.0,4.0,4.0,4.0,4.0,100.0,,,,,,,,,,,,,,,,,,,,,,,,,,,,,,,,,,,,,,,,,,,,,,,,,,,,,,,,,,,,,,,,,,,,,,,,,,,,,,,,,,,,,,,,,,,,,,,,,,,,,,,,,,,,,,,,,,,,,,,,,,,,,,,,,,,,,,,,,,,,,,,,,,,,,,,,,,,,,,,,,,,,,,,,,,,,,,,,,,,,,,,,,,,,,,,,,,,,,,,,,,,,,,
1763976041.37743,29679.0,0.0,4440.256348,4440.641113,4509.743652,4554.615234,4418.846191,4568.974121,4580.769043,4414.871582,4597.94873,4509.871582,4559.487305,4563.974121,4620.641113,4392.307617,4405.128418,4540.641113,4607.05127,4575.256348,4548.205078,4404.487305,4390.384766,4621.794922,4573.461426,4559.487305,4417.94873,4620.641113,4457.307617,4600.641113,4543.077148,4440.256348,4589.358887,4527.05127,2894.0,0.0,11.0,1024.0,57804.0,,,,0.0,4.0,4.0,4.0,4.0,4.0,4.0,4.0,4.0,4.0,4.0,4.0,4.0,4.0,4.0,4.0,4.0,4.0,4.0,4.0,4.0,4.0,4.0,4.0,4.0,4.0,4.0,4.0,4.0,4.0,4.0,4.0,4.0,100.0,,,,,,,,,,,,,,,,,,,,,,,,,,,,,,,,,,,,,,,,,,,,,,,,,,,,,,,,,,,,,,,,,,,,,,,,,,,,,,,,,,,,,,,,,,,,,,,,,,,,,,,,,,,,,,,,,,,,,,,,,,,,,,,,,,,,,,,,,,,,,,,,,,,,,,,,,,,,,,,,,,,,,,,,,,,,,,,,,,,,,,,,,,,,,,,,,,,,,,,,,,,,,,
1763976041.381336,29680.0,0.0,4437.94873,4432.692383,4508.589844,4557.94873,4415.897461,4561.794922,4588.333496,4426.922852,4593.077148,4435.128418,4565.641113,4565.897461,4623.974121,4387.436035,4402.436035,4523.717773,4606.538574,4575.0,4554.743652,4407.436035,4407.179688,4621.794922,4570.384766,4543.717773,4426.666504,4613.077148,4441.538574,4595.897461,4537.179688,4427.820313,4581.538574,4522.05127,2979.0,0.0,11.0,1280.0,57812.0,,,,0.0,4.0,4.0,4.0,4.0,4.0,4.0,4.0,4.0,4.0,4.0,4.0,4.0,4.0,4.0,4.0,4.0,4.0,4.0,4.0,4.0,4.0,4.0,4.0,4.0,4.0,4.0,4.0,4.0,4.0,4.0,4.0,4.0,100.0,,,,,,,,,,,,,,,,,,,,,,,,,,,,,,,,,,,,,,,,,,,,,,,,,,,,,,,,,,,,,,,,,,,,,,,,,,,,,,,,,,,,,,,,,,,,,,,,,,,,,,,,,,,,,,,,,,,,,,,,,,,,,,,,,,,,,,,,,,,,,,,,,,,,,,,,,,,,,,,,,,,,,,,,,,,,,,,,,,,,,,,,,,,,,,,,,,,,,,,,,,,,,,
1763976041.385242,29681.0,0.0,4420.897461,4411.153809,4492.820313,4534.230957,4401.538574,4542.94873,4569.615234,4410.512695,4558.974121,4353.077148,4533.205078,4551.025879,4608.846191,4396.666504,4397.179688,4520.769043,4592.563965,4571.922852,4553.589844,4407.307617,4428.846191,4613.205078,4553.461426,4516.025879,4435.128418,4597.05127,4403.205078,4570.769043,4517.692383,4401.794922,4557.05127,4502.820313,2969.0,0.0,11.0,1280.0,57812.0,,,,0.0,4.0,4.0,4.0,4.0,4.0,4.0,4.0,4.0,4.0,4.0,4.0,4.0,4.0,4.0,4.0,4.0,4.0,4.0,4.0,4.0,4.0,4.0,4.0,4.0,4.0,4.0,4.0,4.0,4.0,4.0,4.0,4.0,100.0,,,,,,,,,,,,,,,,,,,,,,,,,,,,,,,,,,,7420.0,0.0,0.243383,0.641418,0.621704,0.37793,0.964962,-0.099622,0.159199,32.166668,-26.666666,28.666666,,,,,,,,,,,,,,,,,,,,,,,,,,,,,,,,,,,,,,,,,,,,,,,,,,,,,,,,,,,,,,,,,,,,,,,,,,,,,,,,,,,,,,,,,,,,,,,,,,,,,,,,,,,,,,,,,,,,,,,,,,,,,,,,,,,,,,,,,,,,,,,,,,,,,,,,,,,,,,,,
1763976041.389148,29682.0,0.0,4408.846191,4398.846191,4482.563965,4510.0,4392.94873,4531.666504,4547.05127,4387.563965,4528.461426,4322.307617,4495.641113,4538.333496,4594.871582,4416.153809,4400.384766,4541.282227,4582.692383,4578.205078,4554.615234,4414.743652,4447.436035,4610.256348,4544.487305,4508.461426,4449.487305,4594.615234,4376.410156,4552.436035,4506.922852,4387.94873,4541.922852,4490.897461,2854.0,0.0,11.0,1536.0,57820.0,,,,0.0,4.0,4.0,4.0,4.0,4.0,4.0,4.0,4.0,4.0,4.0,4.0,4.0,4.0,4.0,4.0,4.0,4.0,4.0,4.0,4.0,4.0,4.0,4.0,4.0,4.0,4.0,4.0,4.0,4.0,4.0,4.0,4.0,100.0,,,,,,,,,,,,,,,,,,,,,,,,,,,,,,,,,,,,,,,,,,,,,,,,,,,,,,,,,,,,,,,,,,,,,,,,,,,,,,,,,,,,,,,,,,,,,,,,,,,,,,,,,,,,,,,,,,,,,,,,,,,,,,,,,,,,,,,,,,,,,,,,,,,,,,,,,,,,,,,,,,,,,,,,,,,,,,,,,,,,,,,,,,,,,,,,,,,,,,,,,,,,,,
1763976041.393054,29683.0,0.0,4415.0,4408.846191,4490.769043,4508.717773,4400.897461,4540.128418,4543.461426,4382.820313,4527.436035,4354.230957,4486.282227,4541.922852,4598.205078,4433.974121,4414.358887,4574.358887,4588.589844,4595.384766,4563.333496,4431.666504,4457.307617,4619.871582,4555.128418,4532.436035,4464.102539,4613.461426,4384.230957,4559.615234,4517.692383,4399.871582,4551.794922,4498.717773,3062.0,0.0,11.0,1536.0,57820.0,,,,0.0,4.0,4.0,4.0,4.0,4.0,4.0,4.0,4.0,4.0,4.0,4.0,4.0,4.0,4.0,4.0,4.0,4.0,4.0,4.0,4.0,4.0,4.0,4.0,4.0,4.0,4.0,4.0,4.0,4.0,4.0,4.0,4.0,100.0,,,,,,,,,,,,,,,,,,,,,,,,,,,,,,,,,,,,,,,,,,,,,,,,,,,,,,,,,,,,,,,,,,,,,,,,,,,,,,,,,,,,,,,,,,,,,,,,,,,,,,,,,,,,,,,,,,,,,,,,,,,,,,,,,,,,,,,,,,,,,,,,,,,,,,,,,,,,,,,,,,,,,,,,,,,,,,,,,,,,,,,,,,,,,,,,,,,,,,,,,,,,,,
1763976041.39696,29684.0,0.0,4434.102539,4432.692383,4511.282227,4531.153809,4419.487305,4562.307617,4562.05127,4402.179688,4555.512695,4410.0,4510.128418,4559.230957,4616.282227,4438.333496,4430.128418,4597.692383,4604.871582,4612.436035,4575.641113,4448.461426,4458.333496,4634.871582,4576.410156,4567.820313,4465.641113,4639.615234,4419.487305,4585.384766,4541.922852,4427.179688,4577.820313,4519.615234,3012.0,0.0,11.0,1792.0,57827.0,,,,0.0,4.0,4.0,4.0,4.0,4.0,4.0,4.0,4.0,4.0,4.0,4.0,4.0,4.0,4.0,4.0,4.0,4.0,4.0,4.0,4.0,4.0,4.0,4.0,4.0,4.0,4.0,4.0,4.0,4.0,4.0,4.0,4.0,100.0,,,,,,,,,,,,,,,,,,,,,,,,,,,,,,,,,,,,,,,,,,,,,,,,,,,,,,,,,,,,,,,,,,,,,,,,,,,,,,,,,,,,,,,,,,,,,,,,,,,,,,,,,,,,,,,,,,,,,,,,,,,,,,,,,,,,,,,,,,,,,,,,,,,,,,,,,,,,,,,,,,,,,,,,,,,,,,,,,,,,,,,,,,,,,,,,,,,,,,,,,,,,,,
1763976041.400866,29685.0,0.0,4447.307617,4448.205078,4524.358887,4555.512695,4431.538574,4578.974121,4583.717773,4427.820313,4587.179688,4437.820313,4541.153809,4572.563965,4629.102539,4427.05127,4435.769043,4593.974121,4613.846191,4613.974121,4581.666504,4450.512695,4452.820313,4639.743652,4586.410156,4581.153809,4445.256348,4649.358887,4451.794922,4605.0,4558.205078,4445.0,4595.384766,4534.358887,2938.0,0.0,11.0,1792.0,57827.0,,,,0.0,4.0,4.0,4.0,4.0,4.0,4.0,4.0,4.0,4.0,4.0,4.0,4.0,4.0,4.0,4.0,4.0,4.0,4.0,4.0,4.0,4.0,4.0,4.0,4.0,4.0,4.0,4.0,4.0,4.0,4.0,4.0,4.0,100.0,,,,,,,,,,,,,,,,,,,,,,,,,,,,,,,,,,,7421.0,0.0,0.243533,0.640991,0.621826,0.378357,0.960566,-0.112318,0.168966,32.166668,-26.666666,28.666666,,,,,,,,,,,,,,,,,,,,,,,,,,,,,,,,,,,,,,,,,,,,,,,,,,,,,,,,,,,,,,,,,,,,,,,,,,,,,,,,,,,,,,,,,,,,,,,,,,,,,,,,,,,,,,,,,,,,,,,,,,,,,,,,,,,,,,,,,,,,,,,,,,,,,,,,,,,,,,,,
1763976041.404772,29686.0,0.0,4440.0,4439.871582,4515.256348,4558.846191,4424.743652,4574.871582,4586.538574,4436.153809,4595.512695,4416.794922,4547.94873,4566.538574,4618.205078,4409.487305,4427.05127,4564.230957,4602.05127,4593.974121,4574.102539,4432.307617,4442.563965,4626.282227,4571.794922,4556.538574,4410.256348,4631.922852,4455.256348,4599.615234,4551.025879,4437.05127,4587.307617,4528.846191,3014.0,0.0,11.0,2048.0,57835.0,,,,0.0,4.0,4.0,4.0,4.0,4.0,4.0,4.0,4.0,4.0,4.0,4.0,4.0,4.0,4.0,4.0,4.0,4.0,4.0,4.0,4.0,4.0,4.0,4.0,4.0,4.0,4.0,4.0,4.0,4.0,4.0,4.0,4.0,100.0,,,,,,,,,,,,,,,,,,,,,,,,,,,,,,,,,,,,,,,,,,,,,,,,,,,,,,,,,,,,,,,,,,,,,,,,,,,,,,,,,,,,,,,,,,,,,,,,,,,,,,,,,,,,,,,,,,,,,,,,,,,,,,,,,,,,,,,,,,,,,,,,,,,,,,,,,,,,,,,,,,,,,,,,,,,,,,,,,,,,,,,,,,,,,,,,,,,,,,,,,,,,,,
1763976041.408678,29687.0,0.0,4415.641113,4413.333496,4488.333496,4537.179688,4402.692383,4552.820313,4566.025879,4419.358887,4574.230957,4369.102539,4523.589844,4542.820313,4586.025879,4397.692383,4409.615234,4525.769043,4573.846191,4562.179688,4554.743652,4402.820313,4428.589844,4602.436035,4540.641113,4511.410156,4381.922852,4598.717773,4428.974121,4574.230957,4524.358887,4409.358887,4559.615234,4507.179688,2965.0,0.0,11.0,2048.0,57835.0,,,,0.0,4.0,4.0,4.0,4.0,4.0,4.0,4.0,4.0,4.0,4.0,4.0,4.0,4.0,4.0,4.0,4.0,4.0,4.0,4.0,4.0,4.0,4.0,4.0,4.0,4.0,4.0,4.0,4.0,4.0,4.0,4.0,4.0,100.0,,,,,,,,,,,,,,,,,,,,,,,,,,,,,,,,,,,,,,,,,,,,,,,,,,,,,,,,,,,,,,,,,,,,,,,,,,,,,,,,,,,,,,,,,,,,,,,,,,,,,,,,,,,,,,,,,,,,,,,,,,,,,,,,,,,,,,,,,,,,,,,,,,,,,,,,,,,,,,,,,,,,,,,,,,,,,,,,,,,,,,,,,,,,,,,,,,,,,,,,,,,,,,
1763976041.412584,29688.0,0.0,4391.922852,4388.461426,4462.436035,4506.666504,4380.769043,4529.615234,4538.589844,4390.128418,4539.230957,4334.102539,4488.205078,4517.436035,4553.974121,4397.307617,4394.102539,4499.743652,4547.563965,4535.769043,4533.589844,4378.461426,4412.436035,4585.128418,4514.358887,4480.256348,4379.615234,4572.436035,4394.102539,4550.641113,4497.436035,4382.563965,4534.102539,4485.512695,2851.0,0.0,11.0,2304.0,57843.0,,,,0.0,4.0,4.0,4.0,4.0,4.0,4.0,4.0,4.0,4.0,4.0,4.0,4.0,4.0,4.0,4.0,4.0,4.0,4.0,4.0,4.0,4.0,4.0,4.0,4.0,4.0,4.0,4.0,4.0,4.0,4.0,4.0,4.0,100.0,,,,,,,,,,,,,,,,,,,,,,,,,,,,,,,,,,,,,,,,,,,,,,,,,,,,,,,,,,,,,,,,,,,,,,,,,,,,,,,,,,,,,,,,,,,,,,,,,,,,,,,,,,,,,,,,,,,,,,,,,,,,,,,,,,,,,,,,,,,,,,,,,,,,,,,,,,,,,,,,,,,,,,,,,,,,,,,,,,,,,,,,,,,,,,,,,,,,,,,,,,,,,,
1763976041.41649,29689.0,0.0,4383.205078,4380.0,4452.563965,4486.410156,4372.307617,4519.102539,4523.077148,4367.692383,4511.922852,4334.487305,4466.666504,4505.384766,4542.307617,4404.871582,4386.794922,4496.410156,4538.461426,4526.153809,4520.0,4368.077148,4397.179688,4583.589844,4507.692383,4482.692383,4402.436035,4566.666504,4371.538574,4544.615234,4485.384766,4371.153809,4526.025879,4475.256348,2880.0,0.0,11.0,2304.0,57843.0,,,,0.0,4.0,4.0,4.0,4.0,4.0,4.0,4.0,4.0,4.0,4.0,4.0,4.0,4.0,4.0,4.0,4.0,4.0,4.0,4.0,4.0,4.0,4.0,4.0,4.0,4.0,4.0,4.0,4.0,4.0,4.0,4.0,4.0,100.0,,,,,,,,,,,,,,,,,,,,,,,,,,,,,,,,,,,7422.0,0.0,0.243776,0.640564,0.621948,0.378723,0.975705,-0.100598,0.173849,32.5,-26.0,29.333334,,,,,,,,,,,,,,,,,,,,,,,,,,,,,,,,,,,,,,,,,,,,,,,,,,,,,,,,,,,,,,,,,,,,,,,,,,,,,,,,,,,,,,,,,,,,,,,,,,,,,,,,,,,,,,,,,,,,,,,,,,,,,,,,,,,,,,,,,,,,,,,,,,,,,,,,,,,,,,,,
1763976041.420396,29690.0,0.0,4388.717773,4385.512695,4457.05127,4482.05127,4376.666504,4520.769043,4524.102539,4360.897461,4502.94873,4363.717773,4467.179688,4507.820313,4552.94873,4413.333496,4384.743652,4508.846191,4545.512695,4530.384766,4516.282227,4368.205078,4388.077148,4591.282227,4515.897461,4506.538574,4428.974121,4575.256348,4365.0,4551.153809,4487.820313,4372.307617,4530.769043,4473.846191,2755.0,0.0,11.0,2048.0,57851.0,,,,0.0,4.0,4.0,4.0,4.0,4.0,4.0,4.0,4.0,4.0,4.0,4.0,4.0,4.0,4.0,4.0,4.0,4.0,4.0,4.0,4.0,4.0,4.0,4.0,4.0,4.0,4.0,4.0,4.0,4.0,4.0,4.0,4.0,100.0,,,,,,,,,,,,,,,,,,,,,,,,,,,,,,,,,,,,,,,,,,,,,,,,,,,,,,,,,,,,,,,,,,,,,,,,,,,,,,,,,,,,,,,,,,,,,,,,,,,,,,,,,,,,,,,,,,,,,,,,,,,,,,,,,,,,,,,,,,,,,,,,,,,,,,,,,,,,,,,,,,,,,,,,,,,,,,,,,,,,,,,,,,,,,,,,,,,,,,,,,,,,,,
1763976041.424302,29691.0,0.0,4396.410156,4391.153809,4463.974121,4486.794922,4383.205078,4523.974121,4532.436035,4365.512695,4509.487305,4398.461426,4481.025879,4515.384766,4571.666504,4415.641113,4380.128418,4520.897461,4555.512695,4536.153809,4516.538574,4370.128418,4389.487305,4593.846191,4523.077148,4521.794922,4434.743652,4581.922852,4364.358887,4552.563965,4493.077148,4373.205078,4532.179688,4471.666504,3021.0,0.0,11.0,2048.0,57851.0,,,,0.0,4.0,4.0,4.0,4.0,4.0,4.0,4.0,4.0,4.0,4.0,4.0,4.0,4.0,4.0,4.0,4.0,4.0,4.0,4.0,4.0,4.0,4.0,4.0,4.0,4.0,4.0,4.0,4.0,4.0,4.0,4.0,4.0,100.0,,,,,,,,,,,,,,,,,,,,,,,,,,,,,,,,,,,,,,,,,,,,,,,,,,,,,,,,,,,,,,,,,,,,,,,,,,,,,,,,,,,,,,,,,,,,,,,,,,,,,,,,,,,,,,,,,,,,,,,,,,,,,,,,,,,,,,,,,,,,,,,,,,,,,,,,,,,,,,,,,,,,,,,,,,,,,,,,,,,,,,,,,,,,,,,,,,,,,,,,,,,,,,
1763976041.428208,29692.0,0.0,4397.179688,4387.94873,4464.358887,4491.410156,4383.974121,4520.897461,4538.205078,4373.205078,4522.94873,4417.94873,4496.794922,4519.615234,4583.205078,4407.563965,4369.871582,4520.641113,4557.436035,4533.077148,4513.077148,4370.128418,4400.897461,4584.743652,4519.102539,4510.128418,4411.794922,4577.307617,4361.538574,4539.743652,4492.307617,4367.179688,4522.05127,4464.487305,2134.0,0.0,11.0,1280.0,57859.0,,,,0.0,4.0,4.0,4.0,4.0,4.0,4.0,4.0,4.0,4.0,4.0,4.0,4.0,4.0,4.0,4.0,4.0,4.0,4.0,4.0,4.0,4.0,4.0,4.0,4.0,4.0,4.0,4.0,4.0,4.0,4.0,4.0,4.0,100.0,,,,,,,,,,,,,,,,,,,,,,,,,,,,,,,,,,,,,,,,,,,,,,,,,,,,,,,,,,,,,,,,,,,,,,,,,,,,,,,,,,,,,,,,,,,,,,,,,,,,,,,,,,,,,,,,,,,,,,,,,,,,,,,,,,,,,,,,,,,,,,,,,,,,,,,,,,,,,,,,,,,,,,,,,,,,,,,,,,,,,,,,,,,,,,,,,,,,,,,,,,,,,,
1763976041.432114,29693.0,0.0,4392.307617,4379.871582,4460.256348,4493.205078,4380.128418,4514.230957,4540.384766,4380.256348,4535.512695,4412.436035,4508.974121,4519.615234,4582.563965,4389.615234,4360.128418,4509.615234,4551.282227,4521.794922,4503.333496,4371.410156,4413.974121,4570.641113,4508.461426,4480.769043,4373.717773,4566.922852,4359.487305,4522.179688,4488.077148,4359.743652,4508.333496,4458.333496,2803.0,0.0,11.0,1280.0,57859.0,,,,0.0,4.0,4.0,4.0,4.0,4.0,4.0,4.0,4.0,4.0,4.0,4.0,4.0,4.0,4.0,4.0,4.0,4.0,4.0,4.0,4.0,4.0,4.0,4.0,4.0,4.0,4.0,4.0,4.0,4.0,4.0,4.0,4.0,100.0,,,,,,,,,,,,,,,,,,,,,,,,,,,,,,,,,,,7423.0,0.0,0.244135,0.640198,0.621887,0.379211,0.991332,-0.109877,0.158222,33.166668,-26.333334,28.833334,,,,,,,,,,,,,,,,,,,,,,,,,,,,,,,,,,,,,,,,,,,,,,,,,,,,,,,,,,,,,,,,,,,,,,,,,,,,,,,,,,,,,,,,,,,,,,,,,,,,,,,,,,,,,,,,,,,,,,,,,,,,,,,,,,,,,,,,,,,,,,,,,,,,,,,,,,,,,,,,
1763976041.43602,29694.0,0.0,4389.102539,4376.538574,4458.461426,4494.102539,4377.94873,4510.769043,4542.179688,4385.769043,4541.153809,4385.128418,4514.358887,4518.333496,4572.94873,4367.94873,4360.641113,4500.128418,4544.743652,4511.666504,4492.563965,4376.794922,4416.153809,4564.230957,4502.692383,4460.0,4345.641113,4561.666504,4364.871582,4516.922852,4487.820313,4360.384766,4503.717773,4460.512695,3039.0,0.0,11.0,256.0,57866.0,,,,0.0,4.0,4.0,4.0,4.0,4.0,4.0,4.0,4.0,4.0,4.0,4.0,4.0,4.0,4.0,4.0,4.0,4.0,4.0,4.0,4.0,4.0,4.0,4.0,4.0,4.0,4.0,4.0,4.0,4.0,4.0,4.0,4.0,100.0,,,,,,,,,,,,,,,,,,,,,,,,,,,,,,,,,,,,,,,,,,,,,,,,,,,,,,,,,,,,,,,,,,,,,,,,,,,,,,,,,,,,,,,,,,,,,,,,,,,,,,,,,,,,,,,,,,,,,,,,,,,,,,,,,,,,,,,,,,,,,,,,,,,,,,,,,,,,,,,,,,,,,,,,,,,,,,,,,,,,,,,,,,,,,,,,,,,,,,,,,,,,,,
1763976041.439926,29695.0,0.0,4390.256348,4381.282227,4461.153809,4493.846191,4380.128418,4512.179688,4542.820313,4386.666504,4536.794922,4349.487305,4507.05127,4515.769043,4558.205078,4353.461426,4373.333496,4502.307617,4542.94873,4511.025879,4488.333496,4382.436035,4400.512695,4569.871582,4506.282227,4465.0,4344.743652,4564.871582,4375.769043,4529.230957,4493.461426,4370.384766,4511.282227,4470.128418,2935.0,0.0,11.0,256.0,57866.0,,,,0.0,4.0,4.0,4.0,4.0,4.0,4.0,4.0,4.0,4.0,4.0,4.0,4.0,4.0,4.0,4.0,4.0,4.0,4.0,4.0,4.0,4.0,4.0,4.0,4.0,4.0,4.0,4.0,4.0,4.0,4.0,4.0,4.0,100.0,,,,,,,,,,,,,,,,,,,,,,,,,,,,,,,,,,,,,,,,,,,,,,,,,,,,,,,,,,,,,,,,,,,,,,,,,,,,,,,,,,,,,,,,,,,,,,,,,,,,,,,,,,,,,,,,,,,,,,,,,,,,,,,,,,,,,,,,,,,,,,,,,,,,,,,,,,,,,,,,,,,,,,,,,,,,,,,,,,,,,,,,,,,,,,,,,,,,,,,,,,,,,,
1763976041.443832,29696.0,0.0,4391.666504,4388.205078,4463.974121,4491.025879,4383.461426,4514.230957,4537.179688,4379.615234,4524.358887,4323.974121,4484.102539,4509.615234,4541.922852,4354.487305,4389.230957,4515.769043,4544.230957,4520.512695,4494.102539,4381.538574,4373.205078,4580.0,4513.589844,4489.358887,4366.922852,4570.256348,4383.077148,4547.820313,4499.102539,4381.794922,4522.692383,4478.077148,2882.0,0.0,11.0,256.0,57874.0,,,,0.0,4.0,4.0,4.0,4.0,4.0,4.0,4.0,4.0,4.0,4.0,4.0,4.0,4.0,4.0,4.0,4.0,4.0,4.0,4.0,4.0,4.0,4.0,4.0,4.0,4.0,4.0,4.0,4.0,4.0,4.0,4.0,4.0,100.0,,,,,,,,,,,,,,,,,,,,,,,,,,,,,,,,,,,,,,,,,,,,,,,,,,,,,,,,,,,,,,,,,,,,,,,,,,,,,,,,,,,,,,,,,,,,,,,,,,,,,,,,,,,,,,,,,,,,,,,,,,,,,,,,,,,,,,,,,,,,,,,,,,,,,,,,,,,,,,,,,,,,,,,,,,,,,,,,,,,,,,,,,,,,,,,,,,,,,,,,,,,,,,
1763976041.447738,29697.0,0.0,4390.769043,4391.666504,4464.102539,4487.820313,4385.769043,4514.102539,4525.512695,4368.077148,4513.205078,4323.077148,4455.128418,4501.538574,4531.282227,4371.153809,4396.922852,4530.897461,4545.897461,4534.615234,4508.333496,4375.0,4353.717773,4585.0,4517.820313,4513.589844,4392.436035,4572.05127,4382.692383,4558.589844,4500.384766,4387.820313,4530.128418,4479.358887,2980.0,0.0,11.0,256.0,57874.0,,,,0.0,4.0,4.0,4.0,4.0,4.0,4.0,4.0,4.0,4.0,4.0,4.0,4.0,4.0,4.0,4.0,4.0,4.0,4.0,4.0,4.0,4.0,4.0,4.0,4.0,4.0,4.0,4.0,4.0,4.0,4.0,4.0,4.0,100.0,,,,,,,,,,,,,,,,,,,,,,,,,,,,,,,,,,,7424.0,0.0,0.244452,0.639893,0.621704,0.379822,0.980588,-0.10597,0.176779,31.166666,-26.333334,28.833334,,,,,,,,,,,,,,,,,,,,,,,,,,,,,,,,,,,,,,,,,,,,,,,,,,,,,,,,,,,,,,,,,,,,,,,,,,,,,,,,,,,,,,,,,,,,,,,,,,,,,,,,,,,,,,,,,,,,,,,,,,,,,,,,,,,,,,,,,,,,,,,,,,,,,,,,,,,,,,,,
1763976041.451544,29698.0,0.0,4392.94873,4395.128418,4467.692383,4493.205078,4391.410156,4516.922852,4520.0,4366.153809,4517.179688,4349.615234,4443.461426,4501.410156,4538.077148,4396.282227,4395.0,4539.743652,4551.153809,4549.615234,4527.05127,4374.230957,4362.692383,4585.128418,4522.05127,4525.512695,4404.615234,4574.743652,4383.333496,4560.384766,4502.179688,4392.179688,4537.179688,4479.743652,2296.0,0.0,11.0,256.0,57882.0,,,,0.0,4.0,4.0,4.0,4.0,4.0,4.0,4.0,4.0,4.0,4.0,4.0,4.0,4.0,4.0,4.0,4.0,4.0,4.0,4.0,4.0,4.0,4.0,4.0,4.0,4.0,4.0,4.0,4.0,4.0,4.0,4.0,4.0,100.0,,,,,,,,,,,,,,,,,,,,,,,,,,,,,,,,,,,,,,,,,,,,,,,,,,,,,,,,,,,,,,,,,,,,,,,,,,,,,,,,,,,,,,,,,,,,,,,,,,,,,,,,,,,,,,,,,,,,,,,,,,,,,,,,,,,,,,,,,,,,,,,,,,,,,,,,,,,,,,,,,,,,,,,,,,,,,,,,,,,,,,,,,,,,,,,,,,,,,,,,,,,,,,
1763976041.45545,29699.0,0.0,4407.94873,4407.94873,4484.487305,4515.384766,4406.922852,4530.128418,4534.615234,4386.538574,4542.94873,4391.794922,4467.692383,4518.974121,4569.230957,4421.794922,4394.743652,4541.666504,4566.794922,4565.384766,4546.410156,4391.922852,4404.102539,4590.128418,4535.769043,4530.512695,4405.0,4588.974121,4398.205078,4564.358887,4514.230957,4404.358887,4552.820313,4491.025879,3014.0,0.0,11.0,256.0,57882.0,,,,0.0,4.0,4.0,4.0,4.0,4.0,4.0,4.0,4.0,4.0,4.0,4.0,4.0,4.0,4.0,4.0,4.0,4.0,4.0,4.0,4.0,4.0,4.0,4.0,4.0,4.0,4.0,4.0,4.0,4.0,4.0,4.0,4.0,100.0,,,,,,,,,,,,,,,,,,,,,,,,,,,,,,,,,,,,,,,,,,,,,,,,,,,,,,,,,,,,,,,,,,,,,,,,,,,,,,,,,,,,,,,,,,,,,,,,,,,,,,,,,,,,,,,,,,,,,,,,,,,,,,,,,,,,,,,,,,,,,,,,,,,,,,,,,,,,,,,,,,,,,,,,,,,,,,,,,,,,,,,,,,,,,,,,,,,,,,,,,,,,,,
1763976041.459256,29700.0,0.0,4435.512695,4432.05127,4514.102539,4549.743652,4430.897461,4552.563965,4569.230957,4425.769043,4581.922852,4429.230957,4521.666504,4550.897461,4615.128418,4442.436035,4407.307617,4539.487305,4591.538574,4580.128418,4561.025879,4426.538574,4457.563965,4605.256348,4561.025879,4539.358887,4407.05127,4615.897461,4427.94873,4578.717773,4537.820313,4426.282227,4577.179688,4515.256348,2935.0,0.0,11.0,256.0,57890.0,,,,0.0,4.0,4.0,4.0,4.0,4.0,4.0,4.0,4.0,4.0,4.0,4.0,4.0,4.0,4.0,4.0,4.0,4.0,4.0,4.0,4.0,4.0,4.0,4.0,4.0,4.0,4.0,4.0,4.0,4.0,4.0,4.0,4.0,100.0,,,,,,,,,,,,,,,,,,,,,,,,,,,,,,,,,,,,,,,,,,,,,,,,,,,,,,,,,,,,,,,,,,,,,,,,,,,,,,,,,,,,,,,,,,,,,,,,,,,,,,,,,,,,,,,,,,,,,,,,,,,,,,,,,,,,,,,,,,,,,,,,,,,,,,,,,,,,,,,,,,,,,,,,,,,,,,,,,,,,,,,,,,,,,,,,,,,,,,,,,,,,,,
1763976041.463161,29701.0,0.0,4460.641113,4454.230957,4540.769043,4577.692383,4450.128418,4570.384766,4603.846191,4461.153809,4612.307617,4442.307617,4572.307617,4578.205078,4649.743652,4453.461426,4429.102539,4532.307617,4611.794922,4586.538574,4563.077148,4457.692383,4490.641113,4622.563965,4584.230957,4551.025879,4420.512695,4640.641113,4454.487305,4596.410156,4559.102539,4445.128418,4595.512695,4538.589844,2403.0,0.0,11.0,256.0,57890.0,,,,0.0,4.0,4.0,4.0,4.0,4.0,4.0,4.0,4.0,4.0,4.0,4.0,4.0,4.0,4.0,4.0,4.0,4.0,4.0,4.0,4.0,4.0,4.0,4.0,4.0,4.0,4.0,4.0,4.0,4.0,4.0,4.0,4.0,100.0,,,,,,,,,,,,,,,,,,,,,,,,,,,,,,,,,,,7425.0,0.0,0.24491,0.639343,0.621155,0.381348,0.984495,-0.115737,0.154804,34.0,-26.833334,28.5,,,,,,,,,,,,,,,,,,,,,,,,,,,,,,,,,,,,,,,,,,,,,,,,,,,,,,,,,,,,,,,,,,,,,,,,,,,,,,,,,,,,,,,,,,,,,,,,,,,,,,,,,,,,,,,,,,,,,,,,,,,,,,,,,,,,,,,,,,,,,,,,,,,,,,,,,,,,,,,,
1763976041.467167,29702.0,0.0,4462.436035,4455.769043,4543.846191,4579.102539,4448.974121,4566.538574,4612.307617,4466.666504,4614.102539,4421.666504,4582.563965,4578.974121,4647.307617,4450.512695,4442.692383,4517.563965,4610.0,4575.641113,4548.205078,4460.769043,4482.05127,4625.384766,4585.0,4550.769043,4439.487305,4642.307617,4454.871582,4599.743652,4558.717773,4442.307617,4589.871582,4540.384766,3014.0,0.0,11.0,512.0,57898.0,,,,0.0,4.0,4.0,4.0,4.0,4.0,4.0,4.0,4.0,4.0,4.0,4.0,4.0,4.0,4.0,4.0,4.0,4.0,4.0,4.0,4.0,4.0,4.0,4.0,4.0,4.0,4.0,4.0,4.0,4.0,4.0,4.0,4.0,100.0,,,,,,,,,,,,,,,,,,,,,,,,,,,,,,,,,,,,,,,,,,,,,,,,,,,,,,,,,,,,,,,,,,,,,,,,,,,,,,,,,,,,,,,,,,,,,,,,,,,,,,,,,,,,,,,,,,,,,,,,,,,,,,,,,,,,,,,,,,,,,,,,,,,,,,,,,,,,,,,,,,,,,,,,,,,,,,,,,,,,,,,,,,,,,,,,,,,,,,,,,,,,,,
1763976041.471073,29703.0,0.0,4433.077148,4428.077148,4515.0,4547.94873,4422.563965,4535.897461,4583.717773,4433.974121,4583.589844,4375.769043,4540.384766,4546.410156,4602.692383,4433.846191,4432.179688,4497.307617,4580.256348,4546.666504,4519.615234,4427.563965,4437.563965,4604.871582,4554.615234,4525.769043,4447.05127,4612.820313,4420.641113,4577.436035,4529.358887,4411.538574,4556.282227,4512.307617,3001.0,0.0,11.0,512.0,57898.0,,,,0.0,4.0,4.0,4.0,4.0,4.0,4.0,4.0,4.0,4.0,4.0,4.0,4.0,4.0,4.0,4.0,4.0,4.0,4.0,4.0,4.0,4.0,4.0,4.0,4.0,4.0,4.0,4.0,4.0,4.0,4.0,4.0,4.0,100.0,,,,,,,,,,,,,,,,,,,,,,,,,,,,,,,,,,,,,,,,,,,,,,,,,,,,,,,,,,,,,,,,,,,,,,,,,,,,,,,,,,,,,,,,,,,,,,,,,,,,,,,,,,,,,,,,,,,,,,,,,,,,,,,,,,,,,,,,,,,,,,,,,,,,,,,,,,,,,,,,,,,,,,,,,,,,,,,,,,,,,,,,,,,,,,,,,,,,,,,,,,,,,,
1763976041.474979,29704.0,0.0,4385.769043,4382.436035,4466.410156,4498.205078,4382.692383,4492.436035,4531.794922,4378.717773,4536.153809,4330.0,4469.743652,4496.282227,4539.230957,4410.256348,4398.717773,4480.0,4535.641113,4510.769043,4488.974121,4374.487305,4384.615234,4568.717773,4505.769043,4480.641113,4427.307617,4565.384766,4367.820313,4536.794922,4484.230957,4366.538574,4511.666504,4466.410156,2683.0,0.0,11.0,768.0,57906.0,,,,0.0,4.0,4.0,4.0,4.0,4.0,4.0,4.0,4.0,4.0,4.0,4.0,4.0,4.0,4.0,4.0,4.0,4.0,4.0,4.0,4.0,4.0,4.0,4.0,4.0,4.0,4.0,4.0,4.0,4.0,4.0,4.0,4.0,100.0,,,,,,,,,,,,,,,,,,,,,,,,,,,,,,,,,,,,,,,,,,,,,,,2.337243,8.750659,7.812243,15.782889,11.60286,6.371443,9.560861,8.192249,15.562303,11.741344,65.947639,15.460861,9.49618,18.418789,12.11131,16.595404,10.49314,7.121276,20.187784,13.647628,5.201261,6.48178,4.333373,10.456671,8.715752,4.928649,7.291811,6.708245,9.45698,7.428884,2.338737,8.495736,7.074443,19.837847,14.70864,3.324754,9.836447,6.215824,22.776112,16.724655,2.336841,10.064878,6.275369,18.23313,18.435385,1.764372,10.394798,25.066797,22.430681,40.083179,1.512977,6.652786,6.927956,26.580425,27.241301,1.829268,8.892657,8.382277,15.966228,12.167282,1.998204,8.708283,9.600473,18.926764,15.945387,1.117109,3.258738,6.209797,16.036276,18.538157,1.017708,5.236548,5.819363,14.272379,12.458993,1.901811,9.057381,9.139473,21.013388,17.098841,2.03587,8.061124,7.924574,15.089412,10.40056,1.236079,10.737036,10.032381,21.734795,14.456004,1.100682,11.399987,9.162176,27.691793,15.466916,2.164671,12.717026,12.558273,16.866674,11.974789,2.02793,11.949021,13.556315,22.347898,15.572488,1.355849,8.095803,8.356478,11.140783,9.020626,2.511487,14.898525,10.904439,18.659586,13.842293,2.079082,15.467715,19.012442,24.888176,22.962729,2.344285,20.455107,26.565933,34.906357,39.046001,4.535591,16.235392,11.193142,17.093325,11.584797,4.575221,17.999287,8.098025,19.721563,14.848281,2.426149,14.472075,8.448368,18.651268,14.970264,2.842095,12.20284,8.200522,15.543522,11.407738,5.940342,13.671749,7.898063,15.780209,12.480604,9.252069,15.089705,8.24977,16.50754,14.971159,53.290516,15.501201,10.340062,18.021185,12.21151
1763976041.478885,29705.0,0.0,4346.025879,4343.077148,4422.94873,4454.615234,4350.256348,4459.487305,4486.153809,4329.871582,4496.153809,4311.922852,4414.871582,4456.794922,4493.717773,4389.871582,4360.128418,4473.077148,4499.743652,4485.512695,4469.743652,4330.384766,4350.384766,4537.05127,4465.384766,4437.563965,4378.589844,4524.743652,4325.512695,4500.0,4448.205078,4331.922852,4481.025879,4427.179688,2888.0,0.0,11.0,768.0,57906.0,,,,0.0,4.0,4.0,4.0,4.0,4.0,4.0,4.0,4.0,4.0,4.0,4.0,4.0,4.0,4.0,4.0,4.0,4.0,4.0,4.0,4.0,4.0,4.0,4.0,4.0,4.0,4.0,4.0,4.0,4.0,4.0,4.0,4.0,100.0,,,,,,,,,,,,,,,,,,,,,,,,,,,,,,,,,,,7426.0,0.0,0.245016,0.639221,0.620789,0.38208,0.981077,-0.105482,0.150897,35.0,-26.666666,29.5,,,,,,,,,,,,,,,,,,,,,,,,,,,,,,,,,,,,,,,,,,,,,,,,,,,,,,,,,,,,,,,,,,,,,,,,,,,,,,,,,,,,,,,,,,,,,,,,,,,,,,,,,,,,,,,,,,,,,,,,,,,,,,,,,,,,,,,,,,,,,,,,,,,,,,,,,,,,,,,,
1763976041.482791,29706.0,0.0,4333.974121,4330.128418,4405.384766,4436.922852,4340.641113,4453.205078,4470.897461,4310.512695,4480.769043,4331.666504,4408.461426,4448.589844,4491.410156,4378.717773,4337.307617,4477.179688,4491.153809,4482.692383,4469.743652,4316.025879,4345.384766,4527.307617,4454.615234,4419.871582,4319.615234,4510.256348,4315.512695,4488.461426,4440.0,4325.0,4478.589844,4414.102539,2591.0,0.0,11.0,1024.0,57913.0,,,,0.0,4.0,4.0,4.0,4.0,4.0,4.0,4.0,4.0,4.0,4.0,4.0,4.0,4.0,4.0,4.0,4.0,4.0,4.0,4.0,4.0,4.0,4.0,4.0,4.0,4.0,4.0,4.0,4.0,4.0,4.0,4.0,4.0,100.0,,,,,,,,,,,,,,,,,,,,,,,,,,,,,,,,,,,,,,,,,,,,,,,,,,,,,,,,,,,,,,,,,,,,,,,,,,,,,,,,,,,,,,,,,,,,,,,,,,,,,,,,,,,,,,,,,,,,,,,,,,,,,,,,,,,,,,,,,,,,,,,,,,,,,,,,,,,,,,,,,,,,,,,,,,,,,,,,,,,,,,,,,,,,,,,,,,,,,,,,,,,,,,
1763976041.486697,29707.0,0.0,4350.128418,4345.512695,4416.922852,4447.436035,4354.487305,4472.179688,4488.461426,4323.077148,4490.256348,4373.333496,4447.307617,4470.641113,4527.563965,4375.641113,4338.333496,4486.153809,4509.871582,4499.358887,4484.615234,4330.512695,4360.256348,4541.282227,4474.487305,4434.487305,4281.922852,4523.077148,4337.307617,4506.538574,4458.974121,4343.589844,4497.563965,4428.077148,2971.0,0.0,11.0,1024.0,57913.0,,,,0.0,4.0,4.0,4.0,4.0,4.0,4.0,4.0,4.0,4.0,4.0,4.0,4.0,4.0,4.0,4.0,4.0,4.0,4.0,4.0,4.0,4.0,4.0,4.0,4.0,4.0,4.0,4.0,4.0,4.0,4.0,4.0,4.0,100.0,,,,,,,,,,,,,,,,,,,,,,,,,,,,,,,,,,,,,,,,,,,,,,,,,,,,,,,,,,,,,,,,,,,,,,,,,,,,,,,,,,,,,,,,,,,,,,,,,,,,,,,,,,,,,,,,,,,,,,,,,,,,,,,,,,,,,,,,,,,,,,,,,,,,,,,,,,,,,,,,,,,,,,,,,,,,,,,,,,,,,,,,,,,,,,,,,,,,,,,,,,,,,,
1763976041.490603,29708.0,0.0,4377.436035,4373.333496,4443.205078,4472.179688,4377.436035,4499.487305,4519.358887,4350.384766,4510.512695,4407.307617,4496.922852,4502.692383,4571.538574,4375.769043,4354.615234,4493.205078,4538.589844,4520.512695,4501.153809,4355.769043,4377.307617,4564.871582,4505.512695,4467.179688,4289.102539,4549.230957,4370.0,4538.077148,4487.307617,4369.871582,4518.461426,4454.230957,3017.0,0.0,11.0,1280.0,57921.0,,,,0.0,4.0,4.0,4.0,4.0,4.0,4.0,4.0,4.0,4.0,4.0,4.0,4.0,4.0,4.0,4.0,4.0,4.0,4.0,4.0,4.0,4.0,4.0,4.0,4.0,4.0,4.0,4.0,4.0,4.0,4.0,4.0,4.0,100.0,,,,,,,,,,,,,,,,,,,,,,,,,,,,,,,,,,,,,,,,,,,,,,,,,,,,,,,,,,,,,,,,,,,,,,,,,,,,,,,,,,,,,,,,,,,,,,,,,,,,,,,,,,,,,,,,,,,,,,,,,,,,,,,,,,,,,,,,,,,,,,,,,,,,,,,,,,,,,,,,,,,,,,,,,,,,,,,,,,,,,,,,,,,,,,,,,,,,,,,,,,,,,,
1763976041.494509,29709.0,0.0,4396.153809,4394.358887,4465.512695,4493.205078,4393.589844,4517.436035,4539.487305,4371.153809,4526.025879,4414.230957,4520.769043,4521.666504,4592.05127,4375.128418,4370.641113,4495.384766,4557.05127,4531.025879,4506.410156,4373.461426,4384.743652,4580.384766,4525.769043,4496.282227,4340.256348,4572.05127,4390.897461,4560.512695,4505.769043,4385.512695,4526.410156,4474.743652,2644.0,0.0,11.0,1280.0,57921.0,,,,0.0,4.0,4.0,4.0,4.0,4.0,4.0,4.0,4.0,4.0,4.0,4.0,4.0,4.0,4.0,4.0,4.0,4.0,4.0,4.0,4.0,4.0,4.0,4.0,4.0,4.0,4.0,4.0,4.0,4.0,4.0,4.0,4.0,100.0,,,,,,,,,,,,,,,,,,,,,,,,,,,,,,,,,,,7427.0,0.0,0.244777,0.639221,0.620544,0.382629,0.981077,-0.105482,0.150897,32.666668,-26.166666,29.5,,,,,,,,,,,,,,,,,,,,,,,,,,,,,,,,,,,,,,,,,,,,,,,,,,,,,,,,,,,,,,,,,,,,,,,,,,,,,,,,,,,,,,,,,,,,,,,,,,,,,,,,,,,,,,,,,,,,,,,,,,,,,,,,,,,,,,,,,,,,,,,,,,,,,,,,,,,,,,,,
1763976041.498415,29710.0,0.0,4399.487305,4400.769043,4475.0,4503.077148,4397.05127,4520.897461,4540.0,4377.307617,4532.05127,4397.820313,4510.256348,4520.641113,4581.025879,4374.743652,4376.794922,4495.384766,4557.692383,4527.179688,4499.230957,4379.871582,4384.743652,4581.538574,4527.692383,4509.871582,4408.589844,4585.128418,4392.179688,4563.589844,4508.333496,4386.922852,4523.333496,4482.563965,2759.0,0.0,11.0,1536.0,57929.0,,,,0.0,4.0,4.0,4.0,4.0,4.0,4.0,4.0,4.0,4.0,4.0,4.0,4.0,4.0,4.0,4.0,4.0,4.0,4.0,4.0,4.0,4.0,4.0,4.0,4.0,4.0,4.0,4.0,4.0,4.0,4.0,4.0,4.0,100.0,,,,,,,,,,,,,,,,,,,,,,,,,,,,,,,,,,,,,,,,,,,,,,,,,,,,,,,,,,,,,,,,,,,,,,,,,,,,,,,,,,,,,,,,,,,,,,,,,,,,,,,,,,,,,,,,,,,,,,,,,,,,,,,,,,,,,,,,,,,,,,,,,,,,,,,,,,,,,,,,,,,,,,,,,,,,,,,,,,,,,,,,,,,,,,,,,,,,,,,,,,,,,,
1763976041.502321,29711.0,0.0,4394.743652,4398.717773,4475.897461,4506.153809,4393.717773,4518.205078,4530.512695,4376.025879,4534.743652,4376.153809,4485.512695,4510.128418,4556.666504,4379.871582,4376.153809,4499.230957,4549.230957,4518.205078,4490.256348,4383.974121,4388.333496,4575.897461,4520.384766,4512.179688,4457.820313,4592.05127,4383.205078,4553.717773,4503.333496,4384.102539,4522.563965,4483.077148,2923.0,0.0,11.0,1536.0,57929.0,,,,0.0,4.0,4.0,4.0,4.0,4.0,4.0,4.0,4.0,4.0,4.0,4.0,4.0,4.0,4.0,4.0,4.0,4.0,4.0,4.0,4.0,4.0,4.0,4.0,4.0,4.0,4.0,4.0,4.0,4.0,4.0,4.0,4.0,100.0,,,,,,,,,,,,,,,,,,,,,,,,,,,,,,,,,,,,,,,,,,,,,,,,,,,,,,,,,,,,,,,,,,,,,,,,,,,,,,,,,,,,,,,,,,,,,,,,,,,,,,,,,,,,,,,,,,,,,,,,,,,,,,,,,,,,,,,,,,,,,,,,,,,,,,,,,,,,,,,,,,,,,,,,,,,,,,,,,,,,,,,,,,,,,,,,,,,,,,,,,,,,,,
1763976041.506227,29712.0,0.0,4393.077148,4397.436035,4476.538574,4509.487305,4391.922852,4519.230957,4526.282227,4378.205078,4540.897461,4361.922852,4471.922852,4504.871582,4542.94873,4394.743652,4377.820313,4509.230957,4544.615234,4515.897461,4492.179688,4393.461426,4401.794922,4574.230957,4516.666504,4513.589844,4463.077148,4597.179688,4377.820313,4544.487305,4501.538574,4387.05127,4532.436035,4484.102539,2982.0,0.0,11.0,1792.0,57937.0,,,,0.0,4.0,4.0,4.0,4.0,4.0,4.0,4.0,4.0,4.0,4.0,4.0,4.0,4.0,4.0,4.0,4.0,4.0,4.0,4.0,4.0,4.0,4.0,4.0,4.0,4.0,4.0,4.0,4.0,4.0,4.0,4.0,4.0,100.0,,,,,,,,,,,,,,,,,,,,,,,,,,,,,,,,,,,,,,,,,,,,,,,,,,,,,,,,,,,,,,,,,,,,,,,,,,,,,,,,,,,,,,,,,,,,,,,,,,,,,,,,,,,,,,,,,,,,,,,,,,,,,,,,,,,,,,,,,,,,,,,,,,,,,,,,,,,,,,,,,,,,,,,,,,,,,,,,,,,,,,,,,,,,,,,,,,,,,,,,,,,,,,
1763976041.510133,29713.0,0.0,4397.563965,4399.615234,4479.358887,4513.974121,4393.461426,4525.769043,4532.179688,4385.769043,4549.615234,4353.205078,4477.94873,4509.743652,4548.589844,4416.025879,4385.641113,4520.897461,4548.846191,4523.077148,4506.666504,4404.230957,4417.820313,4579.487305,4520.384766,4518.717773,4426.538574,4599.615234,4381.410156,4543.205078,4505.641113,4395.384766,4548.589844,4487.307617,3040.0,0.0,11.0,1792.0,57937.0,,,,0.0,4.0,4.0,4.0,4.0,4.0,4.0,4.0,4.0,4.0,4.0,4.0,4.0,4.0,4.0,4.0,4.0,4.0,4.0,4.0,4.0,4.0,4.0,4.0,4.0,4.0,4.0,4.0,4.0,4.0,4.0,4.0,4.0,100.0,,,,,,,,,,,,,,,,,,,,,,,,,,,,,,,,,,,7428.0,0.0,0.244791,0.63916,0.6203,0.383118,0.969845,-0.113295,0.151386,33.666668,-26.333334,28.5,,,,,,,,,,,,,,,,,,,,,,,,,,,,,,,,,,,,,,,,,,,,,,,,,,,,,,,,,,,,,,,,,,,,,,,,,,,,,,,,,,,,,,,,,,,,,,,,,,,,,,,,,,,,,,,,,,,,,,,,,,,,,,,,,,,,,,,,,,,,,,,,,,,,,,,,,,,,,,,,
1763976041.514039,29714.0,0.0,4402.820313,4402.05127,4481.794922,4516.153809,4394.743652,4531.922852,4541.922852,4392.307617,4554.871582,4343.333496,4493.974121,4518.333496,4564.615234,4431.794922,4394.743652,4526.538574,4556.666504,4533.846191,4522.692383,4406.025879,4422.94873,4586.153809,4526.410156,4524.230957,4377.692383,4596.922852,4390.256348,4548.333496,4510.641113,4401.922852,4559.743652,4489.487305,2864.0,0.0,11.0,2048.0,57945.0,,,,0.0,4.0,4.0,4.0,4.0,4.0,4.0,4.0,4.0,4.0,4.0,4.0,4.0,4.0,4.0,4.0,4.0,4.0,4.0,4.0,4.0,4.0,4.0,4.0,4.0,4.0,4.0,4.0,4.0,4.0,4.0,4.0,4.0,100.0,,,,,,,,,,,,,,,,,,,,,,,,,,,,,,,,,,,,,,,,,,,,,,,,,,,,,,,,,,,,,,,,,,,,,,,,,,,,,,,,,,,,,,,,,,,,,,,,,,,,,,,,,,,,,,,,,,,,,,,,,,,,,,,,,,,,,,,,,,,,,,,,,,,,,,,,,,,,,,,,,,,,,,,,,,,,,,,,,,,,,,,,,,,,,,,,,,,,,,,,,,,,,,
1763976041.517945,29715.0,0.0,4404.871582,4403.461426,4483.333496,4516.538574,4393.974121,4533.974121,4548.717773,4393.205078,4555.256348,4335.384766,4509.102539,4524.743652,4578.846191,4429.102539,4398.205078,4523.589844,4562.436035,4541.153809,4528.333496,4396.282227,4412.307617,4589.230957,4531.282227,4527.05127,4355.512695,4591.922852,4398.974121,4556.922852,4513.717773,4402.94873,4560.769043,4490.512695,3066.0,0.0,11.0,2048.0,57945.0,,,,0.0,4.0,4.0,4.0,4.0,4.0,4.0,4.0,4.0,4.0,4.0,4.0,4.0,4.0,4.0,4.0,4.0,4.0,4.0,4.0,4.0,4.0,4.0,4.0,4.0,4.0,4.0,4.0,4.0,4.0,4.0,4.0,4.0,100.0,,,,,,,,,,,,,,,,,,,,,,,,,,,,,,,,,,,,,,,,,,,,,,,,,,,,,,,,,,,,,,,,,,,,,,,,,,,,,,,,,,,,,,,,,,,,,,,,,,,,,,,,,,,,,,,,,,,,,,,,,,,,,,,,,,,,,,,,,,,,,,,,,,,,,,,,,,,,,,,,,,,,,,,,,,,,,,,,,,,,,,,,,,,,,,,,,,,,,,,,,,,,,,
1763976041.521851,29716.0,0.0,4407.820313,4408.205078,4489.487305,4521.153809,4396.025879,4535.512695,4554.871582,4393.333496,4557.179688,4343.846191,4523.205078,4531.025879,4589.615234,4405.128418,4396.025879,4517.692383,4567.179688,4544.871582,4524.358887,4386.282227,4397.94873,4590.769043,4538.077148,4530.256348,4380.256348,4594.358887,4407.692383,4569.358887,4518.077148,4404.102539,4558.589844,4496.153809,3033.0,0.0,11.0,2304.0,57952.0,,,,0.0,4.0,4.0,4.0,4.0,4.0,4.0,4.0,4.0,4.0,4.0,4.0,4.0,4.0,4.0,4.0,4.0,4.0,4.0,4.0,4.0,4.0,4.0,4.0,4.0,4.0,4.0,4.0,4.0,4.0,4.0,4.0,4.0,100.0,,,,,,,,,,,,,,,,,,,,,,,,,,,,,,,,,,,,,,,,,,,,,,,,,,,,,,,,,,,,,,,,,,,,,,,,,,,,,,,,,,,,,,,,,,,,,,,,,,,,,,,,,,,,,,,,,,,,,,,,,,,,,,,,,,,,,,,,,,,,,,,,,,,,,,,,,,,,,,,,,,,,,,,,,,,,,,,,,,,,,,,,,,,,,,,,,,,,,,,,,,,,,,
1763976041.525757,29717.0,0.0,4418.077148,4421.410156,4504.871582,4535.384766,4406.153809,4541.922852,4566.538574,4400.512695,4567.692383,4378.589844,4541.153809,4542.94873,4602.436035,4373.333496,4395.897461,4518.461426,4576.794922,4551.666504,4523.589844,4390.512695,4398.205078,4596.410156,4551.922852,4538.333496,4438.333496,4610.0,4418.205078,4586.153809,4528.846191,4412.820313,4562.94873,4510.897461,2958.0,0.0,11.0,2304.0,57952.0,,,,0.0,4.0,4.0,4.0,4.0,4.0,4.0,4.0,4.0,4.0,4.0,4.0,4.0,4.0,4.0,4.0,4.0,4.0,4.0,4.0,4.0,4.0,4.0,4.0,4.0,4.0,4.0,4.0,4.0,4.0,4.0,4.0,4.0,100.0,,,,,,,,,,,,,,,,,,,,,,,,,,,,,,,,,,,7429.0,0.0,0.244718,0.638977,0.620178,0.383667,0.961055,-0.112807,0.154316,32.0,-25.666666,27.166666,,,,,,,,,,,,,,,,,,,,,,,,,,,,,,,,,,,,,,,,,,,,,,,,,,,,,,,,,,,,,,,,,,,,,,,,,,,,,,,,,,,,,,,,,,,,,,,,,,,,,,,,,,,,,,,,,,,,,,,,,,,,,,,,,,,,,,,,,,,,,,,,,,,,,,,,,,,,,,,,
1763976041.529663,29718.0,0.0,4433.333496,4438.205078,4523.717773,4552.820313,4420.897461,4550.641113,4580.897461,4413.205078,4583.461426,4428.333496,4558.077148,4557.692383,4617.05127,4356.025879,4404.358887,4530.128418,4590.256348,4564.358887,4535.641113,4410.0,4418.461426,4605.256348,4568.205078,4547.307617,4488.846191,4631.410156,4426.922852,4600.512695,4542.436035,4426.410156,4572.820313,4528.846191,3032.0,0.0,11.0,2304.0,57960.0,,,,0.0,4.0,4.0,4.0,4.0,4.0,4.0,4.0,4.0,4.0,4.0,4.0,4.0,4.0,4.0,4.0,4.0,4.0,4.0,4.0,4.0,4.0,4.0,4.0,4.0,4.0,4.0,4.0,4.0,4.0,4.0,4.0,4.0,100.0,,,,,,,,,,,,,,,,,,,,,,,,,,,,,,,,,,,,,,,,,,,,,,,,,,,,,,,,,,,,,,,,,,,,,,,,,,,,,,,,,,,,,,,,,,,,,,,,,,,,,,,,,,,,,,,,,,,,,,,,,,,,,,,,,,,,,,,,,,,,,,,,,,,,,,,,,,,,,,,,,,,,,,,,,,,,,,,,,,,,,,,,,,,,,,,,,,,,,,,,,,,,,,
1763976041.533569,29719.0,0.0,4438.333496,4443.077148,4529.615234,4556.666504,4426.025879,4550.128418,4582.820313,4416.666504,4589.487305,4459.743652,4554.871582,4560.897461,4619.358887,4365.897461,4417.307617,4545.897461,4595.897461,4574.743652,4553.205078,4427.307617,4441.794922,4607.692383,4570.897461,4543.077148,4492.436035,4637.692383,4422.05127,4597.94873,4544.615234,4429.487305,4573.205078,4532.94873,2988.0,0.0,11.0,2304.0,57960.0,,,,0.0,4.0,4.0,4.0,4.0,4.0,4.0,4.0,4.0,4.0,4.0,4.0,4.0,4.0,4.0,4.0,4.0,4.0,4.0,4.0,4.0,4.0,4.0,4.0,4.0,4.0,4.0,4.0,4.0,4.0,4.0,4.0,4.0,100.0,,,,,,,,,,,,,,,,,,,,,,,,,,,,,,,,,,,,,,,,,,,,,,,,,,,,,,,,,,,,,,,,,,,,,,,,,,,,,,,,,,,,,,,,,,,,,,,,,,,,,,,,,,,,,,,,,,,,,,,,,,,,,,,,,,,,,,,,,,,,,,,,,,,,,,,,,,,,,,,,,,,,,,,,,,,,,,,,,,,,,,,,,,,,,,,,,,,,,,,,,,,,,,
1763976041.537475,29720.0,0.0,4417.179688,4421.153809,4507.563965,4531.538574,4408.333496,4528.846191,4556.666504,4394.743652,4570.256348,4440.0,4514.358887,4537.307617,4592.307617,4394.871582,4420.512695,4552.05127,4579.102539,4567.94873,4555.769043,4420.0,4441.153809,4592.563965,4544.615234,4514.358887,4438.589844,4611.410156,4393.461426,4567.307617,4521.282227,4406.410156,4548.205078,4508.846191,2866.0,0.0,11.0,1792.0,57968.0,,,,0.0,4.0,4.0,4.0,4.0,4.0,4.0,4.0,4.0,4.0,4.0,4.0,4.0,4.0,4.0,4.0,4.0,4.0,4.0,4.0,4.0,4.0,4.0,4.0,4.0,4.0,4.0,4.0,4.0,4.0,4.0,4.0,4.0,100.0,,,,,,,,,,,,,,,,,,,,,,,,,,,,,,,,,,,,,,,,,,,,,,,,,,,,,,,,,,,,,,,,,,,,,,,,,,,,,,,,,,,,,,,,,,,,,,,,,,,,,,,,,,,,,,,,,,,,,,,,,,,,,,,,,,,,,,,,,,,,,,,,,,,,,,,,,,,,,,,,,,,,,,,,,,,,,,,,,,,,,,,,,,,,,,,,,,,,,,,,,,,,,,
1763976041.541381,29721.0,0.0,4370.897461,4375.128418,4460.0,4480.641113,4369.615234,4490.384766,4505.128418,4348.205078,4525.897461,4369.102539,4444.487305,4489.487305,4537.05127,4420.769043,4401.922852,4539.230957,4539.615234,4537.692383,4529.871582,4382.563965,4405.256348,4561.410156,4493.589844,4468.461426,4354.230957,4557.05127,4346.410156,4515.0,4475.384766,4358.589844,4500.512695,4460.128418,2904.0,0.0,11.0,1792.0,57968.0,,,,0.0,4.0,4.0,4.0,4.0,4.0,4.0,4.0,4.0,4.0,4.0,4.0,4.0,4.0,4.0,4.0,4.0,4.0,4.0,4.0,4.0,4.0,4.0,4.0,4.0,4.0,4.0,4.0,4.0,4.0,4.0,4.0,4.0,100.0,,,,,,,,,,,,,,,,,,,,,,,,,,,,,,,,,,,7430.0,0.0,0.244745,0.638428,0.620544,0.383972,0.973752,-0.11183,0.155292,32.5,-26.833334,30.5,,,,,,,,,,,,,,,,,,,,,,,,,,,,,,,,,,,,,,,,,,,,,,,,,,,,,,,,,,,,,,,,,,,,,,,,,,,,,,,,,,,,,,,,,,,,,,,,,,,,,,,,,,,,,,,,,,,,,,,,,,,,,,,,,,,,,,,,,,,,,,,,,,,,,,,,,,,,,,,,
1763976041.545287,29722.0,0.0,4324.102539,4329.615234,4411.666504,4430.128418,4331.282227,4456.153809,4455.641113,4300.897461,4478.333496,4290.769043,4384.358887,4442.94873,4482.692383,4426.538574,4366.410156,4511.922852,4498.589844,4497.820313,4486.410156,4335.512695,4353.077148,4531.922852,4445.384766,4431.794922,4287.820313,4504.743652,4306.153809,4467.436035,4431.794922,4311.410156,4456.153809,4412.692383,2770.0,0.0,11.0,256.0,57976.0,,,,0.0,4.0,4.0,4.0,4.0,4.0,4.0,4.0,4.0,4.0,4.0,4.0,4.0,4.0,4.0,4.0,4.0,4.0,4.0,4.0,4.0,4.0,4.0,4.0,4.0,4.0,4.0,4.0,4.0,4.0,4.0,4.0,4.0,100.0,,,,,,,,,,,,,,,,,,,,,,,,,,,,,,,,,,,,,,,,,,,,,,,,,,,,,,,,,,,,,,,,,,,,,,,,,,,,,,,,,,,,,,,,,,,,,,,,,,,,,,,,,,,,,,,,,,,,,,,,,,,,,,,,,,,,,,,,,,,,,,,,,,,,,,,,,,,,,,,,,,,,,,,,,,,,,,,,,,,,,,,,,,,,,,,,,,,,,,,,,,,,,,
1763976041.549193,29723.0,0.0,4310.256348,4316.410156,4394.615234,4413.077148,4321.025879,4451.538574,4443.333496,4285.769043,4459.230957,4265.256348,4379.358887,4431.025879,4469.230957,4413.717773,4336.410156,4487.692383,4485.641113,4475.512695,4455.769043,4311.666504,4321.153809,4526.282227,4433.846191,4431.794922,4277.436035,4490.128418,4302.307617,4457.05127,4421.538574,4298.461426,4447.94873,4398.589844,3037.0,0.0,11.0,256.0,57976.0,,,,0.0,4.0,4.0,4.0,4.0,4.0,4.0,4.0,4.0,4.0,4.0,4.0,4.0,4.0,4.0,4.0,4.0,4.0,4.0,4.0,4.0,4.0,4.0,4.0,4.0,4.0,4.0,4.0,4.0,4.0,4.0,4.0,4.0,100.0,,,,,,,,,,,,,,,,,,,,,,,,,,,,,,,,,,,,,,,,,,,,,,,,,,,,,,,,,,,,,,,,,,,,,,,,,,,,,,,,,,,,,,,,,,,,,,,,,,,,,,,,,,,,,,,,,,,,,,,,,,,,,,,,,,,,,,,,,,,,,,,,,,,,,,,,,,,,,,,,,,,,,,,,,,,,,,,,,,,,,,,,,,,,,,,,,,,,,,,,,,,,,,
1763976041.553099,29724.0,0.0,4344.743652,4349.615234,4423.589844,4445.0,4350.0,4485.128418,4483.077148,4318.846191,4486.282227,4319.743652,4443.974121,4467.563965,4513.717773,4397.05127,4334.615234,4483.077148,4514.615234,4488.974121,4461.666504,4330.641113,4333.589844,4551.666504,4472.05127,4472.563965,4325.0,4526.794922,4345.128418,4497.05127,4457.692383,4334.615234,4488.205078,4431.153809,2113.0,0.0,11.0,256.0,57984.0,,,,0.0,4.0,4.0,4.0,4.0,4.0,4.0,4.0,4.0,4.0,4.0,4.0,4.0,4.0,4.0,4.0,4.0,4.0,4.0,4.0,4.0,4.0,4.0,4.0,4.0,4.0,4.0,4.0,4.0,4.0,4.0,4.0,4.0,100.0,,,,,,,,,,,,,,,,,,,,,,,,,,,,,,,,,,,,,,,,,,,,,,,,,,,,,,,,,,,,,,,,,,,,,,,,,,,,,,,,,,,,,,,,,,,,,,,,,,,,,,,,,,,,,,,,,,,,,,,,,,,,,,,,,,,,,,,,,,,,,,,,,,,,,,,,,,,,,,,,,,,,,,,,,,,,,,,,,,,,,,,,,,,,,,,,,,,,,,,,,,,,,,
1763976041.557005,29725.0,0.0,4410.0,4411.922852,4483.205078,4509.615234,4402.307617,4538.974121,4553.974121,4383.589844,4546.666504,4418.589844,4542.563965,4532.563965,4592.179688,4391.153809,4365.256348,4501.025879,4569.743652,4530.897461,4500.512695,4381.025879,4382.436035,4592.563965,4538.205078,4528.846191,4395.256348,4593.205078,4413.205078,4567.436035,4521.025879,4401.025879,4555.897461,4492.692383,2819.0,0.0,11.0,256.0,57984.0,,,,0.0,4.0,4.0,4.0,4.0,4.0,4.0,4.0,4.0,4.0,4.0,4.0,4.0,4.0,4.0,4.0,4.0,4.0,4.0,4.0,4.0,4.0,4.0,4.0,4.0,4.0,4.0,4.0,4.0,4.0,4.0,4.0,4.0,100.0,,,,,,,,,,,,,,,,,,,,,,,,,,,,,,,,,,,7431.0,0.0,0.244571,0.638184,0.620789,0.384094,0.970333,-0.09718,0.175314,32.833332,-27.166666,28.833334,,,,,,,,,,,,,,,,,,,,,,,,,,,,,,,,,,,,,,,,,,,,,,,,,,,,,,,,,,,,,,,,,,,,,,,,,,,,,,,,,,,,,,,,,,,,,,,,,,,,,,,,,,,,,,,,,,,,,,,,,,,,,,,,,,,,,,,,,,,,,,,,,,,,,,,,,,,,,,,,
1763976041.560811,29726.0,0.0,4465.641113,4464.358887,4536.153809,4567.436035,4444.230957,4579.871582,4612.436035,4440.256348,4603.077148,4488.205078,4611.794922,4584.230957,4653.846191,4399.230957,4408.717773,4528.077148,4615.256348,4572.692383,4543.717773,4428.974121,4433.974121,4621.538574,4590.512695,4564.230957,4443.461426,4647.05127,4465.512695,4625.897461,4572.05127,4456.282227,4608.717773,4545.256348,3052.0,0.0,11.0,256.0,57991.0,,,,0.0,4.0,4.0,4.0,4.0,4.0,4.0,4.0,4.0,4.0,4.0,4.0,4.0,4.0,4.0,4.0,4.0,4.0,4.0,4.0,4.0,4.0,4.0,4.0,4.0,4.0,4.0,4.0,4.0,4.0,4.0,4.0,4.0,100.0,,,,,,,,,,,,,,,,,,,,,,,,,,,,,,,,,,,,,,,,,,,,,,,,,,,,,,,,,,,,,,,,,,,,,,,,,,,,,,,,,,,,,,,,,,,,,,,,,,,,,,,,,,,,,,,,,,,,,,,,,,,,,,,,,,,,,,,,,,,,,,,,,,,,,,,,,,,,,,,,,,,,,,,,,,,,,,,,,,,,,,,,,,,,,,,,,,,,,,,,,,,,,,
1763976041.564717,29727.0,0.0,4477.179688,4474.615234,4549.230957,4582.820313,4449.230957,4583.717773,4621.922852,4453.077148,4619.102539,4473.974121,4607.05127,4589.743652,4659.102539,4412.05127,4435.256348,4544.615234,4622.179688,4587.692383,4562.820313,4442.307617,4455.128418,4620.256348,4595.897461,4559.615234,4447.692383,4655.512695,4469.230957,4636.025879,4578.846191,4465.769043,4614.102539,4557.179688,2941.0,0.0,11.0,256.0,57991.0,,,,0.0,4.0,4.0,4.0,4.0,4.0,4.0,4.0,4.0,4.0,4.0,4.0,4.0,4.0,4.0,4.0,4.0,4.0,4.0,4.0,4.0,4.0,4.0,4.0,4.0,4.0,4.0,4.0,4.0,4.0,4.0,4.0,4.0,100.0,,,,,,,,,,,,,,,,,,,,,,,,,,,,,,,,,,,,,,,,,,,,,,,,,,,,,,,,,,,,,,,,,,,,,,,,,,,,,,,,,,,,,,,,,,,,,,,,,,,,,,,,,,,,,,,,,,,,,,,,,,,,,,,,,,,,,,,,,,,,,,,,,,,,,,,,,,,,,,,,,,,,,,,,,,,,,,,,,,,,,,,,,,,,,,,,,,,,,,,,,,,,,,
1763976041.568723,29728.0,0.0,4441.153809,4439.230957,4516.794922,4548.333496,4416.410156,4551.538574,4580.128418,4415.256348,4585.128418,4384.358887,4535.641113,4549.358887,4609.230957,4415.641113,4426.410156,4540.384766,4589.487305,4570.512695,4551.410156,4413.717773,4437.179688,4592.179688,4554.871582,4524.487305,4420.128418,4618.205078,4423.077148,4593.717773,4540.128418,4425.897461,4571.282227,4525.128418,2899.0,0.0,11.0,512.0,57999.0,,,,0.0,4.0,4.0,4.0,4.0,4.0,4.0,4.0,4.0,4.0,4.0,4.0,4.0,4.0,4.0,4.0,4.0,4.0,4.0,4.0,4.0,4.0,4.0,4.0,4.0,4.0,4.0,4.0,4.0,4.0,4.0,4.0,4.0,100.0,,,,,,,,,,,,,,,,,,,,,,,,,,,,,,,,,,,,,,,,,,,,,,,,,,,,,,,,,,,,,,,,,,,,,,,,,,,,,,,,,,,,,,,,,,,,,,,,,,,,,,,,,,,,,,,,,,,,,,,,,,,,,,,,,,,,,,,,,,,,,,,,,,,,,,,,,,,,,,,,,,,,,,,,,,,,,,,,,,,,,,,,,,,,,,,,,,,,,,,,,,,,,,
1763976041.572629,29729.0,0.0,4385.769043,4385.256348,4463.205078,4488.717773,4370.128418,4507.692383,4518.205078,4352.94873,4524.871582,4284.230957,4449.102539,4493.974121,4542.692383,4403.974121,4390.256348,4521.794922,4542.563965,4540.256348,4528.077148,4364.615234,4399.487305,4558.846191,4498.846191,4485.897461,4389.358887,4564.615234,4357.820313,4529.615234,4484.615234,4365.641113,4510.0,4474.487305,2900.0,0.0,11.0,512.0,57999.0,,,,0.0,4.0,4.0,4.0,4.0,4.0,4.0,4.0,4.0,4.0,4.0,4.0,4.0,4.0,4.0,4.0,4.0,4.0,4.0,4.0,4.0,4.0,4.0,4.0,4.0,4.0,4.0,4.0,4.0,4.0,4.0,4.0,4.0,100.0,,,,,,,,,,,,,,,,,,,,,,,,,,,,,,,,,,,7432.0,0.0,0.244394,0.637756,0.621033,0.384521,0.9801,-0.113783,0.203638,32.833332,-27.666666,28.5,,,,,,,,,,,,,,,,,,,,,,,,,,,,,,,,,,,,,,,,,,,,,,,,,,,,,,,,,,,,,,,,,,,,,,,,,,,,,,,,,,,,,,,,,,,,,,,,,,,,,,,,,,,,,,,,,,,,,,,,,,,,,,,,,,,,,,,,,,,,,,,,,,,,,,,,,,,,,,,,
1763976041.576535,29730.0,0.0,4348.717773,4348.589844,4424.358887,4442.179688,4341.153809,4481.025879,4477.179688,4306.282227,4477.563965,4243.974121,4401.538574,4460.897461,4504.230957,4386.794922,4355.0,4506.922852,4513.461426,4522.05127,4516.538574,4328.205078,4373.077148,4542.307617,4465.256348,4466.410156,4374.230957,4530.897461,4314.487305,4485.256348,4449.358887,4323.589844,4468.205078,4439.871582,2318.0,0.0,11.0,768.0,58007.0,,,,0.0,4.0,4.0,4.0,4.0,4.0,4.0,4.0,4.0,4.0,4.0,4.0,4.0,4.0,4.0,4.0,4.0,4.0,4.0,4.0,4.0,4.0,4.0,4.0,4.0,4.0,4.0,4.0,4.0,4.0,4.0,4.0,4.0,100.0,,,,,,,,,,,,,,,,,,,,,,,,,,,,,,,,,,,,,,,,,,,,,,,,,,,,,,,,,,,,,,,,,,,,,,,,,,,,,,,,,,,,,,,,,,,,,,,,,,,,,,,,,,,,,,,,,,,,,,,,,,,,,,,,,,,,,,,,,,,,,,,,,,,,,,,,,,,,,,,,,,,,,,,,,,,,,,,,,,,,,,,,,,,,,,,,,,,,,,,,,,,,,,
1763976041.580441,29731.0,0.0,4349.743652,4348.846191,4421.538574,4434.102539,4344.358887,4485.128418,4477.94873,4300.769043,4470.512695,4285.897461,4412.820313,4466.410156,4512.436035,4381.666504,4346.794922,4509.487305,4516.282227,4525.897461,4523.717773,4324.358887,4375.256348,4549.487305,4471.153809,4471.794922,4374.230957,4533.589844,4315.641113,4483.717773,4452.820313,4320.769043,4466.282227,4440.256348,3041.0,0.0,11.0,768.0,58007.0,,,,0.0,4.0,4.0,4.0,4.0,4.0,4.0,4.0,4.0,4.0,4.0,4.0,4.0,4.0,4.0,4.0,4.0,4.0,4.0,4.0,4.0,4.0,4.0,4.0,4.0,4.0,4.0,4.0,4.0,4.0,4.0,4.0,4.0,100.0,,,,,,,,,,,,,,,,,,,,,,,,,,,,,,,,,,,,,,,,,,,,,,,,,,,,,,,,,,,,,,,,,,,,,,,,,,,,,,,,,,,,,,,,,,,,,,,,,,,,,,,,,,,,,,,,,,,,,,,,,,,,,,,,,,,,,,,,,,,,,,,,,,,,,,,,,,,,,,,,,,,,,,,,,,,,,,,,,,,,,,,,,,,,,,,,,,,,,,,,,,,,,,
1763976041.584347,29732.0,0.0,4380.0,4378.205078,4449.102539,4462.436035,4371.410156,4512.179688,4511.410156,4332.692383,4502.307617,4370.641113,4462.179688,4498.717773,4551.410156,4396.538574,4367.94873,4524.487305,4540.897461,4540.128418,4533.589844,4347.94873,4396.410156,4569.871582,4503.717773,4491.282227,4378.846191,4562.179688,4352.820313,4516.282227,4484.743652,4350.128418,4496.922852,4468.846191,2945.0,0.0,11.0,1024.0,58015.0,,,,0.0,4.0,4.0,4.0,4.0,4.0,4.0,4.0,4.0,4.0,4.0,4.0,4.0,4.0,4.0,4.0,4.0,4.0,4.0,4.0,4.0,4.0,4.0,4.0,4.0,4.0,4.0,4.0,4.0,4.0,4.0,4.0,4.0,100.0,,,,,,,,,,,,,,,,,,,,,,,,,,,,,,,,,,,,,,,,,,,,,,,,,,,,,,,,,,,,,,,,,,,,,,,,,,,,,,,,,,,,,,,,,,,,,,,,,,,,,,,,,,,,,,,,,,,,,,,,,,,,,,,,,,,,,,,,,,,,,,,,,,,,,,,,,,,,,,,,,,,,,,,,,,,,,,,,,,,,,,,,,,,,,,,,,,,,,,,,,,,,,,
1763976041.588253,29733.0,0.0,4413.205078,4411.282227,4483.205078,4503.205078,4400.256348,4542.307617,4550.641113,4376.538574,4548.333496,4434.871582,4512.563965,4531.025879,4588.461426,4418.589844,4397.05127,4532.307617,4563.974121,4543.974121,4524.487305,4376.538574,4411.410156,4585.641113,4535.769043,4509.615234,4381.794922,4592.307617,4397.05127,4555.0,4518.974121,4386.025879,4535.512695,4501.794922,2423.0,0.0,11.0,1024.0,58015.0,,,,0.0,4.0,4.0,4.0,4.0,4.0,4.0,4.0,4.0,4.0,4.0,4.0,4.0,4.0,4.0,4.0,4.0,4.0,4.0,4.0,4.0,4.0,4.0,4.0,4.0,4.0,4.0,4.0,4.0,4.0,4.0,4.0,4.0,100.0,,,,,,,,,,,,,,,,,,,,,,,,,,,,,,,,,,,7433.0,0.0,0.244693,0.637146,0.621277,0.384949,0.994262,-0.099133,0.176779,31.666666,-26.833334,28.833334,,,,,,,,,,,,,,,,,,,,,,,,,,,,,,,,,,,,,,,,,,,,,,,,,,,,,,,,,,,,,,,,,,,,,,,,,,,,,,,,,,,,,,,,,,,,,,,,,,,,,,,,,,,,,,,,,,,,,,,,,,,,,,,,,,,,,,,,,,,,,,,,,,,,,,,,,,,,,,,,
1763976041.592159,29734.0,0.0,4427.563965,4426.794922,4501.922852,4530.897461,4413.333496,4559.102539,4572.307617,4405.897461,4581.538574,4442.307617,4538.461426,4543.461426,4600.128418,4424.487305,4410.128418,4517.692383,4568.846191,4527.692383,4493.077148,4390.897461,4403.846191,4586.538574,4547.179688,4517.05127,4384.487305,4605.897461,4422.05127,4576.282227,4534.871582,4405.897461,4559.615234,4517.307617,3036.0,0.0,11.0,1280.0,58023.0,,,,0.0,4.0,4.0,4.0,4.0,4.0,4.0,4.0,4.0,4.0,4.0,4.0,4.0,4.0,4.0,4.0,4.0,4.0,4.0,4.0,4.0,4.0,4.0,4.0,4.0,4.0,4.0,4.0,4.0,4.0,4.0,4.0,4.0,100.0,,,,,,,,,,,,,,,,,,,,,,,,,,,,,,,,,,,,,,,,,,,,,,,,,,,,,,,,,,,,,,,,,,,,,,,,,,,,,,,,,,,,,,,,,,,,,,,,,,,,,,,,,,,,,,,,,,,,,,,,,,,,,,,,,,,,,,,,,,,,,,,,,,,,,,,,,,,,,,,,,,,,,,,,,,,,,,,,,,,,,,,,,,,,,,,,,,,,,,,,,,,,,,
1763976041.596065,29735.0,0.0,4419.358887,4419.743652,4498.974121,4534.615234,4407.94873,4558.974121,4569.743652,4409.230957,4588.589844,4403.846191,4535.512695,4534.230957,4584.743652,4405.512695,4401.666504,4486.922852,4556.153809,4501.794922,4460.256348,4388.717773,4380.897461,4575.512695,4537.179688,4513.333496,4389.615234,4601.153809,4421.153809,4575.384766,4530.0,4403.846191,4561.794922,4510.256348,3021.0,0.0,11.0,1280.0,58023.0,,,,0.0,4.0,4.0,4.0,4.0,4.0,4.0,4.0,4.0,4.0,4.0,4.0,4.0,4.0,4.0,4.0,4.0,4.0,4.0,4.0,4.0,4.0,4.0,4.0,4.0,4.0,4.0,4.0,4.0,4.0,4.0,4.0,4.0,100.0,,,,,,,,,,,,,,,,,,,,,,,,,,,,,,,,,,,,,,,,,,,,,,,,,,,,,,,,,,,,,,,,,,,,,,,,,,,,,,,,,,,,,,,,,,,,,,,,,,,,,,,,,,,,,,,,,,,,,,,,,,,,,,,,,,,,,,,,,,,,,,,,,,,,,,,,,,,,,,,,,,,,,,,,,,,,,,,,,,,,,,,,,,,,,,,,,,,,,,,,,,,,,,
1763976041.599971,29736.0,0.0,4401.153809,4402.307617,4483.846191,4520.897461,4393.846191,4549.743652,4552.436035,4393.461426,4573.461426,4357.179688,4515.256348,4516.282227,4558.461426,4377.179688,4386.410156,4462.563965,4539.871582,4487.820313,4454.230957,4381.538574,4364.487305,4563.717773,4519.615234,4505.256348,4396.538574,4588.461426,4405.769043,4563.333496,4516.153809,4389.743652,4549.615234,4491.794922,2694.0,0.0,11.0,1536.0,58031.0,,,,0.0,4.0,4.0,4.0,4.0,4.0,4.0,4.0,4.0,4.0,4.0,4.0,4.0,4.0,4.0,4.0,4.0,4.0,4.0,4.0,4.0,4.0,4.0,4.0,4.0,4.0,4.0,4.0,4.0,4.0,4.0,4.0,4.0,100.0,,,,,,,,,,,,,,,,,,,,,,,,,,,,,,,,,,,,,,,,,,,,,,,2.834355,8.984081,7.741344,14.696929,11.404757,7.809218,10.329193,7.488819,14.610764,11.563405,84.690063,17.550766,8.65202,17.671518,11.921151,22.160076,10.983373,6.298681,18.681194,13.135132,6.4144,6.656473,3.884486,9.915721,8.449921,5.389264,7.448169,6.45822,8.631696,7.253541,2.747034,8.579608,6.327602,18.074188,13.952535,4.325991,10.025604,5.59134,20.767395,16.182655,2.988253,10.256431,5.824641,16.873621,17.638697,2.253051,10.897169,27.501348,24.498516,39.250172,1.908692,6.812967,6.64225,22.898523,25.595348,2.300949,9.069829,7.787187,14.654903,11.623783,2.473606,8.839683,9.416356,17.463697,15.074401,1.291503,3.539536,5.074338,15.945904,17.77256,1.190286,5.009675,4.572837,13.834829,12.346615,1.649896,8.04685,7.93625,18.554903,16.290865,2.649142,7.925111,7.649035,14.040443,10.08439,1.345286,9.987559,8.847898,20.176125,14.14616,1.148043,9.978093,7.813529,26.2178,15.539556,2.482731,12.171524,11.277946,16.677374,11.571049,2.497554,12.304137,12.41663,22.952471,15.375521,1.5691,7.742541,8.712593,10.152646,9.1082,3.248926,14.760257,10.718883,17.131838,13.572766,2.65926,15.375033,18.774118,23.277308,21.128204,3.143323,21.212543,27.482901,35.6679,34.247215,6.339303,16.489574,10.730955,16.531218,11.474943,6.376969,17.679621,7.558432,18.239515,15.319357,3.321984,14.529395,8.499745,16.886864,14.900037,3.815481,12.25565,7.753675,14.355243,11.249401,8.189269,14.188532,7.722591,14.77552,12.390802,13.584415,16.002981,7.970154,15.547964,14.399803,70.713905,16.97748,9.587468,17.422318,11.848125
1763976041.603877,29737.0,0.0,4388.589844,4390.769043,4472.05127,4505.0,4383.461426,4541.794922,4535.641113,4375.384766,4550.769043,4332.179688,4493.846191,4504.871582,4541.153809,4365.641113,4382.563965,4462.307617,4534.487305,4498.846191,4484.230957,4381.538574,4369.615234,4560.769043,4510.384766,4500.512695,4401.794922,4579.871582,4392.563965,4555.256348,4507.436035,4378.461426,4536.410156,4478.333496,2896.0,0.0,11.0,1536.0,58031.0,,,,0.0,4.0,4.0,4.0,4.0,4.0,4.0,4.0,4.0,4.0,4.0,4.0,4.0,4.0,4.0,4.0,4.0,4.0,4.0,4.0,4.0,4.0,4.0,4.0,4.0,4.0,4.0,4.0,4.0,4.0,4.0,4.0,4.0,100.0,,,,,,,,,,,,,,,,,,,,,,,,,,,,,,,,,,,7434.0,0.0,0.245069,0.63678,0.621277,0.385315,0.994262,-0.099133,0.176779,32.833332,-28.0,29.333334,,,,,,,,,,,,,,,,,,,,,,,,,,,,,,,,,,,,,,,,,,,,,,,,,,,,,,,,,,,,,,,,,,,,,,,,,,,,,,,,,,,,,,,,,,,,,,,,,,,,,,,,,,,,,,,,,,,,,,,,,,,,,,,,,,,,,,,,,,,,,,,,,,,,,,,,,,,,,,,,
1763976041.607783,29738.0,0.0,4388.717773,4393.461426,4472.436035,4498.717773,4383.077148,4540.384766,4529.871582,4368.205078,4534.615234,4333.717773,4483.077148,4506.282227,4543.077148,4382.179688,4393.589844,4483.205078,4542.94873,4527.05127,4529.743652,4390.512695,4391.282227,4567.820313,4514.487305,4502.436035,4402.692383,4580.512695,4388.846191,4556.922852,4509.358887,4377.692383,4530.769043,4478.846191,2635.0,0.0,11.0,1792.0,58038.0,,,,0.0,4.0,4.0,4.0,4.0,4.0,4.0,4.0,4.0,4.0,4.0,4.0,4.0,4.0,4.0,4.0,4.0,4.0,4.0,4.0,4.0,4.0,4.0,4.0,4.0,4.0,4.0,4.0,4.0,4.0,4.0,4.0,4.0,100.0,,,,,,,,,,,,,,,,,,,,,,,,,,,,,,,,,,,,,,,,,,,,,,,,,,,,,,,,,,,,,,,,,,,,,,,,,,,,,,,,,,,,,,,,,,,,,,,,,,,,,,,,,,,,,,,,,,,,,,,,,,,,,,,,,,,,,,,,,,,,,,,,,,,,,,,,,,,,,,,,,,,,,,,,,,,,,,,,,,,,,,,,,,,,,,,,,,,,,,,,,,,,,,
1763976041.611689,29739.0,0.0,4396.538574,4405.128418,4482.563965,4502.436035,4388.974121,4542.692383,4533.974121,4373.205078,4530.897461,4349.102539,4484.487305,4515.0,4558.846191,4412.307617,4406.153809,4504.102539,4555.641113,4550.641113,4557.307617,4399.871582,4411.153809,4577.05127,4524.358887,4507.94873,4398.974121,4586.538574,4389.358887,4562.436035,4516.025879,4383.461426,4531.538574,4488.974121,2988.0,0.0,11.0,1792.0,58038.0,,,,0.0,4.0,4.0,4.0,4.0,4.0,4.0,4.0,4.0,4.0,4.0,4.0,4.0,4.0,4.0,4.0,4.0,4.0,4.0,4.0,4.0,4.0,4.0,4.0,4.0,4.0,4.0,4.0,4.0,4.0,4.0,4.0,4.0,100.0,,,,,,,,,,,,,,,,,,,,,,,,,,,,,,,,,,,,,,,,,,,,,,,,,,,,,,,,,,,,,,,,,,,,,,,,,,,,,,,,,,,,,,,,,,,,,,,,,,,,,,,,,,,,,,,,,,,,,,,,,,,,,,,,,,,,,,,,,,,,,,,,,,,,,,,,,,,,,,,,,,,,,,,,,,,,,,,,,,,,,,,,,,,,,,,,,,,,,,,,,,,,,,
1763976041.615595,29740.0,0.0,4400.769043,4413.589844,4492.05127,4508.589844,4392.820313,4542.307617,4539.230957,4381.153809,4535.769043,4364.615234,4491.538574,4519.743652,4573.589844,4428.589844,4404.230957,4506.282227,4560.128418,4553.205078,4549.743652,4400.512695,4415.256348,4580.0,4528.205078,4510.897461,4393.461426,4591.025879,4385.384766,4561.282227,4517.820313,4386.922852,4532.563965,4497.436035,3022.0,0.0,11.0,2048.0,58046.0,,,,0.0,4.0,4.0,4.0,4.0,4.0,4.0,4.0,4.0,4.0,4.0,4.0,4.0,4.0,4.0,4.0,4.0,4.0,4.0,4.0,4.0,4.0,4.0,4.0,4.0,4.0,4.0,4.0,4.0,4.0,4.0,4.0,4.0,100.0,,,,,,,,,,,,,,,,,,,,,,,,,,,,,,,,,,,,,,,,,,,,,,,,,,,,,,,,,,,,,,,,,,,,,,,,,,,,,,,,,,,,,,,,,,,,,,,,,,,,,,,,,,,,,,,,,,,,,,,,,,,,,,,,,,,,,,,,,,,,,,,,,,,,,,,,,,,,,,,,,,,,,,,,,,,,,,,,,,,,,,,,,,,,,,,,,,,,,,,,,,,,,,
1763976041.619501,29741.0,0.0,4396.538574,4411.794922,4494.102539,4510.641113,4391.025879,4536.666504,4539.230957,4383.205078,4542.563965,4376.410156,4496.410156,4515.384766,4576.410156,4415.384766,4386.153809,4490.769043,4553.333496,4538.717773,4522.179688,4393.974121,4407.179688,4575.641113,4522.563965,4508.974121,4391.025879,4592.179688,4377.179688,4551.794922,4512.05127,4384.743652,4531.538574,4497.94873,2643.0,0.0,11.0,2048.0,58046.0,,,,0.0,4.0,4.0,4.0,4.0,4.0,4.0,4.0,4.0,4.0,4.0,4.0,4.0,4.0,4.0,4.0,4.0,4.0,4.0,4.0,4.0,4.0,4.0,4.0,4.0,4.0,4.0,4.0,4.0,4.0,4.0,4.0,4.0,100.0,,,,,,,,,,,,,,,,,,,,,,,,,,,,,,,,,,,7435.0,0.0,0.245061,0.636658,0.621216,0.38562,0.998169,-0.090343,0.167989,33.0,-27.833334,28.666666,,,,,,,,,,,,,,,,,,,,,,,,,,,,,,,,,,,,,,,,,,,,,,,,,,,,,,,,,,,,,,,,,,,,,,,,,,,,,,,,,,,,,,,,,,,,,,,,,,,,,,,,,,,,,,,,,,,,,,,,,,,,,,,,,,,,,,,,,,,,,,,,,,,,,,,,,,,,,,,,
1763976041.623407,29742.0,0.0,4390.384766,4405.512695,4492.436035,4511.410156,4388.205078,4530.512695,4536.410156,4380.769043,4549.487305,4389.743652,4498.077148,4508.077148,4570.256348,4382.436035,4368.589844,4477.436035,4544.743652,4528.589844,4507.94873,4391.410156,4403.333496,4572.307617,4516.410156,4507.436035,4398.461426,4596.666504,4375.512695,4544.743652,4507.307617,4383.461426,4534.102539,4495.512695,2768.0,0.0,11.0,2304.0,58054.0,,,,0.0,4.0,4.0,4.0,4.0,4.0,4.0,4.0,4.0,4.0,4.0,4.0,4.0,4.0,4.0,4.0,4.0,4.0,4.0,4.0,4.0,4.0,4.0,4.0,4.0,4.0,4.0,4.0,4.0,4.0,4.0,4.0,4.0,100.0,,,,,,,,,,,,,,,,,,,,,,,,,,,,,,,,,,,,,,,,,,,,,,,,,,,,,,,,,,,,,,,,,,,,,,,,,,,,,,,,,,,,,,,,,,,,,,,,,,,,,,,,,,,,,,,,,,,,,,,,,,,,,,,,,,,,,,,,,,,,,,,,,,,,,,,,,,,,,,,,,,,,,,,,,,,,,,,,,,,,,,,,,,,,,,,,,,,,,,,,,,,,,,
1763976041.627313,29743.0,0.0,4393.077148,4406.153809,4495.641113,4517.692383,4392.436035,4531.410156,4538.589844,4381.922852,4559.615234,4411.025879,4499.615234,4508.846191,4566.282227,4356.922852,4371.153809,4486.922852,4546.794922,4540.769043,4527.05127,4403.205078,4415.897461,4578.846191,4521.666504,4513.589844,4418.846191,4611.410156,4389.743652,4553.077148,4513.461426,4392.05127,4547.692383,4500.0,2923.0,0.0,11.0,2304.0,58054.0,,,,0.0,4.0,4.0,4.0,4.0,4.0,4.0,4.0,4.0,4.0,4.0,4.0,4.0,4.0,4.0,4.0,4.0,4.0,4.0,4.0,4.0,4.0,4.0,4.0,4.0,4.0,4.0,4.0,4.0,4.0,4.0,4.0,4.0,100.0,,,,,,,,,,,,,,,,,,,,,,,,,,,,,,,,,,,,,,,,,,,,,,,,,,,,,,,,,,,,,,,,,,,,,,,,,,,,,,,,,,,,,,,,,,,,,,,,,,,,,,,,,,,,,,,,,,,,,,,,,,,,,,,,,,,,,,,,,,,,,,,,,,,,,,,,,,,,,,,,,,,,,,,,,,,,,,,,,,,,,,,,,,,,,,,,,,,,,,,,,,,,,,
1763976041.631219,29744.0,0.0,4406.538574,4417.05127,4506.538574,4530.128418,4403.974121,4540.0,4547.179688,4390.128418,4572.307617,4436.410156,4501.538574,4520.512695,4570.512695,4361.153809,4397.563965,4520.512695,4561.153809,4571.153809,4566.922852,4426.538574,4439.487305,4594.358887,4538.717773,4527.94873,4445.0,4633.205078,4415.384766,4575.897461,4529.871582,4409.871582,4569.871582,4513.717773,2977.0,0.0,11.0,2560.0,58062.0,,,,0.0,4.0,4.0,4.0,4.0,4.0,4.0,4.0,4.0,4.0,4.0,4.0,4.0,4.0,4.0,4.0,4.0,4.0,4.0,4.0,4.0,4.0,4.0,4.0,4.0,4.0,4.0,4.0,4.0,4.0,4.0,4.0,4.0,100.0,,,,,,,,,,,,,,,,,,,,,,,,,,,,,,,,,,,,,,,,,,,,,,,,,,,,,,,,,,,,,,,,,,,,,,,,,,,,,,,,,,,,,,,,,,,,,,,,,,,,,,,,,,,,,,,,,,,,,,,,,,,,,,,,,,,,,,,,,,,,,,,,,,,,,,,,,,,,,,,,,,,,,,,,,,,,,,,,,,,,,,,,,,,,,,,,,,,,,,,,,,,,,,
1763976041.635125,29745.0,0.0,4420.256348,4428.589844,4516.666504,4538.846191,4412.94873,4548.589844,4554.102539,4397.820313,4579.487305,4450.256348,4498.461426,4533.205078,4577.307617,4394.743652,4430.128418,4557.05127,4575.512695,4595.512695,4592.307617,4443.717773,4453.461426,4606.922852,4554.230957,4541.410156,4461.666504,4646.794922,4434.743652,4595.769043,4543.461426,4424.102539,4586.538574,4526.794922,3148.0,0.0,11.0,2560.0,58062.0,,,,0.0,4.0,4.0,4.0,4.0,4.0,4.0,4.0,4.0,4.0,4.0,4.0,4.0,4.0,4.0,4.0,4.0,4.0,4.0,4.0,4.0,4.0,4.0,4.0,4.0,4.0,4.0,4.0,4.0,4.0,4.0,4.0,4.0,100.0,,,,,,,,,,,,,,,,,,,,,,,,,,,,,,,,,,,7436.0,0.0,0.245061,0.636658,0.621216,0.38562,0.977658,-0.102063,0.170431,33.0,-27.833334,28.666666,,,,,,,,,,,,,,,,,,,,,,,,,,,,,,,,,,,,,,,,,,,,,,,,,,,,,,,,,,,,,,,,,,,,,,,,,,,,,,,,,,,,,,,,,,,,,,,,,,,,,,,,,,,,,,,,,,,,,,,,,,,,,,,,,,,,,,,,,,,,,,,,,,,,,,,,,,,,,,,,
1763976041.639031,29746.0,0.0,4420.512695,4426.410156,4513.974121,4532.307617,4408.077148,4547.692383,4550.256348,4394.358887,4572.179688,4437.563965,4487.436035,4532.94873,4575.0,4434.358887,4443.077148,4569.358887,4574.230957,4589.358887,4575.0,4436.538574,4438.589844,4603.205078,4552.179688,4542.692383,4455.769043,4637.307617,4431.282227,4593.974121,4539.743652,4420.897461,4582.563965,4525.641113,2868.0,0.0,11.0,2560.0,58071.0,,,,0.0,4.0,4.0,4.0,4.0,4.0,4.0,4.0,4.0,4.0,4.0,4.0,4.0,4.0,4.0,4.0,4.0,4.0,4.0,4.0,4.0,4.0,4.0,4.0,4.0,4.0,4.0,4.0,4.0,4.0,4.0,4.0,4.0,100.0,,,,,,,,,,,,,,,,,,,,,,,,,,,,,,,,,,,,,,,,,,,,,,,,,,,,,,,,,,,,,,,,,,,,,,,,,,,,,,,,,,,,,,,,,,,,,,,,,,,,,,,,,,,,,,,,,,,,,,,,,,,,,,,,,,,,,,,,,,,,,,,,,,,,,,,,,,,,,,,,,,,,,,,,,,,,,,,,,,,,,,,,,,,,,,,,,,,,,,,,,,,,,,
1763976041.642937,29747.0,0.0,4403.589844,4407.436035,4494.871582,4510.256348,4388.846191,4536.282227,4535.384766,4378.333496,4551.538574,4397.05127,4474.358887,4515.641113,4559.615234,4450.897461,4422.563965,4546.282227,4552.820313,4548.717773,4517.436035,4402.307617,4393.974121,4580.256348,4528.974121,4529.358887,4427.307617,4605.128418,4404.743652,4568.077148,4516.922852,4398.205078,4556.025879,4506.153809,3048.0,0.0,11.0,2560.0,58071.0,,,,0.0,4.0,4.0,4.0,4.0,4.0,4.0,4.0,4.0,4.0,4.0,4.0,4.0,4.0,4.0,4.0,4.0,4.0,4.0,4.0,4.0,4.0,4.0,4.0,4.0,4.0,4.0,4.0,4.0,4.0,4.0,4.0,4.0,100.0,,,,,,,,,,,,,,,,,,,,,,,,,,,,,,,,,,,,,,,,,,,,,,,,,,,,,,,,,,,,,,,,,,,,,,,,,,,,,,,,,,,,,,,,,,,,,,,,,,,,,,,,,,,,,,,,,,,,,,,,,,,,,,,,,,,,,,,,,,,,,,,,,,,,,,,,,,,,,,,,,,,,,,,,,,,,,,,,,,,,,,,,,,,,,,,,,,,,,,,,,,,,,,
1763976041.646843,29748.0,0.0,4380.384766,4383.077148,4469.487305,4486.153809,4367.05127,4523.077148,4520.897461,4361.153809,4530.128418,4344.871582,4470.641113,4492.05127,4539.102539,4433.461426,4379.230957,4502.94873,4523.077148,4495.256348,4451.794922,4359.102539,4341.025879,4550.0,4497.692383,4510.897461,4389.743652,4567.692383,4371.538574,4534.230957,4488.461426,4368.589844,4521.153809,4478.205078,3036.0,0.0,11.0,2560.0,58077.0,,,,0.0,4.0,4.0,4.0,4.0,4.0,4.0,4.0,4.0,4.0,4.0,4.0,4.0,4.0,4.0,4.0,4.0,4.0,4.0,4.0,4.0,4.0,4.0,4.0,4.0,4.0,4.0,4.0,4.0,4.0,4.0,4.0,4.0,100.0,,,,,,,,,,,,,,,,,,,,,,,,,,,,,,,,,,,,,,,,,,,,,,,,,,,,,,,,,,,,,,,,,,,,,,,,,,,,,,,,,,,,,,,,,,,,,,,,,,,,,,,,,,,,,,,,,,,,,,,,,,,,,,,,,,,,,,,,,,,,,,,,,,,,,,,,,,,,,,,,,,,,,,,,,,,,,,,,,,,,,,,,,,,,,,,,,,,,,,,,,,,,,,
1763976041.650749,29749.0,0.0,4366.666504,4369.743652,4453.846191,4476.410156,4357.436035,4518.717773,4518.846191,4356.282227,4522.05127,4306.410156,4481.538574,4478.589844,4527.563965,4398.461426,4341.410156,4468.077148,4503.846191,4460.769043,4417.05127,4333.077148,4311.025879,4530.384766,4478.205078,4499.487305,4362.436035,4546.922852,4351.794922,4513.461426,4471.922852,4349.230957,4498.077148,4458.974121,2958.0,0.0,11.0,2560.0,58077.0,,,,0.0,4.0,4.0,4.0,4.0,4.0,4.0,4.0,4.0,4.0,4.0,4.0,4.0,4.0,4.0,4.0,4.0,4.0,4.0,4.0,4.0,4.0,4.0,4.0,4.0,4.0,4.0,4.0,4.0,4.0,4.0,4.0,4.0,100.0,,,,,,,,,,,,,,,,,,,,,,,,,,,,,,,,,,,7437.0,0.0,0.244815,0.636841,0.621277,0.385376,0.96252,-0.101575,0.178733,30.833334,-27.666666,28.0,,,,,,,,,,,,,,,,,,,,,,,,,,,,,,,,,,,,,,,,,,,,,,,,,,,,,,,,,,,,,,,,,,,,,,,,,,,,,,,,,,,,,,,,,,,,,,,,,,,,,,,,,,,,,,,,,,,,,,,,,,,,,,,,,,,,,,,,,,,,,,,,,,,,,,,,,,,,,,,,
1763976041.654655,29750.0,0.0,4370.128418,4374.102539,4456.410156,4486.282227,4365.256348,4526.538574,4531.410156,4367.05127,4531.666504,4301.153809,4500.128418,4483.461426,4532.563965,4373.846191,4332.436035,4461.282227,4506.153809,4463.333496,4430.769043,4337.820313,4322.563965,4530.897461,4480.512695,4498.589844,4359.230957,4552.05127,4352.820313,4513.846191,4474.743652,4348.846191,4496.666504,4458.461426,3028.0,0.0,11.0,1280.0,58085.0,,,,0.0,4.0,4.0,4.0,4.0,4.0,4.0,4.0,4.0,4.0,4.0,4.0,4.0,4.0,4.0,4.0,4.0,4.0,4.0,4.0,4.0,4.0,4.0,4.0,4.0,4.0,4.0,4.0,4.0,4.0,4.0,4.0,4.0,100.0,,,,,,,,,,,,,,,,,,,,,,,,,,,,,,,,,,,,,,,,,,,,,,,,,,,,,,,,,,,,,,,,,,,,,,,,,,,,,,,,,,,,,,,,,,,,,,,,,,,,,,,,,,,,,,,,,,,,,,,,,,,,,,,,,,,,,,,,,,,,,,,,,,,,,,,,,,,,,,,,,,,,,,,,,,,,,,,,,,,,,,,,,,,,,,,,,,,,,,,,,,,,,,
1763976041.658561,29751.0,0.0,4384.487305,4388.589844,4471.666504,4506.410156,4381.794922,4539.615234,4548.205078,4383.846191,4551.410156,4329.871582,4514.230957,4499.871582,4549.230957,4373.589844,4352.179688,4478.205078,4525.641113,4494.487305,4476.922852,4363.974121,4367.05127,4546.153809,4498.461426,4500.128418,4379.743652,4573.589844,4365.641113,4526.666504,4489.871582,4362.436035,4511.025879,4472.307617,2988.0,0.0,11.0,1280.0,58085.0,,,,0.0,4.0,4.0,4.0,4.0,4.0,4.0,4.0,4.0,4.0,4.0,4.0,4.0,4.0,4.0,4.0,4.0,4.0,4.0,4.0,4.0,4.0,4.0,4.0,4.0,4.0,4.0,4.0,4.0,4.0,4.0,4.0,4.0,100.0,,,,,,,,,,,,,,,,,,,,,,,,,,,,,,,,,,,,,,,,,,,,,,,,,,,,,,,,,,,,,,,,,,,,,,,,,,,,,,,,,,,,,,,,,,,,,,,,,,,,,,,,,,,,,,,,,,,,,,,,,,,,,,,,,,,,,,,,,,,,,,,,,,,,,,,,,,,,,,,,,,,,,,,,,,,,,,,,,,,,,,,,,,,,,,,,,,,,,,,,,,,,,,
1763976041.662467,29752.0,0.0,4397.307617,4399.230957,4485.897461,4520.128418,4393.717773,4547.436035,4556.794922,4393.077148,4567.436035,4373.589844,4516.922852,4513.974121,4564.358887,4385.897461,4380.384766,4499.102539,4546.538574,4528.461426,4518.974121,4388.589844,4412.692383,4561.794922,4515.769043,4494.230957,4406.922852,4592.179688,4375.256348,4536.922852,4502.820313,4376.794922,4526.282227,4487.05127,2885.0,0.0,11.0,256.0,58093.0,,,,0.0,4.0,4.0,4.0,4.0,4.0,4.0,4.0,4.0,4.0,4.0,4.0,4.0,4.0,4.0,4.0,4.0,4.0,4.0,4.0,4.0,4.0,4.0,4.0,4.0,4.0,4.0,4.0,4.0,4.0,4.0,4.0,4.0,100.0,,,,,,,,,,,,,,,,,,,,,,,,,,,,,,,,,,,,,,,,,,,,,,,,,,,,,,,,,,,,,,,,,,,,,,,,,,,,,,,,,,,,,,,,,,,,,,,,,,,,,,,,,,,,,,,,,,,,,,,,,,,,,,,,,,,,,,,,,,,,,,,,,,,,,,,,,,,,,,,,,,,,,,,,,,,,,,,,,,,,,,,,,,,,,,,,,,,,,,,,,,,,,,
1763976041.666373,29753.0,0.0,4398.974121,4396.153809,4487.820313,4516.666504,4392.307617,4543.846191,4550.769043,4386.922852,4568.589844,4408.461426,4508.333496,4514.487305,4565.769043,4387.436035,4394.487305,4507.692383,4553.846191,4541.410156,4526.922852,4393.205078,4427.94873,4565.897461,4519.102539,4481.025879,4416.410156,4594.230957,4372.436035,4535.0,4503.333496,4380.897461,4529.230957,4490.128418,2908.0,0.0,11.0,256.0,58093.0,,,,0.0,4.0,4.0,4.0,4.0,4.0,4.0,4.0,4.0,4.0,4.0,4.0,4.0,4.0,4.0,4.0,4.0,4.0,4.0,4.0,4.0,4.0,4.0,4.0,4.0,4.0,4.0,4.0,4.0,4.0,4.0,4.0,4.0,100.0,,,,,,,,,,,,,,,,,,,,,,,,,,,,,,,,,,,7438.0,0.0,0.244239,0.636963,0.621643,0.384949,0.94494,-0.088878,0.198266,33.666668,-26.0,28.833334,,,,,,,,,,,,,,,,,,,,,,,,,,,,,,,,,,,,,,,,,,,,,,,,,,,,,,,,,,,,,,,,,,,,,,,,,,,,,,,,,,,,,,,,,,,,,,,,,,,,,,,,,,,,,,,,,,,,,,,,,,,,,,,,,,,,,,,,,,,,,,,,,,,,,,,,,,,,,,,,
1763976041.670279,29754.0,0.0,4388.077148,4380.769043,4475.384766,4497.307617,4379.358887,4530.256348,4532.179688,4366.666504,4552.307617,4422.05127,4492.05127,4500.384766,4550.641113,4369.487305,4387.436035,4503.205078,4543.077148,4528.589844,4498.589844,4376.794922,4402.563965,4557.05127,4506.025879,4470.0,4395.512695,4579.487305,4360.0,4521.922852,4491.282227,4372.307617,4517.179688,4478.846191,2799.0,0.0,11.0,256.0,58101.0,,,,0.0,4.0,4.0,4.0,4.0,4.0,4.0,4.0,4.0,4.0,4.0,4.0,4.0,4.0,4.0,4.0,4.0,4.0,4.0,4.0,4.0,4.0,4.0,4.0,4.0,4.0,4.0,4.0,4.0,4.0,4.0,4.0,4.0,100.0,,,,,,,,,,,,,,,,,,,,,,,,,,,,,,,,,,,,,,,,,,,,,,,,,,,,,,,,,,,,,,,,,,,,,,,,,,,,,,,,,,,,,,,,,,,,,,,,,,,,,,,,,,,,,,,,,,,,,,,,,,,,,,,,,,,,,,,,,,,,,,,,,,,,,,,,,,,,,,,,,,,,,,,,,,,,,,,,,,,,,,,,,,,,,,,,,,,,,,,,,,,,,,
1763976041.674185,29755.0,0.0,4371.922852,4363.717773,4457.179688,4474.871582,4365.128418,4514.230957,4510.512695,4342.692383,4526.922852,4416.666504,4473.077148,4480.897461,4527.820313,4347.05127,4368.461426,4495.769043,4522.820313,4504.102539,4459.102539,4353.589844,4355.0,4543.717773,4486.410156,4471.153809,4356.410156,4560.256348,4349.358887,4508.461426,4476.410156,4358.589844,4499.230957,4461.153809,3039.0,0.0,11.0,256.0,58101.0,,,,0.0,4.0,4.0,4.0,4.0,4.0,4.0,4.0,4.0,4.0,4.0,4.0,4.0,4.0,4.0,4.0,4.0,4.0,4.0,4.0,4.0,4.0,4.0,4.0,4.0,4.0,4.0,4.0,4.0,4.0,4.0,4.0,4.0,100.0,,,,,,,,,,,,,,,,,,,,,,,,,,,,,,,,,,,,,,,,,,,,,,,,,,,,,,,,,,,,,,,,,,,,,,,,,,,,,,,,,,,,,,,,,,,,,,,,,,,,,,,,,,,,,,,,,,,,,,,,,,,,,,,,,,,,,,,,,,,,,,,,,,,,,,,,,,,,,,,,,,,,,,,,,,,,,,,,,,,,,,,,,,,,,,,,,,,,,,,,,,,,,,
1763976041.677991,29756.0,0.0,4362.563965,4358.205078,4446.922852,4466.153809,4360.641113,4505.128418,4497.94873,4329.871582,4507.692383,4399.743652,4459.358887,4470.256348,4513.974121,4342.436035,4353.077148,4495.0,4508.589844,4489.871582,4441.410156,4341.025879,4318.589844,4537.692383,4476.153809,4485.384766,4328.205078,4552.179688,4352.436035,4508.333496,4471.410156,4351.666504,4490.256348,4451.153809,2104.0,0.0,11.0,512.0,58109.0,,,,0.0,4.0,4.0,4.0,4.0,4.0,4.0,4.0,4.0,4.0,4.0,4.0,4.0,4.0,4.0,4.0,4.0,4.0,4.0,4.0,4.0,4.0,4.0,4.0,4.0,4.0,4.0,4.0,4.0,4.0,4.0,4.0,4.0,100.0,,,,,,,,,,,,,,,,,,,,,,,,,,,,,,,,,,,,,,,,,,,,,,,,,,,,,,,,,,,,,,,,,,,,,,,,,,,,,,,,,,,,,,,,,,,,,,,,,,,,,,,,,,,,,,,,,,,,,,,,,,,,,,,,,,,,,,,,,,,,,,,,,,,,,,,,,,,,,,,,,,,,,,,,,,,,,,,,,,,,,,,,,,,,,,,,,,,,,,,,,,,,,,
1763976041.681897,29757.0,0.0,4368.205078,4370.256348,4454.102539,4479.358887,4370.641113,4508.205078,4503.461426,4338.077148,4507.179688,4375.0,4458.205078,4477.179688,4520.512695,4363.717773,4352.820313,4502.820313,4511.410156,4498.589844,4461.410156,4347.94873,4319.230957,4545.256348,4485.128418,4502.05127,4330.512695,4562.179688,4372.307617,4528.461426,4483.333496,4359.871582,4500.128418,4458.077148,2827.0,0.0,11.0,512.0,58109.0,,,,0.0,4.0,4.0,4.0,4.0,4.0,4.0,4.0,4.0,4.0,4.0,4.0,4.0,4.0,4.0,4.0,4.0,4.0,4.0,4.0,4.0,4.0,4.0,4.0,4.0,4.0,4.0,4.0,4.0,4.0,4.0,4.0,4.0,100.0,,,,,,,,,,,,,,,,,,,,,,,,,,,,,,,,,,,7439.0,0.0,0.243598,0.636902,0.62207,0.384766,0.961055,-0.104993,0.23245,32.666668,-25.833334,29.5,,,,,,,,,,,,,,,,,,,,,,,,,,,,,,,,,,,,,,,,,,,,,,,,,,,,,,,,,,,,,,,,,,,,,,,,,,,,,,,,,,,,,,,,,,,,,,,,,,,,,,,,,,,,,,,,,,,,,,,,,,,,,,,,,,,,,,,,,,,,,,,,,,,,,,,,,,,,,,,,
1763976041.685803,29758.0,0.0,4387.05127,4393.333496,4476.025879,4507.307617,4389.743652,4521.538574,4524.487305,4364.230957,4526.153809,4343.717773,4469.487305,4498.461426,4544.358887,4399.871582,4369.230957,4515.128418,4529.615234,4525.641113,4506.538574,4369.487305,4358.205078,4561.922852,4509.230957,4507.563965,4357.563965,4584.102539,4400.512695,4561.025879,4507.307617,4380.384766,4524.871582,4479.487305,3051.0,0.0,11.0,512.0,58116.0,,,,0.0,4.0,4.0,4.0,4.0,4.0,4.0,4.0,4.0,4.0,4.0,4.0,4.0,4.0,4.0,4.0,4.0,4.0,4.0,4.0,4.0,4.0,4.0,4.0,4.0,4.0,4.0,4.0,4.0,4.0,4.0,4.0,4.0,100.0,,,,,,,,,,,,,,,,,,,,,,,,,,,,,,,,,,,,,,,,,,,,,,,,,,,,,,,,,,,,,,,,,,,,,,,,,,,,,,,,,,,,,,,,,,,,,,,,,,,,,,,,,,,,,,,,,,,,,,,,,,,,,,,,,,,,,,,,,,,,,,,,,,,,,,,,,,,,,,,,,,,,,,,,,,,,,,,,,,,,,,,,,,,,,,,,,,,,,,,,,,,,,,
1763976041.689709,29759.0,0.0,4407.563965,4412.692383,4499.487305,4533.205078,4406.794922,4536.538574,4548.461426,4393.717773,4552.563965,4310.0,4484.487305,4520.384766,4569.615234,4432.436035,4394.358887,4526.282227,4550.769043,4552.94873,4545.769043,4392.307617,4411.922852,4576.794922,4532.563965,4496.666504,4387.820313,4602.820313,4421.410156,4587.05127,4529.230957,4400.897461,4549.487305,4502.05127,2949.0,0.0,11.0,512.0,58116.0,,,,0.0,4.0,4.0,4.0,4.0,4.0,4.0,4.0,4.0,4.0,4.0,4.0,4.0,4.0,4.0,4.0,4.0,4.0,4.0,4.0,4.0,4.0,4.0,4.0,4.0,4.0,4.0,4.0,4.0,4.0,4.0,4.0,4.0,100.0,,,,,,,,,,,,,,,,,,,,,,,,,,,,,,,,,,,,,,,,,,,,,,,,,,,,,,,,,,,,,,,,,,,,,,,,,,,,,,,,,,,,,,,,,,,,,,,,,,,,,,,,,,,,,,,,,,,,,,,,,,,,,,,,,,,,,,,,,,,,,,,,,,,,,,,,,,,,,,,,,,,,,,,,,,,,,,,,,,,,,,,,,,,,,,,,,,,,,,,,,,,,,,
1763976041.693614,29760.0,0.0,4416.794922,4417.05127,4510.512695,4542.179688,4411.794922,4543.333496,4561.410156,4410.0,4569.871582,4283.461426,4493.333496,4529.743652,4580.512695,4447.692383,4415.256348,4530.256348,4560.769043,4563.461426,4553.846191,4403.717773,4448.717773,4580.384766,4539.871582,4478.589844,4404.230957,4606.922852,4423.717773,4590.256348,4535.641113,4408.205078,4558.846191,4512.179688,2897.0,0.0,11.0,768.0,58124.0,,,,0.0,4.0,4.0,4.0,4.0,4.0,4.0,4.0,4.0,4.0,4.0,4.0,4.0,4.0,4.0,4.0,4.0,4.0,4.0,4.0,4.0,4.0,4.0,4.0,4.0,4.0,4.0,4.0,4.0,4.0,4.0,4.0,4.0,100.0,,,,,,,,,,,,,,,,,,,,,,,,,,,,,,,,,,,,,,,,,,,,,,,,,,,,,,,,,,,,,,,,,,,,,,,,,,,,,,,,,,,,,,,,,,,,,,,,,,,,,,,,,,,,,,,,,,,,,,,,,,,,,,,,,,,,,,,,,,,,,,,,,,,,,,,,,,,,,,,,,,,,,,,,,,,,,,,,,,,,,,,,,,,,,,,,,,,,,,,,,,,,,,
1763976041.69752,29761.0,0.0,4410.769043,4405.384766,4503.974121,4531.922852,4403.333496,4538.205078,4557.692383,4405.512695,4567.692383,4276.922852,4492.820313,4523.461426,4573.846191,4440.128418,4420.256348,4523.846191,4555.512695,4552.94873,4531.153809,4399.358887,4449.358887,4572.179688,4528.205078,4469.871582,4405.769043,4596.410156,4407.436035,4569.358887,4523.589844,4397.94873,4549.102539,4506.025879,2888.0,0.0,11.0,768.0,58124.0,,,,0.0,4.0,4.0,4.0,4.0,4.0,4.0,4.0,4.0,4.0,4.0,4.0,4.0,4.0,4.0,4.0,4.0,4.0,4.0,4.0,4.0,4.0,4.0,4.0,4.0,4.0,4.0,4.0,4.0,4.0,4.0,4.0,4.0,100.0,,,,,,,,,,,,,,,,,,,,,,,,,,,,,,,,,,,7440.0,0.0,0.243579,0.636597,0.622314,0.384888,0.98303,-0.086436,0.195825,32.0,-26.833334,28.0,,,,,,,,,,,,,,,,,,,,,,,,,,,,,,,,,,,,,,,,,,,,,,,,,,,,,,,,,,,,,,,,,,,,,,,,,,,,,,,,,,,,,,,,,,,,,,,,,,,,,,,,,,,,,,,,,,,,,,,,,,,,,,,,,,,,,,,,,,,,,,,,,,,,,,,,,,,,,,,,
1763976041.701426,29762.0,0.0,4396.794922,4388.333496,4487.692383,4512.307617,4388.333496,4526.282227,4543.589844,4386.025879,4549.358887,4302.820313,4488.846191,4510.128418,4560.897461,4413.333496,4407.692383,4510.897461,4542.307617,4533.846191,4502.436035,4385.769043,4420.384766,4560.769043,4509.615234,4482.436035,4404.487305,4583.077148,4383.846191,4539.487305,4502.94873,4378.077148,4529.358887,4491.538574,2314.0,0.0,11.0,1024.0,58132.0,,,,0.0,4.0,4.0,4.0,4.0,4.0,4.0,4.0,4.0,4.0,4.0,4.0,4.0,4.0,4.0,4.0,4.0,4.0,4.0,4.0,4.0,4.0,4.0,4.0,4.0,4.0,4.0,4.0,4.0,4.0,4.0,4.0,4.0,100.0,,,,,,,,,,,,,,,,,,,,,,,,,,,,,,,,,,,,,,,,,,,,,,,,,,,,,,,,,,,,,,,,,,,,,,,,,,,,,,,,,,,,,,,,,,,,,,,,,,,,,,,,,,,,,,,,,,,,,,,,,,,,,,,,,,,,,,,,,,,,,,,,,,,,,,,,,,,,,,,,,,,,,,,,,,,,,,,,,,,,,,,,,,,,,,,,,,,,,,,,,,,,,,
1763976041.705332,29763.0,0.0,4388.846191,4380.256348,4477.179688,4499.615234,4378.974121,4519.230957,4532.563965,4366.794922,4531.025879,4365.0,4491.282227,4504.615234,4557.563965,4379.615234,4388.333496,4502.307617,4536.025879,4525.897461,4496.794922,4375.769043,4388.846191,4558.589844,4502.436035,4515.384766,4413.717773,4581.282227,4369.102539,4522.820313,4490.641113,4364.487305,4516.410156,4483.205078,3045.0,0.0,11.0,1024.0,58132.0,,,,0.0,4.0,4.0,4.0,4.0,4.0,4.0,4.0,4.0,4.0,4.0,4.0,4.0,4.0,4.0,4.0,4.0,4.0,4.0,4.0,4.0,4.0,4.0,4.0,4.0,4.0,4.0,4.0,4.0,4.0,4.0,4.0,4.0,100.0,,,,,,,,,,,,,,,,,,,,,,,,,,,,,,,,,,,,,,,,,,,,,,,,,,,,,,,,,,,,,,,,,,,,,,,,,,,,,,,,,,,,,,,,,,,,,,,,,,,,,,,,,,,,,,,,,,,,,,,,,,,,,,,,,,,,,,,,,,,,,,,,,,,,,,,,,,,,,,,,,,,,,,,,,,,,,,,,,,,,,,,,,,,,,,,,,,,,,,,,,,,,,,
1763976041.709237,29764.0,0.0,4398.461426,4390.769043,4485.512695,4506.794922,4384.871582,4527.563965,4537.307617,4365.0,4531.794922,4448.205078,4506.538574,4517.179688,4573.333496,4357.94873,4379.487305,4509.743652,4547.692383,4541.922852,4526.153809,4381.666504,4382.436035,4574.102539,4519.358887,4555.641113,4437.179688,4598.077148,4375.769043,4534.871582,4499.487305,4371.153809,4523.846191,4492.563965,2964.0,0.0,11.0,1280.0,58140.0,,,,0.0,4.0,4.0,4.0,4.0,4.0,4.0,4.0,4.0,4.0,4.0,4.0,4.0,4.0,4.0,4.0,4.0,4.0,4.0,4.0,4.0,4.0,4.0,4.0,4.0,4.0,4.0,4.0,4.0,4.0,4.0,4.0,4.0,100.0,,,,,,,,,,,,,,,,,,,,,,,,,,,,,,,,,,,,,,,,,,,,,,,,,,,,,,,,,,,,,,,,,,,,,,,,,,,,,,,,,,,,,,,,,,,,,,,,,,,,,,,,,,,,,,,,,,,,,,,,,,,,,,,,,,,,,,,,,,,,,,,,,,,,,,,,,,,,,,,,,,,,,,,,,,,,,,,,,,,,,,,,,,,,,,,,,,,,,,,,,,,,,,
1763976041.713143,29765.0,0.0,4425.769043,4418.333496,4514.102539,4535.128418,4406.922852,4552.05127,4561.153809,4387.94873,4559.487305,4518.077148,4531.794922,4546.794922,4603.717773,4364.102539,4392.436035,4535.641113,4577.05127,4577.692383,4575.512695,4405.512695,4409.358887,4604.743652,4557.307617,4587.179688,4463.974121,4628.077148,4405.384766,4575.0,4530.0,4400.641113,4553.589844,4519.358887,2419.0,0.0,11.0,1280.0,58140.0,,,,0.0,4.0,4.0,4.0,4.0,4.0,4.0,4.0,4.0,4.0,4.0,4.0,4.0,4.0,4.0,4.0,4.0,4.0,4.0,4.0,4.0,4.0,4.0,4.0,4.0,4.0,4.0,4.0,4.0,4.0,4.0,4.0,4.0,100.0,,,,,,,,,,,,,,,,,,,,,,,,,,,,,,,,,,,7441.0,0.0,0.243742,0.63623,0.622437,0.385193,0.968868,-0.097668,0.198755,32.833332,-29.166666,29.333334,,,,,,,,,,,,,,,,,,,,,,,,,,,,,,,,,,,,,,,,,,,,,,,,,,,,,,,,,,,,,,,,,,,,,,,,,,,,,,,,,,,,,,,,,,,,,,,,,,,,,,,,,,,,,,,,,,,,,,,,,,,,,,,,,,,,,,,,,,,,,,,,,,,,,,,,,,,,,,,,
1763976041.717049,29766.0,0.0,4458.589844,4450.769043,4550.128418,4571.666504,4435.0,4581.922852,4593.974121,4426.666504,4602.692383,4539.358887,4555.256348,4580.0,4633.077148,4398.846191,4423.333496,4568.077148,4610.384766,4613.333496,4613.205078,4437.05127,4451.922852,4636.282227,4597.563965,4598.717773,4477.179688,4657.563965,4445.641113,4625.256348,4567.820313,4440.0,4592.05127,4550.256348,3035.0,0.0,11.0,1536.0,58148.0,,,,0.0,4.0,4.0,4.0,4.0,4.0,4.0,4.0,4.0,4.0,4.0,4.0,4.0,4.0,4.0,4.0,4.0,4.0,4.0,4.0,4.0,4.0,4.0,4.0,4.0,4.0,4.0,4.0,4.0,4.0,4.0,4.0,4.0,100.0,,,,,,,,,,,,,,,,,,,,,,,,,,,,,,,,,,,,,,,,,,,,,,,,,,,,,,,,,,,,,,,,,,,,,,,,,,,,,,,,,,,,,,,,,,,,,,,,,,,,,,,,,,,,,,,,,,,,,,,,,,,,,,,,,,,,,,,,,,,,,,,,,,,,,,,,,,,,,,,,,,,,,,,,,,,,,,,,,,,,,,,,,,,,,,,,,,,,,,,,,,,,,,
1763976041.720955,29767.0,0.0,4478.205078,4470.641113,4573.077148,4595.897461,4452.94873,4600.384766,4617.307617,4459.487305,4636.282227,4499.487305,4562.563965,4597.820313,4643.589844,4444.102539,4455.0,4586.922852,4628.205078,4625.897461,4612.820313,4459.358887,4481.153809,4651.025879,4616.794922,4587.179688,4466.666504,4671.538574,4474.743652,4658.333496,4591.538574,4466.666504,4616.666504,4566.282227,3016.0,0.0,11.0,1536.0,58148.0,,,,0.0,4.0,4.0,4.0,4.0,4.0,4.0,4.0,4.0,4.0,4.0,4.0,4.0,4.0,4.0,4.0,4.0,4.0,4.0,4.0,4.0,4.0,4.0,4.0,4.0,4.0,4.0,4.0,4.0,4.0,4.0,4.0,4.0,100.0,,,,,,,,,,,,,,,,,,,,,,,,,,,,,,,,,,,,,,,,,,,,,,,,,,,,,,,,,,,,,,,,,,,,,,,,,,,,,,,,,,,,,,,,,,,,,,,,,,,,,,,,,,,,,,,,,,,,,,,,,,,,,,,,,,,,,,,,,,,,,,,,,,,,,,,,,,,,,,,,,,,,,,,,,,,,,,,,,,,,,,,,,,,,,,,,,,,,,,,,,,,,,,
1763976041.72486,29768.0,0.0,4469.615234,4464.102539,4566.922852,4590.769043,4447.692383,4594.871582,4614.487305,4464.871582,4637.820313,4416.922852,4544.871582,4586.922852,4625.384766,4472.820313,4467.436035,4577.820313,4616.922852,4604.102539,4571.153809,4458.589844,4477.307617,4637.436035,4600.512695,4555.641113,4437.05127,4660.256348,4472.563965,4652.436035,4584.230957,4461.410156,4608.717773,4554.230957,2685.0,0.0,11.0,1792.0,58156.0,,,,0.0,4.0,4.0,4.0,4.0,4.0,4.0,4.0,4.0,4.0,4.0,4.0,4.0,4.0,4.0,4.0,4.0,4.0,4.0,4.0,4.0,4.0,4.0,4.0,4.0,4.0,4.0,4.0,4.0,4.0,4.0,4.0,4.0,100.0,1.0,0.0,1.0,1.0,1.0,1.0,1.0,1.0,1.0,0.0,0.0,0.0,0.0,1.0,1.0,1.0,1.0,1.0,1.0,1.0,1.0,1.0,1.0,1.0,1.0,0.0,0.0,1.0,1.0,1.0,1.0,1.0,1.0,1.0,,,,,,,,,,,,,3.095159,9.343443,7.72597,13.799827,11.217915,8.639667,11.449371,6.823246,13.903535,11.378874,94.9328,19.631605,7.683884,16.750898,11.806813,26.342213,11.939522,5.78687,17.367037,12.941476,6.999482,6.987514,3.56473,9.412439,8.267295,5.577911,7.629128,6.116773,7.935296,7.157468,3.015173,8.788005,5.756762,16.510372,13.518334,5.078543,10.620056,5.330457,18.859982,15.993092,3.73338,10.71104,5.721384,15.723659,16.993979,2.816919,11.4911,28.635212,28.473267,38.866764,2.27361,7.092401,6.403225,19.828327,24.705698,2.768244,9.296318,7.248807,13.674507,11.183278,3.01956,9.166475,9.247942,16.356905,14.411439,1.410606,4.070921,4.173786,15.432382,16.439215,1.349615,4.820012,3.67507,13.320763,12.071677,1.524723,7.369572,7.086085,16.19166,15.17317,3.353145,7.944297,7.468067,13.210594,9.788684,1.61877,9.568721,8.270312,18.581711,13.464253,1.332323,9.089289,7.182817,24.1971,15.155955,2.830081,11.92835,10.031258,16.528227,11.198808,2.797847,12.533695,11.418563,22.592335,15.444953,1.863657,7.463537,9.036311,9.292766,9.052264,3.929767,14.399692,10.655401,16.079466,13.303652,3.345219,15.141132,18.252802,21.637449,19.823099,4.082693,21.936428,27.095753,35.063068,30.387545,8.156261,16.799555,10.242609,16.201427,11.667002,8.088222,17.006372,7.339052,17.561855,15.793792,4.214295,14.556905,8.656189,15.948059,14.893855,4.644173,12.39636,7.389933,13.599133,11.131058,10.182384,14.892907,7.621072,14.280648,12.29691,17.699846,17.194511,7.801235,14.998867,13.909755,81.792351,18.307129,8.647763,16.746567,11.473395
1763976041.728766,29769.0,0.0,4431.410156,4428.589844,4530.384766,4553.717773,4417.179688,4564.487305,4581.153809,4434.743652,4601.282227,4328.974121,4505.256348,4547.436035,4582.820313,4466.410156,4449.615234,4540.641113,4577.436035,4555.256348,4509.358887,4430.256348,4441.410156,4597.94873,4551.666504,4511.153809,4400.128418,4623.205078,4432.307617,4604.615234,4543.974121,4420.256348,4564.743652,4515.384766,2883.0,0.0,11.0,1792.0,58156.0,,,,0.0,4.0,4.0,4.0,4.0,4.0,4.0,4.0,4.0,4.0,4.0,4.0,4.0,4.0,4.0,4.0,4.0,4.0,4.0,4.0,4.0,4.0,4.0,4.0,4.0,4.0,4.0,4.0,4.0,4.0,4.0,4.0,4.0,100.0,,,,,,,,,,,,,,,,,,,,,,,,,,,,,,,,,,,7442.0,0.0,0.243469,0.635925,0.622742,0.385376,0.973263,-0.08253,0.205591,32.166668,-27.0,28.666666,,,,,,,,,,,,,,,,,,,,,,,,,,,,,,,,,,,,,,,,,,,,,,,,,,,,,,,,,,,,,,,,,,,,,,,,,,,,,,,,,,,,,,,,,,,,,,,,,,,,,,,,,,,,,,,,,,,,,,,,,,,,,,,,,,,,,,,,,,,,,,,,,,,,,,,,,,,,,,,,
1763976041.732672,29770.0,0.0,4376.666504,4375.641113,4478.077148,4498.974121,4372.307617,4521.538574,4528.974121,4380.128418,4542.05127,4272.179688,4458.461426,4493.333496,4532.179688,4426.282227,4404.615234,4489.230957,4524.743652,4499.615234,4456.025879,4381.922852,4391.153809,4547.563965,4489.102539,4464.743652,4366.410156,4570.641113,4366.922852,4532.820313,4485.384766,4358.333496,4501.282227,4464.871582,2600.0,0.0,11.0,2048.0,58163.0,,,,0.0,4.0,4.0,4.0,4.0,4.0,4.0,4.0,4.0,4.0,4.0,4.0,4.0,4.0,4.0,4.0,4.0,4.0,4.0,4.0,4.0,4.0,4.0,4.0,4.0,4.0,4.0,4.0,4.0,4.0,4.0,4.0,4.0,100.0,,,,,,,,,,,,,,,,,,,,,,,,,,,,,,,,,,,,,,,,,,,,,,,,,,,,,,,,,,,,,,,,,,,,,,,,,,,,,,,,,,,,,,,,,,,,,,,,,,,,,,,,,,,,,,,,,,,,,,,,,,,,,,,,,,,,,,,,,,,,,,,,,,,,,,,,,,,,,,,,,,,,,,,,,,,,,,,,,,,,,,,,,,,,,,,,,,,,,,,,,,,,,,
1763976041.736578,29771.0,0.0,4327.563965,4327.436035,4432.05127,4449.358887,4332.05127,4484.487305,4480.256348,4325.128418,4486.794922,4266.153809,4424.358887,4447.05127,4493.846191,4372.563965,4349.230957,4443.846191,4480.256348,4459.102539,4428.461426,4331.794922,4347.94873,4506.666504,4437.820313,4429.871582,4341.666504,4521.666504,4303.974121,4467.179688,4432.820313,4303.077148,4447.563965,4423.846191,2989.0,0.0,11.0,2048.0,58163.0,,,,0.0,4.0,4.0,4.0,4.0,4.0,4.0,4.0,4.0,4.0,4.0,4.0,4.0,4.0,4.0,4.0,4.0,4.0,4.0,4.0,4.0,4.0,4.0,4.0,4.0,4.0,4.0,4.0,4.0,4.0,4.0,4.0,4.0,100.0,,,,,,,,,,,,,,,,,,,,,,,,,,,,,,,,,,,,,,,,,,,,,,,,,,,,,,,,,,,,,,,,,,,,,,,,,,,,,,,,,,,,,,,,,,,,,,,,,,,,,,,,,,,,,,,,,,,,,,,,,,,,,,,,,,,,,,,,,,,,,,,,,,,,,,,,,,,,,,,,,,,,,,,,,,,,,,,,,,,,,,,,,,,,,,,,,,,,,,,,,,,,,,
1763976041.740484,29772.0,0.0,4304.358887,4304.487305,4410.128418,4424.743652,4313.333496,4468.461426,4456.025879,4294.230957,4458.589844,4306.538574,4416.922852,4427.692383,4481.922852,4332.307617,4306.025879,4420.384766,4461.153809,4445.256348,4427.307617,4300.769043,4325.384766,4490.384766,4417.307617,4418.846191,4329.487305,4496.025879,4272.179688,4435.512695,4408.333496,4278.846191,4428.333496,4408.333496,3018.0,0.0,11.0,2304.0,58171.0,,,,0.0,4.0,4.0,4.0,4.0,4.0,4.0,4.0,4.0,4.0,4.0,4.0,4.0,4.0,4.0,4.0,4.0,4.0,4.0,4.0,4.0,4.0,4.0,4.0,4.0,4.0,4.0,4.0,4.0,4.0,4.0,4.0,4.0,100.0,,,,,,,,,,,,,,,,,,,,,,,,,,,,,,,,,,,,,,,,,,,,,,,,,,,,,,,,,,,,,,,,,,,,,,,,,,,,,,,,,,,,,,,,,,,,,,,,,,,,,,,,,,,,,,,,,,,,,,,,,,,,,,,,,,,,,,,,,,,,,,,,,,,,,,,,,,,,,,,,,,,,,,,,,,,,,,,,,,,,,,,,,,,,,,,,,,,,,,,,,,,,,,
1763976041.744389,29773.0,0.0,4314.230957,4314.871582,4417.307617,4431.153809,4322.563965,4477.307617,4464.230957,4298.717773,4464.871582,4367.179688,4435.641113,4440.384766,4496.282227,4322.820313,4293.077148,4423.974121,4472.179688,4457.05127,4442.307617,4301.282227,4326.025879,4501.666504,4432.05127,4434.487305,4331.538574,4503.077148,4285.256348,4448.589844,4420.128418,4293.974121,4448.974121,4421.282227,2681.0,0.0,11.0,2304.0,58171.0,,,,0.0,4.0,4.0,4.0,4.0,4.0,4.0,4.0,4.0,4.0,4.0,4.0,4.0,4.0,4.0,4.0,4.0,4.0,4.0,4.0,4.0,4.0,4.0,4.0,4.0,4.0,4.0,4.0,4.0,4.0,4.0,4.0,4.0,100.0,,,,,,,,,,,,,,,,,,,,,,,,,,,,,,,,,,,7443.0,0.0,0.243483,0.635925,0.622925,0.385071,0.996215,-0.097668,0.187035,33.666668,-26.333334,28.5,,,,,,,,,,,,,,,,,,,,,,,,,,,,,,,,,,,,,,,,,,,,,,,,,,,,,,,,,,,,,,,,,,,,,,,,,,,,,,,,,,,,,,,,,,,,,,,,,,,,,,,,,,,,,,,,,,,,,,,,,,,,,,,,,,,,,,,,,,,,,,,,,,,,,,,,,,,,,,,,
1763976041.748295,29774.0,0.0,4347.563965,4348.846191,4444.230957,4459.358887,4351.666504,4502.436035,4496.025879,4330.641113,4495.256348,4412.692383,4465.769043,4473.589844,4523.717773,4342.820313,4312.692383,4449.615234,4502.820313,4483.717773,4463.077148,4329.358887,4342.820313,4529.102539,4469.615234,4465.384766,4346.025879,4535.384766,4333.589844,4495.128418,4457.94873,4335.769043,4492.436035,4451.410156,2752.0,0.0,11.0,2560.0,58179.0,,,,0.0,4.0,4.0,4.0,4.0,4.0,4.0,4.0,4.0,4.0,4.0,4.0,4.0,4.0,4.0,4.0,4.0,4.0,4.0,4.0,4.0,4.0,4.0,4.0,4.0,4.0,4.0,4.0,4.0,4.0,4.0,4.0,4.0,100.0,,,,,,,,,,,,,,,,,,,,,,,,,,,,,,,,,,,,,,,,,,,,,,,,,,,,,,,,,,,,,,,,,,,,,,,,,,,,,,,,,,,,,,,,,,,,,,,,,,,,,,,,,,,,,,,,,,,,,,,,,,,,,,,,,,,,,,,,,,,,,,,,,,,,,,,,,,,,,,,,,,,,,,,,,,,,,,,,,,,,,,,,,,,,,,,,,,,,,,,,,,,,,,
1763976041.752201,29775.0,0.0,4384.743652,4385.897461,4474.230957,4492.05127,4383.589844,4527.94873,4532.05127,4370.0,4531.025879,4418.846191,4488.333496,4507.05127,4547.563965,4376.794922,4350.384766,4488.077148,4535.641113,4514.871582,4485.256348,4366.794922,4365.384766,4555.769043,4508.333496,4492.820313,4367.307617,4573.077148,4388.077148,4548.974121,4499.615234,4379.743652,4531.025879,4480.769043,2908.0,0.0,11.0,2560.0,58179.0,,,,0.0,4.0,4.0,4.0,4.0,4.0,4.0,4.0,4.0,4.0,4.0,4.0,4.0,4.0,4.0,4.0,4.0,4.0,4.0,4.0,4.0,4.0,4.0,4.0,4.0,4.0,4.0,4.0,4.0,4.0,4.0,4.0,4.0,100.0,,,,,,,,,,,,,,,,,,,,,,,,,,,,,,,,,,,,,,,,,,,,,,,,,,,,,,,,,,,,,,,,,,,,,,,,,,,,,,,,,,,,,,,,,,,,,,,,,,,,,,,,,,,,,,,,,,,,,,,,,,,,,,,,,,,,,,,,,,,,,,,,,,,,,,,,,,,,,,,,,,,,,,,,,,,,,,,,,,,,,,,,,,,,,,,,,,,,,,,,,,,,,,
1763976041.756107,29776.0,0.0,4407.820313,4407.179688,4493.717773,4513.846191,4402.692383,4541.538574,4554.230957,4396.410156,4555.256348,4390.256348,4491.922852,4524.871582,4558.589844,4407.05127,4385.641113,4530.384766,4556.794922,4544.615234,4509.615234,4393.205078,4385.641113,4571.666504,4530.769043,4505.256348,4388.461426,4596.794922,4418.461426,4584.358887,4525.128418,4404.358887,4545.128418,4495.897461,2963.0,0.0,11.0,1024.0,58187.0,,,,0.0,4.0,4.0,4.0,4.0,4.0,4.0,4.0,4.0,4.0,4.0,4.0,4.0,4.0,4.0,4.0,4.0,4.0,4.0,4.0,4.0,4.0,4.0,4.0,4.0,4.0,4.0,4.0,4.0,4.0,4.0,4.0,4.0,100.0,,,,,,,,,,,,,,,,,,,,,,,,,,,,,,,,,,,,,,,,,,,,,,,,,,,,,,,,,,,,,,,,,,,,,,,,,,,,,,,,,,,,,,,,,,,,,,,,,,,,,,,,,,,,,,,,,,,,,,,,,,,,,,,,,,,,,,,,,,,,,,,,,,,,,,,,,,,,,,,,,,,,,,,,,,,,,,,,,,,,,,,,,,,,,,,,,,,,,,,,,,,,,,
1763976041.760012,29777.0,0.0,4410.256348,4406.282227,4498.333496,4518.589844,4403.589844,4540.512695,4555.897461,4399.230957,4560.897461,4355.897461,4478.717773,4523.974121,4558.205078,4423.717773,4404.358887,4567.179688,4562.307617,4570.128418,4535.256348,4398.205078,4400.128418,4577.436035,4533.333496,4505.384766,4402.820313,4598.589844,4412.820313,4589.615234,4526.922852,4403.205078,4533.974121,4494.743652,3074.0,0.0,11.0,1024.0,58187.0,,,,0.0,4.0,4.0,4.0,4.0,4.0,4.0,4.0,4.0,4.0,4.0,4.0,4.0,4.0,4.0,4.0,4.0,4.0,4.0,4.0,4.0,4.0,4.0,4.0,4.0,4.0,4.0,4.0,4.0,4.0,4.0,4.0,4.0,100.0,,,,,,,,,,,,,,,,,,,,,,,,,,,,,,,,,,,7444.0,0.0,0.243145,0.63623,0.623047,0.384583,0.996215,-0.097668,0.187035,33.5,-27.333334,30.333334,,,,,,,,,,,,,,,,,,,,,,,,,,,,,,,,,,,,,,,,,,,,,,,,,,,,,,,,,,,,,,,,,,,,,,,,,,,,,,,,,,,,,,,,,,,,,,,,,,,,,,,,,,,,,,,,,,,,,,,,,,,,,,,,,,,,,,,,,,,,,,,,,,,,,,,,,,,,,,,,
1763976041.763918,29778.0,0.0,4397.692383,4390.512695,4492.94873,4510.641113,4391.922852,4531.025879,4542.05127,4382.307617,4551.025879,4344.230957,4461.153809,4512.563965,4553.846191,4426.153809,4404.487305,4585.897461,4557.307617,4586.153809,4554.743652,4384.358887,4407.692383,4579.487305,4523.333496,4505.256348,4406.025879,4583.717773,4383.846191,4571.153809,4512.179688,4385.641113,4512.307617,4484.487305,2849.0,0.0,11.0,1024.0,58195.0,,,,0.0,4.0,4.0,4.0,4.0,4.0,4.0,4.0,4.0,4.0,4.0,4.0,4.0,4.0,4.0,4.0,4.0,4.0,4.0,4.0,4.0,4.0,4.0,4.0,4.0,4.0,4.0,4.0,4.0,4.0,4.0,4.0,4.0,100.0,,,,,,,,,,,,,,,,,,,,,,,,,,,,,,,,,,,,,,,,,,,,,,,,,,,,,,,,,,,,,,,,,,,,,,,,,,,,,,,,,,,,,,,,,,,,,,,,,,,,,,,,,,,,,,,,,,,,,,,,,,,,,,,,,,,,,,,,,,,,,,,,,,,,,,,,,,,,,,,,,,,,,,,,,,,,,,,,,,,,,,,,,,,,,,,,,,,,,,,,,,,,,,
1763976041.767824,29779.0,0.0,4382.179688,4374.871582,4487.179688,4501.282227,4379.358887,4521.922852,4526.025879,4361.794922,4537.179688,4358.205078,4453.717773,4501.794922,4552.307617,4417.05127,4391.922852,4574.743652,4548.846191,4584.230957,4557.563965,4362.05127,4407.436035,4581.538574,4511.794922,4512.692383,4398.205078,4565.256348,4357.563965,4545.897461,4495.256348,4367.692383,4498.589844,4476.666504,3012.0,0.0,11.0,1024.0,58195.0,,,,0.0,4.0,4.0,4.0,4.0,4.0,4.0,4.0,4.0,4.0,4.0,4.0,4.0,4.0,4.0,4.0,4.0,4.0,4.0,4.0,4.0,4.0,4.0,4.0,4.0,4.0,4.0,4.0,4.0,4.0,4.0,4.0,4.0,100.0,,,,,,,,,,,,,,,,,,,,,,,,,,,,,,,,,,,,,,,,,,,,,,,,,,,,,,,,,,,,,,,,,,,,,,,,,,,,,,,,,,,,,,,,,,,,,,,,,,,,,,,,,,,,,,,,,,,,,,,,,,,,,,,,,,,,,,,,,,,,,,,,,,,,,,,,,,,,,,,,,,,,,,,,,,,,,,,,,,,,,,,,,,,,,,,,,,,,,,,,,,,,,,
1763976041.77173,29780.0,0.0,4373.717773,4371.025879,4488.333496,4500.897461,4375.641113,4519.615234,4520.641113,4355.256348,4531.282227,4373.717773,4464.102539,4498.077148,4554.358887,4398.974121,4375.256348,4534.102539,4542.05127,4560.512695,4540.512695,4343.589844,4399.743652,4581.666504,4505.128418,4523.717773,4384.358887,4555.384766,4354.230957,4530.256348,4487.307617,4361.666504,4501.922852,4479.230957,3015.0,0.0,11.0,512.0,58202.0,,,,0.0,4.0,4.0,4.0,4.0,4.0,4.0,4.0,4.0,4.0,4.0,4.0,4.0,4.0,4.0,4.0,4.0,4.0,4.0,4.0,4.0,4.0,4.0,4.0,4.0,4.0,4.0,4.0,4.0,4.0,4.0,4.0,4.0,100.0,,,,,,,,,,,,,,,,,,,,,,,,,,,,,,,,,,,,,,,,,,,,,,,,,,,,,,,,,,,,,,,,,,,,,,,,,,,,,,,,,,,,,,,,,,,,,,,,,,,,,,,,,,,,,,,,,,,,,,,,,,,,,,,,,,,,,,,,,,,,,,,,,,,,,,,,,,,,,,,,,,,,,,,,,,,,,,,,,,,,,,,,,,,,,,,,,,,,,,,,,,,,,,
1763976041.775636,29781.0,0.0,4375.0,4380.0,4496.666504,4511.922852,4382.307617,4524.615234,4529.230957,4369.487305,4537.563965,4364.358887,4486.538574,4501.282227,4556.922852,4378.846191,4362.179688,4483.589844,4538.077148,4524.358887,4513.333496,4337.692383,4389.358887,4575.897461,4504.102539,4526.410156,4370.512695,4557.94873,4373.333496,4530.128418,4489.871582,4369.358887,4517.05127,4492.692383,2923.0,0.0,11.0,512.0,58202.0,,,,0.0,4.0,4.0,4.0,4.0,4.0,4.0,4.0,4.0,4.0,4.0,4.0,4.0,4.0,4.0,4.0,4.0,4.0,4.0,4.0,4.0,4.0,4.0,4.0,4.0,4.0,4.0,4.0,4.0,4.0,4.0,4.0,4.0,100.0,,,,,,,,,,,,,,,,,,,,,,,,,,,,,,,,,,,7445.0,0.0,0.242451,0.636841,0.623108,0.383911,1.001587,-0.083995,0.178733,32.5,-27.166666,28.833334,,,,,,,,,,,,,,,,,,,,,,,,,,,,,,,,,,,,,,,,,,,,,,,,,,,,,,,,,,,,,,,,,,,,,,,,,,,,,,,,,,,,,,,,,,,,,,,,,,,,,,,,,,,,,,,,,,,,,,,,,,,,,,,,,,,,,,,,,,,,,,,,,,,,,,,,,,,,,,,,
1763976041.779541,29782.0,0.0,4381.666504,4393.589844,4507.692383,4527.436035,4393.333496,4532.820313,4545.0,4394.871582,4550.897461,4330.128418,4506.538574,4506.922852,4556.666504,4368.717773,4358.974121,4451.794922,4536.794922,4494.358887,4492.05127,4345.769043,4382.436035,4564.743652,4505.769043,4511.922852,4362.05127,4567.436035,4396.794922,4540.512695,4497.179688,4383.461426,4531.410156,4510.0,2994.0,0.0,11.0,256.0,58210.0,,,,0.0,4.0,4.0,4.0,4.0,4.0,4.0,4.0,4.0,4.0,4.0,4.0,4.0,4.0,4.0,4.0,4.0,4.0,4.0,4.0,4.0,4.0,4.0,4.0,4.0,4.0,4.0,4.0,4.0,4.0,4.0,4.0,4.0,100.0,,,,,,,,,,,,,,,,,,,,,,,,,,,,,,,,,,,,,,,,,,,,,,,,,,,,,,,,,,,,,,,,,,,,,,,,,,,,,,,,,,,,,,,,,,,,,,,,,,,,,,,,,,,,,,,,,,,,,,,,,,,,,,,,,,,,,,,,,,,,,,,,,,,,,,,,,,,,,,,,,,,,,,,,,,,,,,,,,,,,,,,,,,,,,,,,,,,,,,,,,,,,,,
1763976041.783447,29783.0,0.0,4387.820313,4401.794922,4515.641113,4537.94873,4401.282227,4538.461426,4555.897461,4414.230957,4562.563965,4300.512695,4511.538574,4510.256348,4552.94873,4378.333496,4366.410156,4453.974121,4536.922852,4485.0,4485.769043,4362.94873,4382.05127,4553.333496,4506.666504,4484.102539,4362.94873,4574.871582,4405.128418,4551.025879,4502.05127,4394.487305,4535.512695,4521.922852,2948.0,0.0,11.0,256.0,58210.0,,,,0.0,4.0,4.0,4.0,4.0,4.0,4.0,4.0,4.0,4.0,4.0,4.0,4.0,4.0,4.0,4.0,4.0,4.0,4.0,4.0,4.0,4.0,4.0,4.0,4.0,4.0,4.0,4.0,4.0,4.0,4.0,4.0,4.0,100.0,,,,,,,,,,,,,,,,,,,,,,,,,,,,,,,,,,,,,,,,,,,,,,,,,,,,,,,,,,,,,,,,,,,,,,,,,,,,,,,,,,,,,,,,,,,,,,,,,,,,,,,,,,,,,,,,,,,,,,,,,,,,,,,,,,,,,,,,,,,,,,,,,,,,,,,,,,,,,,,,,,,,,,,,,,,,,,,,,,,,,,,,,,,,,,,,,,,,,,,,,,,,,,
1763976041.787353,29784.0,0.0,4389.487305,4400.512695,4518.333496,4538.077148,4402.05127,4537.692383,4553.717773,4415.256348,4566.666504,4307.94873,4500.256348,4508.717773,4547.820313,4402.307617,4378.589844,4478.974121,4536.538574,4494.358887,4489.871582,4379.230957,4384.230957,4547.05127,4504.743652,4457.436035,4372.179688,4574.487305,4392.05127,4554.102539,4500.769043,4396.282227,4529.615234,4521.794922,2869.0,0.0,11.0,512.0,58218.0,,,,0.0,4.0,4.0,4.0,4.0,4.0,4.0,4.0,4.0,4.0,4.0,4.0,4.0,4.0,4.0,4.0,4.0,4.0,4.0,4.0,4.0,4.0,4.0,4.0,4.0,4.0,4.0,4.0,4.0,4.0,4.0,4.0,4.0,100.0,,,,,,,,,,,,,,,,,,,,,,,,,,,,,,,,,,,,,,,,,,,,,,,,,,,,,,,,,,,,,,,,,,,,,,,,,,,,,,,,,,,,,,,,,,,,,,,,,,,,,,,,,,,,,,,,,,,,,,,,,,,,,,,,,,,,,,,,,,,,,,,,,,,,,,,,,,,,,,,,,,,,,,,,,,,,,,,,,,,,,,,,,,,,,,,,,,,,,,,,,,,,,,
1763976041.791259,29785.0,0.0,4386.153809,4391.922852,4515.641113,4527.94873,4395.641113,4529.871582,4538.717773,4397.05127,4561.025879,4357.436035,4481.922852,4502.307617,4542.692383,4421.025879,4384.358887,4498.846191,4532.94873,4507.307617,4491.666504,4385.897461,4380.769043,4546.282227,4499.230957,4445.512695,4382.436035,4566.666504,4367.436035,4548.077148,4494.102539,4388.589844,4520.256348,4509.358887,2876.0,0.0,11.0,512.0,58218.0,,,,0.0,4.0,4.0,4.0,4.0,4.0,4.0,4.0,4.0,4.0,4.0,4.0,4.0,4.0,4.0,4.0,4.0,4.0,4.0,4.0,4.0,4.0,4.0,4.0,4.0,4.0,4.0,4.0,4.0,4.0,4.0,4.0,4.0,100.0,,,,,,,,,,,,,,,,,,,,,,,,,,,,,,,,,,,7446.0,0.0,0.241898,0.637634,0.622925,0.38324,0.992309,-0.08839,0.159687,30.833334,-26.833334,30.166666,,,,,,,,,,,,,,,,,,,,,,,,,,,,,,,,,,,,,,,,,,,,,,,,,,,,,,,,,,,,,,,,,,,,,,,,,,,,,,,,,,,,,,,,,,,,,,,,,,,,,,,,,,,,,,,,,,,,,,,,,,,,,,,,,,,,,,,,,,,,,,,,,,,,,,,,,,,,,,,,
1763976041.795164,29786.0,0.0,4378.205078,4381.025879,4508.333496,4511.922852,4384.743652,4517.05127,4517.307617,4368.205078,4547.179688,4418.846191,4465.897461,4492.436035,4536.410156,4417.179688,4377.05127,4493.974121,4524.230957,4508.717773,4482.436035,4380.512695,4367.179688,4546.282227,4490.0,4451.666504,4384.230957,4556.153809,4346.922852,4535.512695,4484.743652,4375.0,4512.436035,4490.128418,2794.0,0.0,11.0,256.0,58226.0,,,,0.0,4.0,4.0,4.0,4.0,4.0,4.0,4.0,4.0,4.0,4.0,4.0,4.0,4.0,4.0,4.0,4.0,4.0,4.0,4.0,4.0,4.0,4.0,4.0,4.0,4.0,4.0,4.0,4.0,4.0,4.0,4.0,4.0,100.0,,,,,,,,,,,,,,,,,,,,,,,,,,,,,,,,,,,,,,,,,,,,,,,,,,,,,,,,,,,,,,,,,,,,,,,,,,,,,,,,,,,,,,,,,,,,,,,,,,,,,,,,,,,,,,,,,,,,,,,,,,,,,,,,,,,,,,,,,,,,,,,,,,,,,,,,,,,,,,,,,,,,,,,,,,,,,,,,,,,,,,,,,,,,,,,,,,,,,,,,,,,,,,
1763976041.79907,29787.0,0.0,4367.179688,4371.794922,4498.461426,4495.897461,4372.820313,4502.820313,4497.692383,4341.410156,4530.0,4447.436035,4455.256348,4481.282227,4527.05127,4391.153809,4360.512695,4470.641113,4511.666504,4497.05127,4465.0,4368.205078,4348.461426,4542.692383,4478.333496,4466.538574,4373.974121,4548.589844,4340.641113,4520.384766,4475.256348,4360.769043,4506.666504,4472.94873,3010.0,0.0,11.0,256.0,58226.0,,,,0.0,4.0,4.0,4.0,4.0,4.0,4.0,4.0,4.0,4.0,4.0,4.0,4.0,4.0,4.0,4.0,4.0,4.0,4.0,4.0,4.0,4.0,4.0,4.0,4.0,4.0,4.0,4.0,4.0,4.0,4.0,4.0,4.0,100.0,,,,,,,,,,,,,,,,,,,,,,,,,,,,,,,,,,,,,,,,,,,,,,,,,,,,,,,,,,,,,,,,,,,,,,,,,,,,,,,,,,,,,,,,,,,,,,,,,,,,,,,,,,,,,,,,,,,,,,,,,,,,,,,,,,,,,,,,,,,,,,,,,,,,,,,,,,,,,,,,,,,,,,,,,,,,,,,,,,,,,,,,,,,,,,,,,,,,,,,,,,,,,,
1763976041.802976,29788.0,0.0,4356.666504,4366.538574,4489.615234,4486.153809,4364.102539,4491.922852,4487.179688,4328.077148,4517.05127,4417.820313,4448.333496,4472.94873,4516.153809,4362.692383,4347.820313,4453.717773,4500.512695,4484.102539,4451.538574,4358.461426,4336.282227,4535.384766,4468.461426,4476.794922,4357.179688,4547.05127,4348.205078,4508.461426,4468.846191,4351.282227,4501.794922,4466.153809,2096.0,0.0,11.0,512.0,58234.0,,,,0.0,4.0,4.0,4.0,4.0,4.0,4.0,4.0,4.0,4.0,4.0,4.0,4.0,4.0,4.0,4.0,4.0,4.0,4.0,4.0,4.0,4.0,4.0,4.0,4.0,4.0,4.0,4.0,4.0,4.0,4.0,4.0,4.0,100.0,,,,,,,,,,,,,,,,,,,,,,,,,,,,,,,,,,,,,,,,,,,,,,,,,,,,,,,,,,,,,,,,,,,,,,,,,,,,,,,,,,,,,,,,,,,,,,,,,,,,,,,,,,,,,,,,,,,,,,,,,,,,,,,,,,,,,,,,,,,,,,,,,,,,,,,,,,,,,,,,,,,,,,,,,,,,,,,,,,,,,,,,,,,,,,,,,,,,,,,,,,,,,,
1763976041.806882,29789.0,0.0,4352.692383,4368.333496,4487.820313,4487.307617,4363.461426,4489.487305,4491.025879,4333.846191,4515.641113,4346.538574,4446.538574,4472.692383,4510.512695,4353.974121,4350.512695,4462.692383,4497.692383,4484.102539,4453.333496,4358.717773,4340.256348,4529.743652,4466.538574,4477.820313,4345.128418,4552.436035,4362.563965,4506.153809,4469.487305,4352.179688,4499.487305,4473.846191,2811.0,0.0,11.0,512.0,58234.0,,,,0.0,4.0,4.0,4.0,4.0,4.0,4.0,4.0,4.0,4.0,4.0,4.0,4.0,4.0,4.0,4.0,4.0,4.0,4.0,4.0,4.0,4.0,4.0,4.0,4.0,4.0,4.0,4.0,4.0,4.0,4.0,4.0,4.0,100.0,,,,,,,,,,,,,,,,,,,,,,,,,,,,,,,,,,,7447.0,0.0,0.241214,0.639465,0.622437,0.381409,0.979612,-0.106947,0.161152,32.166668,-27.833334,30.833334,,,,,,,,,,,,,,,,,,,,,,,,,,,,,,,,,,,,,,,,,,,,,,,,,,,,,,,,,,,,,,,,,,,,,,,,,,,,,,,,,,,,,,,,,,,,,,,,,,,,,,,,,,,,,,,,,,,,,,,,,,,,,,,,,,,,,,,,,,,,,,,,,,,,,,,,,,,,,,,,
1763976041.810788,29790.0,0.0,4361.538574,4380.384766,4498.205078,4501.922852,4374.102539,4499.102539,4511.153809,4358.077148,4529.743652,4285.0,4456.666504,4484.615234,4518.589844,4371.410156,4369.487305,4493.461426,4507.94873,4500.769043,4471.282227,4370.769043,4359.871582,4533.077148,4478.717773,4478.846191,4348.846191,4564.487305,4377.94873,4517.94873,4480.641113,4366.410156,4505.769043,4495.384766,3019.0,0.0,11.0,768.0,58241.0,,,,0.0,4.0,4.0,4.0,4.0,4.0,4.0,4.0,4.0,4.0,4.0,4.0,4.0,4.0,4.0,4.0,4.0,4.0,4.0,4.0,4.0,4.0,4.0,4.0,4.0,4.0,4.0,4.0,4.0,4.0,4.0,4.0,4.0,100.0,,,,,,,,,,,,,,,,,,,,,,,,,,,,,,,,,,,,,,,,,,,,,,,,,,,,,,,,,,,,,,,,,,,,,,,,,,,,,,,,,,,,,,,,,,,,,,,,,,,,,,,,,,,,,,,,,,,,,,,,,,,,,,,,,,,,,,,,,,,,,,,,,,,,,,,,,,,,,,,,,,,,,,,,,,,,,,,,,,,,,,,,,,,,,,,,,,,,,,,,,,,,,,
1763976041.814693,29791.0,0.0,4383.717773,4402.307617,4520.897461,4527.307617,4395.256348,4519.487305,4542.563965,4393.205078,4557.179688,4282.307617,4483.077148,4507.820313,4542.563965,4401.538574,4394.615234,4522.94873,4530.0,4524.871582,4496.153809,4390.641113,4385.512695,4548.461426,4504.871582,4493.589844,4373.589844,4581.922852,4392.179688,4541.153809,4502.05127,4391.410156,4525.0,4525.0,2917.0,0.0,11.0,768.0,58241.0,,,,0.0,4.0,4.0,4.0,4.0,4.0,4.0,4.0,4.0,4.0,4.0,4.0,4.0,4.0,4.0,4.0,4.0,4.0,4.0,4.0,4.0,4.0,4.0,4.0,4.0,4.0,4.0,4.0,4.0,4.0,4.0,4.0,4.0,100.0,,,,,,,,,,,,,,,,,,,,,,,,,,,,,,,,,,,,,,,,,,,,,,,,,,,,,,,,,,,,,,,,,,,,,,,,,,,,,,,,,,,,,,,,,,,,,,,,,,,,,,,,,,,,,,,,,,,,,,,,,,,,,,,,,,,,,,,,,,,,,,,,,,,,,,,,,,,,,,,,,,,,,,,,,,,,,,,,,,,,,,,,,,,,,,,,,,,,,,,,,,,,,,
1763976041.818599,29792.0,0.0,4410.897461,4426.922852,4547.563965,4555.0,4419.102539,4542.436035,4572.820313,4425.769043,4588.717773,4345.512695,4517.179688,4533.077148,4572.563965,4423.717773,4411.282227,4530.512695,4555.256348,4542.307617,4515.769043,4409.615234,4405.384766,4571.025879,4534.615234,4523.589844,4412.692383,4600.384766,4404.102539,4565.897461,4526.666504,4417.307617,4552.307617,4551.794922,2853.0,0.0,11.0,1024.0,58249.0,,,,0.0,4.0,4.0,4.0,4.0,4.0,4.0,4.0,4.0,4.0,4.0,4.0,4.0,4.0,4.0,4.0,4.0,4.0,4.0,4.0,4.0,4.0,4.0,4.0,4.0,4.0,4.0,4.0,4.0,4.0,4.0,4.0,4.0,100.0,,,,,,,,,,,,,,,,,,,,,,,,,,,,,,,,,,,,,,,,,,,,,,,,,,,,,,,,,,,,,,,,,,,,,,,,,,,,,,,,,,,,,,,,,,,,,,,,,,,,,,,,,,,,,,,,,,,,,,,,,,,,,,,,,,,,,,,,,,,,,,,,,,,,,,,,,,,,,,,,,,,,,,,,,,,,,,,,,,,,,,,,,,,,,,,,,,,,,,,,,,,,,,
1763976041.822505,29793.0,0.0,4428.205078,4441.282227,4563.846191,4571.153809,4432.94873,4555.897461,4586.538574,4439.615234,4609.615234,4430.256348,4537.94873,4546.794922,4590.128418,4427.05127,4409.615234,4514.230957,4570.769043,4544.230957,4523.846191,4416.922852,4412.05127,4588.461426,4552.05127,4550.769043,4446.794922,4611.410156,4410.641113,4580.384766,4542.307617,4430.769043,4573.846191,4563.717773,2847.0,0.0,11.0,1024.0,58249.0,,,,0.0,4.0,4.0,4.0,4.0,4.0,4.0,4.0,4.0,4.0,4.0,4.0,4.0,4.0,4.0,4.0,4.0,4.0,4.0,4.0,4.0,4.0,4.0,4.0,4.0,4.0,4.0,4.0,4.0,4.0,4.0,4.0,4.0,100.0,,,,,,,,,,,,,,,,,,,,,,,,,,,,,,,,,,,7448.0,0.0,0.241214,0.639465,0.622437,0.381409,0.957148,-0.113295,0.135759,33.833332,-28.166666,29.166666,,,,,,,,,,,,,,,,,,,,,,,,,,,,,,,,,,,,,,,,,,,,,,,,,,,,,,,,,,,,,,,,,,,,,,,,,,,,,,,,,,,,,,,,,,,,,,,,,,,,,,,,,,,,,,,,,,,,,,,,,,,,,,,,,,,,,,,,,,,,,,,,,,,,,,,,,,,,,,,,
1763976041.826411,29794.0,0.0,4425.641113,4436.153809,4559.102539,4566.282227,4428.589844,4551.794922,4576.025879,4426.410156,4607.436035,4475.897461,4529.487305,4541.153809,4583.461426,4415.897461,4390.641113,4491.282227,4568.333496,4533.461426,4522.692383,4407.179688,4406.282227,4591.025879,4547.307617,4553.333496,4456.025879,4608.461426,4409.230957,4579.230957,4540.512695,4424.871582,4576.025879,4554.743652,2282.0,0.0,11.0,1280.0,58257.0,,,,0.0,4.0,4.0,4.0,4.0,4.0,4.0,4.0,4.0,4.0,4.0,4.0,4.0,4.0,4.0,4.0,4.0,4.0,4.0,4.0,4.0,4.0,4.0,4.0,4.0,4.0,4.0,4.0,4.0,4.0,4.0,4.0,4.0,100.0,,,,,,,,,,,,,,,,,,,,,,,,,,,,,,,,,,,,,,,,,,,,,,,,,,,,,,,,,,,,,,,,,,,,,,,,,,,,,,,,,,,,,,,,,,,,,,,,,,,,,,,,,,,,,,,,,,,,,,,,,,,,,,,,,,,,,,,,,,,,,,,,,,,,,,,,,,,,,,,,,,,,,,,,,,,,,,,,,,,,,,,,,,,,,,,,,,,,,,,,,,,,,,
1763976041.830316,29795.0,0.0,4408.461426,4416.410156,4537.692383,4543.717773,4410.512695,4534.871582,4550.641113,4395.0,4584.615234,4456.922852,4499.358887,4522.820313,4560.641113,4402.179688,4367.563965,4483.589844,4553.717773,4523.589844,4521.282227,4386.538574,4397.179688,4580.512695,4527.820313,4527.94873,4435.256348,4594.615234,4404.102539,4570.0,4525.384766,4407.05127,4560.0,4532.563965,3006.0,0.0,11.0,1280.0,58257.0,,,,0.0,4.0,4.0,4.0,4.0,4.0,4.0,4.0,4.0,4.0,4.0,4.0,4.0,4.0,4.0,4.0,4.0,4.0,4.0,4.0,4.0,4.0,4.0,4.0,4.0,4.0,4.0,4.0,4.0,4.0,4.0,4.0,4.0,100.0,,,,,,,,,,,,,,,,,,,,,,,,,,,,,,,,,,,,,,,,,,,,,,,,,,,,,,,,,,,,,,,,,,,,,,,,,,,,,,,,,,,,,,,,,,,,,,,,,,,,,,,,,,,,,,,,,,,,,,,,,,,,,,,,,,,,,,,,,,,,,,,,,,,,,,,,,,,,,,,,,,,,,,,,,,,,,,,,,,,,,,,,,,,,,,,,,,,,,,,,,,,,,,
1763976041.834222,29796.0,0.0,4394.230957,4398.974121,4517.436035,4521.025879,4394.743652,4521.025879,4531.794922,4368.589844,4559.230957,4402.820313,4476.025879,4510.384766,4544.487305,4393.974121,4357.05127,4498.461426,4542.820313,4526.538574,4527.820313,4370.256348,4396.282227,4570.641113,4513.589844,4495.384766,4400.384766,4582.436035,4405.384766,4567.307617,4513.077148,4394.102539,4541.538574,4515.384766,2941.0,0.0,11.0,1536.0,58265.0,,,,0.0,4.0,4.0,4.0,4.0,4.0,4.0,4.0,4.0,4.0,4.0,4.0,4.0,4.0,4.0,4.0,4.0,4.0,4.0,4.0,4.0,4.0,4.0,4.0,4.0,4.0,4.0,4.0,4.0,4.0,4.0,4.0,4.0,100.0,,,,,,,,,,,,,,,,,,,,,,,,,,,,,,,,,,,,,,,,,,,,,,,,,,,,,,,,,,,,,,,,,,,,,,,,,,,,,,,,,,,,,,,,,,,,,,,,,,,,,,,,,,,,,,,,,,,,,,,,,,,,,,,,,,,,,,,,,,,,,,,,,,,,,,,,,,,,,,,,,,,,,,,,,,,,,,,,,,,,,,,,,,,,,,,,,,,,,,,,,,,,,,
1763976041.838128,29797.0,0.0,4397.05127,4398.589844,4514.871582,4515.897461,4394.487305,4522.692383,4535.128418,4366.794922,4550.897461,4364.615234,4482.307617,4516.282227,4552.05127,4390.384766,4366.538574,4522.820313,4547.563965,4541.666504,4541.666504,4371.153809,4408.205078,4572.436035,4518.717773,4481.282227,4374.871582,4582.179688,4417.94873,4578.333496,4516.282227,4397.436035,4536.922852,4516.538574,2388.0,0.0,11.0,1536.0,58265.0,,,,0.0,4.0,4.0,4.0,4.0,4.0,4.0,4.0,4.0,4.0,4.0,4.0,4.0,4.0,4.0,4.0,4.0,4.0,4.0,4.0,4.0,4.0,4.0,4.0,4.0,4.0,4.0,4.0,4.0,4.0,4.0,4.0,4.0,100.0,,,,,,,,,,,,,,,,,,,,,,,,,,,,,,,,,,,7449.0,0.0,0.241126,0.641113,0.622192,0.379089,0.983518,-0.08839,0.149432,32.666668,-25.833334,28.333334,,,,,,,,,,,,,,,,,,,,,,,,,,,,,,,,,,,,,,,,,,,,,,,,,,,,,,,,,,,,,,,,,,,,,,,,,,,,,,,,,,,,,,,,,,,,,,,,,,,,,,,,,,,,,,,,,,,,,,,,,,,,,,,,,,,,,,,,,,,,,,,,,,,,,,,,,,,,,,,,
1763976041.842034,29798.0,0.0,4413.333496,4413.461426,4530.384766,4530.641113,4408.461426,4537.307617,4555.769043,4388.717773,4563.205078,4367.563965,4512.307617,4534.871582,4577.436035,4387.436035,4387.820313,4535.384766,4563.205078,4556.153809,4551.282227,4387.692383,4425.641113,4583.077148,4537.307617,4492.179688,4371.282227,4591.538574,4431.153809,4592.94873,4531.282227,4411.410156,4547.05127,4532.307617,3001.0,0.0,11.0,1792.0,58273.0,,,,0.0,4.0,4.0,4.0,4.0,4.0,4.0,4.0,4.0,4.0,4.0,4.0,4.0,4.0,4.0,4.0,4.0,4.0,4.0,4.0,4.0,4.0,4.0,4.0,4.0,4.0,4.0,4.0,4.0,4.0,4.0,4.0,4.0,100.0,,,,,,,,,,,,,,,,,,,,,,,,,,,,,,,,,,,,,,,,,,,,,,,,,,,,,,,,,,,,,,,,,,,,,,,,,,,,,,,,,,,,,,,,,,,,,,,,,,,,,,,,,,,,,,,,,,,,,,,,,,,,,,,,,,,,,,,,,,,,,,,,,,,,,,,,,,,,,,,,,,,,,,,,,,,,,,,,,,,,,,,,,,,,,,,,,,,,,,,,,,,,,,
1763976041.845939,29799.0,0.0,4425.769043,4427.179688,4547.05127,4550.128418,4421.666504,4548.974121,4573.077148,4414.102539,4582.307617,4396.666504,4536.025879,4547.05127,4597.05127,4385.128418,4403.589844,4527.436035,4573.333496,4556.794922,4545.512695,4405.128418,4434.743652,4589.102539,4548.461426,4512.05127,4384.487305,4597.692383,4425.897461,4591.025879,4540.128418,4418.589844,4556.666504,4545.256348,2979.0,0.0,11.0,1792.0,58273.0,,,,0.0,4.0,4.0,4.0,4.0,4.0,4.0,4.0,4.0,4.0,4.0,4.0,4.0,4.0,4.0,4.0,4.0,4.0,4.0,4.0,4.0,4.0,4.0,4.0,4.0,4.0,4.0,4.0,4.0,4.0,4.0,4.0,4.0,100.0,,,,,,,,,,,,,,,,,,,,,,,,,,,,,,,,,,,,,,,,,,,,,,,,,,,,,,,,,,,,,,,,,,,,,,,,,,,,,,,,,,,,,,,,,,,,,,,,,,,,,,,,,,,,,,,,,,,,,,,,,,,,,,,,,,,,,,,,,,,,,,,,,,,,,,,,,,,,,,,,,,,,,,,,,,,,,,,,,,,,,,,,,,,,,,,,,,,,,,,,,,,,,,
1763976041.849845,29800.0,0.0,4418.717773,4423.077148,4545.641113,4554.487305,4418.974121,4543.205078,4567.94873,4419.358887,4588.333496,4419.615234,4526.153809,4538.461426,4591.153809,4387.307617,4400.128418,4510.128418,4565.769043,4542.179688,4524.743652,4405.384766,4425.0,4580.512695,4536.538574,4518.974121,4399.487305,4588.974121,4393.974121,4563.077148,4528.589844,4405.384766,4549.487305,4538.846191,2659.0,0.0,11.0,2048.0,58281.0,,,,0.0,4.0,4.0,4.0,4.0,4.0,4.0,4.0,4.0,4.0,4.0,4.0,4.0,4.0,4.0,4.0,4.0,4.0,4.0,4.0,4.0,4.0,4.0,4.0,4.0,4.0,4.0,4.0,4.0,4.0,4.0,4.0,4.0,100.0,,,,,,,,,,,,,,,,,,,,,,,,,,,,,,,,,,,,,,,,,,,,,,,3.053206,9.900866,7.692935,13.047691,10.99354,8.571299,12.852611,6.330129,13.318938,11.132733,93.175568,21.3326,6.906478,15.653547,11.687799,28.029922,13.450146,5.741474,16.271605,12.962411,6.747988,7.509447,3.451594,8.91409,8.10796,5.435994,7.882955,5.674047,7.46276,7.085089,3.048143,9.217295,5.361179,15.172606,13.379563,5.380359,11.788778,5.424526,17.252878,15.974627,4.496709,11.703272,6.136106,14.696959,16.492149,3.28664,12.310878,28.479767,33.413738,39.445251,2.506037,7.564884,6.133327,17.545115,24.778116,3.108297,9.656963,6.80644,12.941105,10.872603,3.4865,9.677161,9.05166,15.466382,14.112209,1.488858,4.812878,3.828659,14.260502,14.788969,1.462796,4.763041,3.395803,12.557255,11.704602,1.699283,6.915625,6.845839,13.927629,13.805863,4.060465,8.105455,7.334285,12.5011,9.512618,2.074597,9.353087,8.425887,16.846813,12.494179,1.68064,8.52359,7.258325,21.600176,14.385394,3.061307,12.054996,9.287247,16.100542,10.843743,2.795736,12.522712,10.718466,20.876585,15.505977,2.200462,7.282382,9.128745,8.602727,8.780801,4.372182,14.022895,10.583243,15.410228,12.994502,3.933332,14.94055,17.490261,20.214813,19.128616,4.855466,22.614985,25.753004,33.172791,28.418131,9.419868,17.196997,9.833428,15.831012,11.951596,9.141095,16.377914,7.476611,17.416939,16.016582,4.821168,14.72604,8.690773,15.732133,14.776764,5.050792,12.809241,7.083588,13.193623,10.976662,11.281992,15.752257,7.582233,14.102268,12.109897,20.391254,18.503862,7.762996,14.689724,13.350773,82.795448,19.224855,7.82643,15.863432,11.056675
1763976041.853751,29801.0,0.0,4391.922852,4397.820313,4519.743652,4533.589844,4396.922852,4517.563965,4537.692383,4395.128418,4570.384766,4413.333496,4481.410156,4510.128418,4559.102539,4393.461426,4376.538574,4500.512695,4541.794922,4521.410156,4500.641113,4379.871582,4396.153809,4559.102539,4504.358887,4502.94873,4401.410156,4563.974121,4348.205078,4520.384766,4497.692383,4373.846191,4522.179688,4510.384766,2855.0,0.0,11.0,2048.0,58281.0,,,,0.0,4.0,4.0,4.0,4.0,4.0,4.0,4.0,4.0,4.0,4.0,4.0,4.0,4.0,4.0,4.0,4.0,4.0,4.0,4.0,4.0,4.0,4.0,4.0,4.0,4.0,4.0,4.0,4.0,4.0,4.0,4.0,4.0,100.0,,,,,,,,,,,,,,,,,,,,,,,,,,,,,,,,,,,7450.0,0.0,0.240926,0.641968,0.622131,0.377869,0.98889,-0.104993,0.137712,32.833332,-28.0,29.333334,,,,,,,,,,,,,,,,,,,,,,,,,,,,,,,,,,,,,,,,,,,,,,,,,,,,,,,,,,,,,,,,,,,,,,,,,,,,,,,,,,,,,,,,,,,,,,,,,,,,,,,,,,,,,,,,,,,,,,,,,,,,,,,,,,,,,,,,,,,,,,,,,,,,,,,,,,,,,,,,
1763976041.857657,29802.0,0.0,4359.102539,4363.205078,4480.256348,4494.358887,4366.153809,4482.436035,4496.794922,4351.666504,4532.436035,4376.538574,4426.282227,4477.05127,4517.307617,4396.410156,4343.461426,4503.205078,4513.589844,4503.846191,4485.769043,4335.384766,4357.820313,4535.769043,4469.487305,4470.769043,4384.615234,4532.307617,4313.974121,4487.563965,4462.820313,4339.615234,4487.563965,4471.794922,2593.0,0.0,11.0,2304.0,58288.0,,,,0.0,4.0,4.0,4.0,4.0,4.0,4.0,4.0,4.0,4.0,4.0,4.0,4.0,4.0,4.0,4.0,4.0,4.0,4.0,4.0,4.0,4.0,4.0,4.0,4.0,4.0,4.0,4.0,4.0,4.0,4.0,4.0,4.0,100.0,,,,,,,,,,,,,,,,,,,,,,,,,,,,,,,,,,,,,,,,,,,,,,,,,,,,,,,,,,,,,,,,,,,,,,,,,,,,,,,,,,,,,,,,,,,,,,,,,,,,,,,,,,,,,,,,,,,,,,,,,,,,,,,,,,,,,,,,,,,,,,,,,,,,,,,,,,,,,,,,,,,,,,,,,,,,,,,,,,,,,,,,,,,,,,,,,,,,,,,,,,,,,,
1763976041.861563,29803.0,0.0,4338.846191,4338.461426,4448.333496,4457.436035,4344.358887,4455.0,4467.94873,4313.205078,4493.461426,4328.333496,4393.974121,4456.666504,4488.846191,4389.230957,4317.05127,4508.461426,4495.512695,4494.358887,4483.974121,4293.589844,4325.384766,4522.692383,4451.282227,4440.128418,4356.794922,4510.256348,4310.769043,4483.846191,4442.94873,4321.410156,4465.769043,4442.436035,2971.0,0.0,11.0,2304.0,58288.0,,,,0.0,4.0,4.0,4.0,4.0,4.0,4.0,4.0,4.0,4.0,4.0,4.0,4.0,4.0,4.0,4.0,4.0,4.0,4.0,4.0,4.0,4.0,4.0,4.0,4.0,4.0,4.0,4.0,4.0,4.0,4.0,4.0,4.0,100.0,,,,,,,,,,,,,,,,,,,,,,,,,,,,,,,,,,,,,,,,,,,,,,,,,,,,,,,,,,,,,,,,,,,,,,,,,,,,,,,,,,,,,,,,,,,,,,,,,,,,,,,,,,,,,,,,,,,,,,,,,,,,,,,,,,,,,,,,,,,,,,,,,,,,,,,,,,,,,,,,,,,,,,,,,,,,,,,,,,,,,,,,,,,,,,,,,,,,,,,,,,,,,,
1763976041.865468,29804.0,0.0,4343.846191,4340.256348,4443.974121,4447.820313,4346.410156,4450.384766,4469.487305,4305.384766,4478.461426,4298.461426,4405.512695,4460.897461,4491.025879,4375.769043,4312.05127,4507.307617,4497.820313,4495.0,4491.922852,4280.769043,4315.384766,4526.410156,4460.897461,4429.871582,4336.922852,4512.692383,4340.128418,4511.666504,4450.0,4330.641113,4471.666504,4440.128418,2976.0,0.0,11.0,1024.0,58296.0,,,,0.0,4.0,4.0,4.0,4.0,4.0,4.0,4.0,4.0,4.0,4.0,4.0,4.0,4.0,4.0,4.0,4.0,4.0,4.0,4.0,4.0,4.0,4.0,4.0,4.0,4.0,4.0,4.0,4.0,4.0,4.0,4.0,4.0,100.0,,,,,,,,,,,,,,,,,,,,,,,,,,,,,,,,,,,,,,,,,,,,,,,,,,,,,,,,,,,,,,,,,,,,,,,,,,,,,,,,,,,,,,,,,,,,,,,,,,,,,,,,,,,,,,,,,,,,,,,,,,,,,,,,,,,,,,,,,,,,,,,,,,,,,,,,,,,,,,,,,,,,,,,,,,,,,,,,,,,,,,,,,,,,,,,,,,,,,,,,,,,,,,
1763976041.869374,29805.0,0.0,4374.102539,4371.282227,4472.94873,4478.077148,4375.0,4473.333496,4503.846191,4339.230957,4503.205078,4308.205078,4456.025879,4489.487305,4525.384766,4369.615234,4334.487305,4504.102539,4522.179688,4507.820313,4503.589844,4310.512695,4336.282227,4545.512695,4494.615234,4448.846191,4342.94873,4543.333496,4386.538574,4555.897461,4481.794922,4364.743652,4504.871582,4469.743652,2601.0,0.0,11.0,1024.0,58296.0,,,,0.0,4.0,4.0,4.0,4.0,4.0,4.0,4.0,4.0,4.0,4.0,4.0,4.0,4.0,4.0,4.0,4.0,4.0,4.0,4.0,4.0,4.0,4.0,4.0,4.0,4.0,4.0,4.0,4.0,4.0,4.0,4.0,4.0,100.0,,,,,,,,,,,,,,,,,,,,,,,,,,,,,,,,,,,7451.0,0.0,0.241009,0.6427,0.622009,0.37677,0.98889,-0.104993,0.137712,33.166668,-26.833334,29.666666,,,,,,,,,,,,,,,,,,,,,,,,,,,,,,,,,,,,,,,,,,,,,,,,,,,,,,,,,,,,,,,,,,,,,,,,,,,,,,,,,,,,,,,,,,,,,,,,,,,,,,,,,,,,,,,,,,,,,,,,,,,,,,,,,,,,,,,,,,,,,,,,,,,,,,,,,,,,,,,,
1763976041.87328,29806.0,0.0,4413.461426,4414.230957,4519.615234,4534.615234,4414.743652,4511.538574,4552.436035,4398.717773,4558.717773,4351.922852,4515.769043,4527.179688,4573.205078,4381.153809,4375.641113,4508.077148,4556.922852,4528.461426,4511.410156,4368.717773,4378.333496,4569.230957,4533.717773,4487.307617,4375.512695,4586.922852,4425.512695,4591.025879,4520.769043,4405.641113,4546.153809,4516.025879,2726.0,0.0,11.0,1280.0,58304.0,,,,0.0,4.0,4.0,4.0,4.0,4.0,4.0,4.0,4.0,4.0,4.0,4.0,4.0,4.0,4.0,4.0,4.0,4.0,4.0,4.0,4.0,4.0,4.0,4.0,4.0,4.0,4.0,4.0,4.0,4.0,4.0,4.0,4.0,100.0,,,,,,,,,,,,,,,,,,,,,,,,,,,,,,,,,,,,,,,,,,,,,,,,,,,,,,,,,,,,,,,,,,,,,,,,,,,,,,,,,,,,,,,,,,,,,,,,,,,,,,,,,,,,,,,,,,,,,,,,,,,,,,,,,,,,,,,,,,,,,,,,,,,,,,,,,,,,,,,,,,,,,,,,,,,,,,,,,,,,,,,,,,,,,,,,,,,,,,,,,,,,,,
1763976041.877186,29807.0,0.0,4435.769043,4439.871582,4553.589844,4581.282227,4439.358887,4539.487305,4583.205078,4446.282227,4610.641113,4396.922852,4546.153809,4548.974121,4603.077148,4405.641113,4412.307617,4518.717773,4579.743652,4542.563965,4505.641113,4417.820313,4415.128418,4581.025879,4552.05127,4518.333496,4412.179688,4615.641113,4435.512695,4595.0,4541.025879,4427.692383,4568.974121,4548.846191,2888.0,0.0,11.0,1280.0,58304.0,,,,0.0,4.0,4.0,4.0,4.0,4.0,4.0,4.0,4.0,4.0,4.0,4.0,4.0,4.0,4.0,4.0,4.0,4.0,4.0,4.0,4.0,4.0,4.0,4.0,4.0,4.0,4.0,4.0,4.0,4.0,4.0,4.0,4.0,100.0,,,,,,,,,,,,,,,,,,,,,,,,,,,,,,,,,,,,,,,,,,,,,,,,,,,,,,,,,,,,,,,,,,,,,,,,,,,,,,,,,,,,,,,,,,,,,,,,,,,,,,,,,,,,,,,,,,,,,,,,,,,,,,,,,,,,,,,,,,,,,,,,,,,,,,,,,,,,,,,,,,,,,,,,,,,,,,,,,,,,,,,,,,,,,,,,,,,,,,,,,,,,,,
1763976041.881091,29808.0,0.0,4423.077148,4427.179688,4550.128418,4583.589844,4429.743652,4536.025879,4572.436035,4447.307617,4621.922852,4409.358887,4525.384766,4537.307617,4593.077148,4427.05127,4421.153809,4523.461426,4572.820313,4534.871582,4482.563965,4423.974121,4420.641113,4570.0,4534.615234,4516.282227,4420.897461,4607.820313,4411.282227,4563.461426,4526.794922,4414.871582,4557.820313,4543.846191,2949.0,0.0,11.0,768.0,58312.0,,,,0.0,4.0,4.0,4.0,4.0,4.0,4.0,4.0,4.0,4.0,4.0,4.0,4.0,4.0,4.0,4.0,4.0,4.0,4.0,4.0,4.0,4.0,4.0,4.0,4.0,4.0,4.0,4.0,4.0,4.0,4.0,4.0,4.0,100.0,,,,,,,,,,,,,,,,,,,,,,,,,,,,,,,,,,,,,,,,,,,,,,,,,,,,,,,,,,,,,,,,,,,,,,,,,,,,,,,,,,,,,,,,,,,,,,,,,,,,,,,,,,,,,,,,,,,,,,,,,,,,,,,,,,,,,,,,,,,,,,,,,,,,,,,,,,,,,,,,,,,,,,,,,,,,,,,,,,,,,,,,,,,,,,,,,,,,,,,,,,,,,,
1763976041.884997,29809.0,0.0,4381.282227,4382.179688,4510.897461,4537.563965,4390.512695,4502.05127,4525.0,4398.077148,4583.974121,4381.922852,4467.692383,4497.436035,4549.102539,4432.05127,4396.666504,4511.282227,4538.846191,4504.743652,4451.410156,4385.0,4391.794922,4541.153809,4491.410156,4479.230957,4388.205078,4566.922852,4368.461426,4515.897461,4485.769043,4375.128418,4521.538574,4503.461426,3049.0,0.0,11.0,768.0,58312.0,,,,0.0,4.0,4.0,4.0,4.0,4.0,4.0,4.0,4.0,4.0,4.0,4.0,4.0,4.0,4.0,4.0,4.0,4.0,4.0,4.0,4.0,4.0,4.0,4.0,4.0,4.0,4.0,4.0,4.0,4.0,4.0,4.0,4.0,100.0,,,,,,,,,,,,,,,,,,,,,,,,,,,,,,,,,,,7452.0,0.0,0.241024,0.643372,0.621826,0.375916,0.97717,-0.112318,0.150897,33.5,-27.0,29.5,,,,,,,,,,,,,,,,,,,,,,,,,,,,,,,,,,,,,,,,,,,,,,,,,,,,,,,,,,,,,,,,,,,,,,,,,,,,,,,,,,,,,,,,,,,,,,,,,,,,,,,,,,,,,,,,,,,,,,,,,,,,,,,,,,,,,,,,,,,,,,,,,,,,,,,,,,,,,,,,
