title:Anxiety2, start timestamp:1764669106.528533, stop timestamp:1764669118.643396, headset type:FLEX2, headset serial:F30002B4, headset firmware:2f10, channels:283, sampling rate:eeg_256;mot_64;pow_8, samples:3103      , version:2.2, ,,,,,,,,,,,,,,,,,,,,,,,,,,,,,,,,,,,,,,,,,,,,,,,,,,,,,,,,,,,,,,,,,,,,,,,,,,,,,,,,,,,,,,,,,,,,,,,,,,,,,,,,,,,,,,,,,,,,,,,,,,,,,,,,,,,,,,,,,,,,,,,,,,,,,,,,,,,,,,,,,,,,,,,,,,,,,,,,,,,,,,,,,,,,,,,,,,,,,,,,,,,,,,,,,,,,,,,,,,,,,,,,,,,,,,,,,,,,,,,,,,,,,,,,,,,,,,,,,,,,,,,,,,,,,,,,
Timestamp,EEG.Counter,EEG.Interpolated,EEG.Cz,EEG.Fz,EEG.Fp1,EEG.F7,EEG.F3,EEG.FC1,EEG.C3,EEG.FC5,EEG.FT9,EEG.T7,EEG.CP5,EEG.CP1,EEG.P3,EEG.P7,EEG.PO9,EEG.O1,EEG.Pz,EEG.Oz,EEG.O2,EEG.PO10,EEG.P8,EEG.P4,EEG.CP2,EEG.CP6,EEG.T8,EEG.FT10,EEG.FC6,EEG.C4,EEG.FC2,EEG.F4,EEG.F8,EEG.Fp2,EEG.RawCq,EEG.Battery,EEG.BatteryPercent,EEG.FwBufferSize,EEG.FwClockTime,MarkerIndex,MarkerType,MarkerValueInt,EEG.MarkerHardware,CQ.Cz,CQ.Fz,CQ.Fp1,CQ.F7,CQ.F3,CQ.FC1,CQ.C3,CQ.FC5,CQ.FT9,CQ.T7,CQ.CP5,CQ.CP1,CQ.P3,CQ.P7,CQ.PO9,CQ.O1,CQ.Pz,CQ.Oz,CQ.O2,CQ.PO10,CQ.P8,CQ.P4,CQ.CP2,CQ.CP6,CQ.T8,CQ.FT10,CQ.FC6,CQ.C4,CQ.FC2,CQ.F4,CQ.F8,CQ.Fp2,CQ.Overall,EQ.SampleRateQuality,EQ.OVERALL,EQ.Cz,EQ.Fz,EQ.Fp1,EQ.F7,EQ.F3,EQ.FC1,EQ.C3,EQ.FC5,EQ.FT9,EQ.T7,EQ.CP5,EQ.CP1,EQ.P3,EQ.P7,EQ.PO9,EQ.O1,EQ.Pz,EQ.Oz,EQ.O2,EQ.PO10,EQ.P8,EQ.P4,EQ.CP2,EQ.CP6,EQ.T8,EQ.FT10,EQ.FC6,EQ.C4,EQ.FC2,EQ.F4,EQ.F8,EQ.Fp2,MOT.CounterMems,MOT.InterpolatedMems,MOT.Q0,MOT.Q1,MOT.Q2,MOT.Q3,MOT.AccX,MOT.AccY,MOT.AccZ,MOT.MagX,MOT.MagY,MOT.MagZ,POW.Cz.Theta,POW.Cz.Alpha,POW.Cz.BetaL,POW.Cz.BetaH,POW.Cz.Gamma,POW.Fz.Theta,POW.Fz.Alpha,POW.Fz.BetaL,POW.Fz.BetaH,POW.Fz.Gamma,POW.Fp1.Theta,POW.Fp1.Alpha,POW.Fp1.BetaL,POW.Fp1.BetaH,POW.Fp1.Gamma,POW.F7.Theta,POW.F7.Alpha,POW.F7.BetaL,POW.F7.BetaH,POW.F7.Gamma,POW.F3.Theta,POW.F3.Alpha,POW.F3.BetaL,POW.F3.BetaH,POW.F3.Gamma,POW.FC1.Theta,POW.FC1.Alpha,POW.FC1.BetaL,POW.FC1.BetaH,POW.FC1.Gamma,POW.C3.Theta,POW.C3.Alpha,POW.C3.BetaL,POW.C3.BetaH,POW.C3.Gamma,POW.FC5.Theta,POW.FC5.Alpha,POW.FC5.BetaL,POW.FC5.BetaH,POW.FC5.Gamma,POW.FT9.Theta,POW.FT9.Alpha,POW.FT9.BetaL,POW.FT9.BetaH,POW.FT9.Gamma,POW.T7.Theta,POW.T7.Alpha,POW.T7.BetaL,POW.T7.BetaH,POW.T7.Gamma,POW.CP5.Theta,POW.CP5.Alpha,POW.CP5.BetaL,POW.CP5.BetaH,POW.CP5.Gamma,POW.CP1.Theta,POW.CP1.Alpha,POW.CP1.BetaL,POW.CP1.BetaH,POW.CP1.Gamma,POW.P3.Theta,POW.P3.Alpha,POW.P3.BetaL,POW.P3.BetaH,POW.P3.Gamma,POW.P7.Theta,POW.P7.Alpha,POW.P7.BetaL,POW.P7.BetaH,POW.P7.Gamma,POW.PO9.Theta,POW.PO9.Alpha,POW.PO9.BetaL,POW.PO9.BetaH,POW.PO9.Gamma,POW.O1.Theta,POW.O1.Alpha,POW.O1.BetaL,POW.O1.BetaH,POW.O1.Gamma,POW.Pz.Theta,POW.Pz.Alpha,POW.Pz.BetaL,POW.Pz.BetaH,POW.Pz.Gamma,POW.Oz.Theta,POW.Oz.Alpha,POW.Oz.BetaL,POW.Oz.BetaH,POW.Oz.Gamma,POW.O2.Theta,POW.O2.Alpha,POW.O2.BetaL,POW.O2.BetaH,POW.O2.Gamma,POW.PO10.Theta,POW.PO10.Alpha,POW.PO10.BetaL,POW.PO10.BetaH,POW.PO10.Gamma,POW.P8.Theta,POW.P8.Alpha,POW.P8.BetaL,POW.P8.BetaH,POW.P8.Gamma,POW.P4.Theta,POW.P4.Alpha,POW.P4.BetaL,POW.P4.BetaH,POW.P4.Gamma,POW.CP2.Theta,POW.CP2.Alpha,POW.CP2.BetaL,POW.CP2.BetaH,POW.CP2.Gamma,POW.CP6.Theta,POW.CP6.Alpha,POW.CP6.BetaL,POW.CP6.BetaH,POW.CP6.Gamma,POW.T8.Theta,POW.T8.Alpha,POW.T8.BetaL,POW.T8.BetaH,POW.T8.Gamma,POW.FT10.Theta,POW.FT10.Alpha,POW.FT10.BetaL,POW.FT10.BetaH,POW.FT10.Gamma,POW.FC6.Theta,POW.FC6.Alpha,POW.FC6.BetaL,POW.FC6.BetaH,POW.FC6.Gamma,POW.C4.Theta,POW.C4.Alpha,POW.C4.BetaL,POW.C4.BetaH,POW.C4.Gamma,POW.FC2.Theta,POW.FC2.Alpha,POW.FC2.BetaL,POW.FC2.BetaH,POW.FC2.Gamma,POW.F4.Theta,POW.F4.Alpha,POW.F4.BetaL,POW.F4.BetaH,POW.F4.Gamma,POW.F8.Theta,POW.F8.Alpha,POW.F8.BetaL,POW.F8.BetaH,POW.F8.Gamma,POW.Fp2.Theta,POW.Fp2.Alpha,POW.Fp2.BetaL,POW.Fp2.BetaH,POW.Fp2.Gamma
1764669112.726338,54764,0,4360.769043,4380.384766,4456.922852,4519.487305,4395.512695,4488.461426,4521.538574,4373.589844,4556.666504,4362.05127,4488.205078,4493.589844,4560.769043,4386.922852,4387.436035,4499.487305,4525.256348,4532.436035,4517.563965,4388.589844,4392.436035,4559.743652,4497.94873,4485.512695,4383.461426,4587.436035,4387.05127,4544.871582,4497.94873,4399.871582,4531.794922,4469.487305,2482,0,5,256,56927,1,1,7,0,4,4,4,4,4,4,4,4,4,4,4,4,4,4,4,4,4,4,4,4,4,4,4,4,4,4,4,4,4,4,4,4,100,,,,,,,,,,,,,,,,,,,,,,,,,,,,,,,,,,,,,,,,,,,,,,,,,,,,,,,,,,,,,,,,,,,,,,,,,,,,,,,,,,,,,,,,,,,,,,,,,,,,,,,,,,,,,,,,,,,,,,,,,,,,,,,,,,,,,,,,,,,,,,,,,,,,,,,,,,,,,,,,,,,,,,,,,,,,,,,,,,,,,,,,,,,,,,,,,,,,,,,,,,,,,,
1764669112.730244,54765,0,4364.487305,4383.333496,4474.487305,4524.230957,4388.589844,4491.153809,4524.615234,4375.384766,4556.794922,4368.589844,4489.487305,4496.794922,4563.717773,4388.205078,4390.641113,4499.230957,4530,4536.666504,4522.436035,4391.922852,4396.410156,4563.717773,4500.128418,4491.025879,4379.358887,4588.077148,4389.487305,4551.410156,4502.307617,4408.846191,4538.333496,4483.589844,2242,0,5,256,56927,,,,0,4,4,4,4,4,4,4,4,4,4,4,4,4,4,4,4,4,4,4,4,4,4,4,4,4,4,4,4,4,4,4,4,100,,,,,,,,,,,,,,,,,,,,,,,,,,,,,,,,,,,13691,0,0.646569,-0.319092,-0.298279,0.625427,1.010377,0.020022,0.046392,15.5,38.5,-27,,,,,,,,,,,,,,,,,,,,,,,,,,,,,,,,,,,,,,,,,,,,,,,,,,,,,,,,,,,,,,,,,,,,,,,,,,,,,,,,,,,,,,,,,,,,,,,,,,,,,,,,,,,,,,,,,,,,,,,,,,,,,,,,,,,,,,,,,,,,,,,,,,,,,,,,,,,,,,,,
1764669112.734150,54766,0,4367.436035,4384.358887,4492.436035,4527.94873,4382.05127,4495,4526.410156,4376.538574,4557.692383,4385.769043,4495,4498.846191,4568.333496,4392.307617,4400.641113,4509.871582,4536.794922,4544.487305,4527.179688,4394.871582,4398.974121,4569.230957,4502.692383,4496.538574,4378.589844,4588.077148,4393.846191,4557.563965,4505,4414.871582,4541.666504,4497.307617,2739,0,5,256,56935,,,,0,4,4,4,4,4,4,4,4,4,4,4,4,4,4,4,4,4,4,4,4,4,4,4,4,4,4,4,4,4,4,4,4,100,,,,,,,,,,,,,,,,,,,,,,,,,,,,,,,,,,,,,,,,,,,,,,,,,,,,,,,,,,,,,,,,,,,,,,,,,,,,,,,,,,,,,,,,,,,,,,,,,,,,,,,,,,,,,,,,,,,,,,,,,,,,,,,,,,,,,,,,,,,,,,,,,,,,,,,,,,,,,,,,,,,,,,,,,,,,,,,,,,,,,,,,,,,,,,,,,,,,,,,,,,,,,,
1764669112.738056,54767,0,4367.179688,4382.307617,4499.871582,4527.563965,4377.692383,4496.794922,4525.641113,4376.153809,4557.179688,4398.333496,4500.128418,4498.077148,4571.153809,4395.384766,4409.102539,4525.384766,4540.384766,4550.512695,4527.94873,4394.487305,4398.461426,4570.641113,4503.333496,4496.153809,4381.282227,4586.025879,4396.922852,4558.846191,4504.102539,4413.974121,4540.256348,4507.05127,2446,0,5,256,56935,,,,0,4,4,4,4,4,4,4,4,4,4,4,4,4,4,4,4,4,4,4,4,4,4,4,4,4,4,4,4,4,4,4,4,100,,,,,,,,,,,,,,,,,,,,,,,,,,,,,,,,,,,,,,,,,,,,,,,,,,,,,,,,,,,,,,,,,,,,,,,,,,,,,,,,,,,,,,,,,,,,,,,,,,,,,,,,,,,,,,,,,,,,,,,,,,,,,,,,,,,,,,,,,,,,,,,,,,,,,,,,,,,,,,,,,,,,,,,,,,,,,,,,,,,,,,,,,,,,,,,,,,,,,,,,,,,,,,
1764669112.741861,54768,0,4363.589844,4378.589844,4495,4523.846191,4376.666504,4495.256348,4523.077148,4375.256348,4555,4394.871582,4500.897461,4495.128418,4569.743652,4394.102539,4407.820313,4535.384766,4537.563965,4549.487305,4523.846191,4390.512695,4395.641113,4565.128418,4501.410156,4489.102539,4388.589844,4582.94873,4396.410156,4554.102539,4500,4406.282227,4535.641113,4511.922852,2899,0,5,256,56943,,,,0,4,4,4,4,4,4,4,4,4,4,4,4,4,4,4,4,4,4,4,4,4,4,4,4,4,4,4,4,4,4,4,4,100,,,,,,,,,,,,,,,,,,,,,,,,,,,,,,,,,,,,,,,,,,,,,,,,,,,,,,,,,,,,,,,,,,,,,,,,,,,,,,,,,,,,,,,,,,,,,,,,,,,,,,,,,,,,,,,,,,,,,,,,,,,,,,,,,,,,,,,,,,,,,,,,,,,,,,,,,,,,,,,,,,,,,,,,,,,,,,,,,,,,,,,,,,,,,,,,,,,,,,,,,,,,,,
1764669112.745767,54769,0,4359.615234,4376.410156,4487.436035,4520.769043,4379.358887,4492.94873,4521.410156,4376.410156,4553.077148,4378.717773,4496.794922,4492.563965,4564.487305,4389.102539,4396.538574,4532.94873,4530.256348,4541.282227,4517.692383,4385.256348,4394.102539,4555.769043,4498.205078,4480.512695,4400.384766,4581.794922,4393.461426,4547.05127,4495.897461,4397.436035,4531.922852,4513.461426,2971,0,5,256,56943,,,,0,4,4,4,4,4,4,4,4,4,4,4,4,4,4,4,4,4,4,4,4,4,4,4,4,4,4,4,4,4,4,4,4,100,,,,,,,,,,,,,,,,,,,,,,,,,,,,,,,,,,,13692,0,0.646189,-0.31958,-0.298706,0.625366,1.010377,0.020022,0.046392,16.333334,39.333332,-24.5,,,,,,,,,,,,,,,,,,,,,,,,,,,,,,,,,,,,,,,,,,,,,,,,,,,,,,,,,,,,,,,,,,,,,,,,,,,,,,,,,,,,,,,,,,,,,,,,,,,,,,,,,,,,,,,,,,,,,,,,,,,,,,,,,,,,,,,,,,,,,,,,,,,,,,,,,,,,,,,,
1764669112.749773,54770,0,4358.717773,4377.307617,4488.461426,4522.179688,4384.743652,4492.820313,4521.794922,4379.871582,4553.205078,4364.487305,4490.512695,4492.692383,4557.692383,4383.333496,4381.794922,4518.846191,4523.461426,4530,4512.820313,4381.794922,4396.538574,4549.487305,4496.025879,4476.922852,4412.563965,4584.743652,4390.897461,4542.692383,4494.487305,4393.461426,4532.94873,4513.461426,1790,0,5,512,56951,,,,0,4,4,4,4,4,4,4,4,4,4,4,4,4,4,4,4,4,4,4,4,4,4,4,4,4,4,4,4,4,4,4,4,100,,,,,,,,,,,,,,,,,,,,,,,,,,,,,,,,,,,,,,,,,,,,,,,,,,,,,,,,,,,,,,,,,,,,,,,,,,,,,,,,,,,,,,,,,,,,,,,,,,,,,,,,,,,,,,,,,,,,,,,,,,,,,,,,,,,,,,,,,,,,,,,,,,,,,,,,,,,,,,,,,,,,,,,,,,,,,,,,,,,,,,,,,,,,,,,,,,,,,,,,,,,,,,
1764669112.753679,54771,0,4360.769043,4379.871582,4500.128418,4526.922852,4388.974121,4495.128418,4522.307617,4381.666504,4555.512695,4365.384766,4484.871582,4495.256348,4551.410156,4379.615234,4371.666504,4500.128418,4521.153809,4520.512695,4510.384766,4381.410156,4402.179688,4550.512695,4495.384766,4480.897461,4419.615234,4590.384766,4389.871582,4542.563965,4495.897461,4395.384766,4537.94873,4512.692383,2753,0,5,512,56951,,,,0,4,4,4,4,4,4,4,4,4,4,4,4,4,4,4,4,4,4,4,4,4,4,4,4,4,4,4,4,4,4,4,4,100,,,,,,,,,,,,,,,,,,,,,,,,,,,,,,,,,,,,,,,,,,,,,,,,,,,,,,,,,,,,,,,,,,,,,,,,,,,,,,,,,,,,,,,,,,,,,,,,,,,,,,,,,,,,,,,,,,,,,,,,,,,,,,,,,,,,,,,,,,,,,,,,,,,,,,,,,,,,,,,,,,,,,,,,,,,,,,,,,,,,,,,,,,,,,,,,,,,,,,,,,,,,,,
1764669112.757585,54772,0,4363.846191,4381.666504,4513.846191,4530.897461,4390.641113,4497.179688,4520.897461,4377.692383,4559.358887,4383.589844,4482.436035,4498.333496,4547.436035,4379.615234,4370.256348,4486.282227,4523.461426,4515.256348,4509.743652,4383.333496,4406.794922,4557.692383,4496.282227,4489.871582,4419.102539,4595.769043,4390.384766,4545.512695,4498.461426,4400.384766,4543.205078,4510.769043,2603,0,5,768,56959,,,,0,4,4,4,4,4,4,4,4,4,4,4,4,4,4,4,4,4,4,4,4,4,4,4,4,4,4,4,4,4,4,4,4,100,,,,,,,,,,,,,,,,,,,,,,,,,,,,,,,,,,,,,,,,,,,,,,,,,,,,,,,,,,,,,,,,,,,,,,,,,,,,,,,,,,,,,,,,,,,,,,,,,,,,,,,,,,,,,,,,,,,,,,,,,,,,,,,,,,,,,,,,,,,,,,,,,,,,,,,,,,,,,,,,,,,,,,,,,,,,,,,,,,,,,,,,,,,,,,,,,,,,,,,,,,,,,,
1764669112.761491,54773,0,4367.05127,4382.692383,4517.820313,4531.666504,4392.179688,4498.077148,4519.102539,4370.256348,4564.743652,4409.230957,4485.512695,4501.794922,4548.077148,4383.717773,4376.794922,4483.846191,4528.974121,4515.641113,4510.256348,4387.307617,4406.922852,4566.794922,4499.230957,4500.128418,4415.384766,4599.358887,4393.077148,4550.384766,4501.666504,4405.641113,4545.512695,4508.077148,2827,0,5,768,56959,,,,0,4,4,4,4,4,4,4,4,4,4,4,4,4,4,4,4,4,4,4,4,4,4,4,4,4,4,4,4,4,4,4,4,100,,,,,,,,,,,,,,,,,,,,,,,,,,,,,,,,,,,13693,0,0.645716,-0.320068,-0.29895,0.625488,0.996704,0.013185,0.033696,14.666667,35.333332,-24.5,,,,,,,,,,,,,,,,,,,,,,,,,,,,,,,,,,,,,,,,,,,,,,,,,,,,,,,,,,,,,,,,,,,,,,,,,,,,,,,,,,,,,,,,,,,,,,,,,,,,,,,,,,,,,,,,,,,,,,,,,,,,,,,,,,,,,,,,,,,,,,,,,,,,,,,,,,,,,,,,
1764669112.765397,54774,0,4371.794922,4385.641113,4509.230957,4531.282227,4398.974121,4499.743652,4521.794922,4367.307617,4572.05127,4427.692383,4494.871582,4508.333496,4555.384766,4390.512695,4387.436035,4492.94873,4536.794922,4521.538574,4511.922852,4392.820313,4403.461426,4575.256348,4505.641113,4509.487305,4414.743652,4602.307617,4399.743652,4558.205078,4506.538574,4411.794922,4545.384766,4506.282227,2936,0,5,1024,56967,,,,0,4,4,4,4,4,4,4,4,4,4,4,4,4,4,4,4,4,4,4,4,4,4,4,4,4,4,4,4,4,4,4,4,100,,,,,,,,,,,,,,,,,,,,,,,,,,,,,,,,,,,,,,,,,,,,,,,,,,,,,,,,,,,,,,,,,,,,,,,,,,,,,,,,,,,,,,,,,,,,,,,,,,,,,,,,,,,,,,,,,,,,,,,,,,,,,,,,,,,,,,,,,,,,,,,,,,,,,,,,,,,,,,,,,,,,,,,,,,,,,,,,,,,,,,,,,,,,,,,,,,,,,,,,,,,,,,
1764669112.769303,54775,0,4379.615234,4392.436035,4495.769043,4534.230957,4412.307617,4505.512695,4531.922852,4376.025879,4580.384766,4428.717773,4508.333496,4519.615234,4568.333496,4397.179688,4396.922852,4506.922852,4546.025879,4531.410156,4515.384766,4398.589844,4399.615234,4582.692383,4515.641113,4517.94873,4419.102539,4607.05127,4411.025879,4569.487305,4513.589844,4420.128418,4546.410156,4506.666504,2860,0,5,1024,56967,,,,0,4,4,4,4,4,4,4,4,4,4,4,4,4,4,4,4,4,4,4,4,4,4,4,4,4,4,4,4,4,4,4,4,100,,,,,,,,,,,,,,,,,,,,,,,,,,,,,,,,,,,,,,,,,,,,,,,,,,,,,,,,,,,,,,,,,,,,,,,,,,,,,,,,,,,,,,,,,,,,,,,,,,,,,,,,,,,,,,,,,,,,,,,,,,,,,,,,,,,,,,,,,,,,,,,,,,,,,,,,,,,,,,,,,,,,,,,,,,,,,,,,,,,,,,,,,,,,,,,,,,,,,,,,,,,,,,
1764669112.773209,54776,0,4389.230957,4402.179688,4489.487305,4541.922852,4427.05127,4516.282227,4547.179688,4395,4587.692383,4415,4520.512695,4533.205078,4583.333496,4401.538574,4401.794922,4517.94873,4555.256348,4541.922852,4520.128418,4402.307617,4399.102539,4589.358887,4526.666504,4524.871582,4424.358887,4614.102539,4424.102539,4582.307617,4521.538574,4430.512695,4551.025879,4510,2729,0,5,1280,56974,,,,0,4,4,4,4,4,4,4,4,4,4,4,4,4,4,4,4,4,4,4,4,4,4,4,4,4,4,4,4,4,4,4,4,100,,,,,,,,,,,,,,,,,,,,,,,,,,,,,,,,,,,,,,,,,,,,,,,1.761948,2.394016,5.484198,1.022547,1.078811,7.039813,2.72315,5.478554,1.008557,1.452731,38.127972,3.212211,5.104079,4.863522,2.718879,7.396513,2.758194,5.893515,1.416528,1.551641,6.569356,2.027034,5.607257,1.417181,1.970134,2.712642,1.969778,5.01727,0.934161,1.110635,1.863908,2.41221,5.931044,0.88296,1.148816,2.937084,1.861149,5.682111,0.978853,1.533956,1.58164,1.731738,5.378908,1.079285,1.110751,0.790117,3.481877,7.304409,2.985149,3.73064,0.68531,1.285925,2.969304,1.072589,1.004035,2.008378,2.000327,4.793223,1.008923,1.034755,0.559336,1.157862,3.86025,1.039541,1.026838,0.540108,0.530903,1.821935,0.526787,0.690697,0.962939,1.357805,2.71999,1.294519,1.128277,0.747291,1.241012,4.088371,2.083827,1.515515,1.662064,2.667405,5.774443,1.316767,1.337692,1.382254,2.065804,5.526784,2.466879,2.085062,0.865042,1.469498,3.762225,1.629551,1.460219,0.495374,2.225805,3.80911,1.256246,1.224298,0.853673,2.446532,2.727198,1.772568,1.362066,1.336653,2.75197,5.152093,1.145385,1.522612,1.420041,2.69448,3.993022,1.020187,1.114779,0.81209,2.587243,4.765632,1.185862,1.403475,2.067123,2.874158,12.044544,7.113865,8.164689,0.79986,1.748802,3.935469,1.049643,1.388616,1.537379,2.628999,5.146614,1.27538,1.693377,1.180887,2.880487,6.231142,1.189262,1.354594,0.950859,1.005649,2.597689,0.601338,0.602294,6.629128,1.967929,4.67253,1.615152,1.981665,3.277615,3.248264,6.538842,1.740968,2.361558,47.523235,6.346737,6.681182,5.061124,3.38542
1764669112.777115,54777,0,4397.307617,4411.153809,4496.538574,4551.538574,4435.641113,4528.461426,4560.512695,4413.846191,4591.794922,4400.128418,4526.410156,4543.333496,4594.487305,4403.077148,4402.692383,4522.563965,4563.205078,4549.102539,4525.128418,4402.94873,4403.205078,4593.717773,4534.487305,4528.461426,4424.230957,4620.384766,4433.846191,4592.692383,4527.563965,4439.743652,4558.717773,4515.769043,2892,0,5,1280,56974,,,,0,4,4,4,4,4,4,4,4,4,4,4,4,4,4,4,4,4,4,4,4,4,4,4,4,4,4,4,4,4,4,4,4,100,,,,,,,,,,,,,,,,,,,,,,,,,,,,,,,,,,,13694,0,0.644682,-0.320923,-0.2995,0.625854,0.999145,0.016115,0.025882,16.333334,39,-24.166666,,,,,,,,,,,,,,,,,,,,,,,,,,,,,,,,,,,,,,,,,,,,,,,,,,,,,,,,,,,,,,,,,,,,,,,,,,,,,,,,,,,,,,,,,,,,,,,,,,,,,,,,,,,,,,,,,,,,,,,,,,,,,,,,,,,,,,,,,,,,,,,,,,,,,,,,,,,,,,,,
1764669112.781021,54778,0,4400.512695,4415.256348,4512.05127,4556.922852,4433.846191,4536.153809,4565.769043,4421.666504,4591.025879,4397.692383,4523.974121,4545.384766,4597.563965,4402.94873,4402.692383,4522.179688,4567.563965,4551.410156,4528.461426,4401.666504,4409.871582,4593.846191,4536.153809,4526.538574,4416.410156,4621.282227,4435.384766,4596.666504,4529.358887,4442.820313,4565.641113,4522.307617,1826,0,5,1536,56982,,,,0,4,4,4,4,4,4,4,4,4,4,4,4,4,4,4,4,4,4,4,4,4,4,4,4,4,4,4,4,4,4,4,4,100,,,,,,,,,,,,,,,,,,,,,,,,,,,,,,,,,,,,,,,,,,,,,,,,,,,,,,,,,,,,,,,,,,,,,,,,,,,,,,,,,,,,,,,,,,,,,,,,,,,,,,,,,,,,,,,,,,,,,,,,,,,,,,,,,,,,,,,,,,,,,,,,,,,,,,,,,,,,,,,,,,,,,,,,,,,,,,,,,,,,,,,,,,,,,,,,,,,,,,,,,,,,,,
1764669112.784927,54779,0,4398.333496,4412.179688,4524.743652,4553.717773,4423.461426,4535.256348,4561.282227,4414.615234,4585,4409.487305,4515.128418,4538.974121,4592.179688,4402.307617,4403.077148,4520.128418,4566.666504,4549.743652,4528.846191,4399.743652,4414.487305,4589.102539,4531.794922,4518.846191,4404.487305,4614.358887,4427.563965,4592.05127,4526.282227,4436.025879,4567.436035,4525.897461,2457,0,5,1536,56982,,,,0,4,4,4,4,4,4,4,4,4,4,4,4,4,4,4,4,4,4,4,4,4,4,4,4,4,4,4,4,4,4,4,4,100,,,,,,,,,,,,,,,,,,,,,,,,,,,,,,,,,,,,,,,,,,,,,,,,,,,,,,,,,,,,,,,,,,,,,,,,,,,,,,,,,,,,,,,,,,,,,,,,,,,,,,,,,,,,,,,,,,,,,,,,,,,,,,,,,,,,,,,,,,,,,,,,,,,,,,,,,,,,,,,,,,,,,,,,,,,,,,,,,,,,,,,,,,,,,,,,,,,,,,,,,,,,,,
1764669112.788833,54780,0,4392.820313,4403.461426,4526.282227,4542.563965,4411.153809,4527.307617,4550.641113,4398.974121,4575.256348,4424.743652,4504.102539,4528.461426,4582.179688,4401.025879,4401.922852,4518.205078,4560.897461,4546.282227,4526.153809,4397.436035,4412.692383,4581.922852,4524.230957,4508.077148,4394.871582,4602.436035,4413.974121,4581.922852,4520,4421.538574,4562.05127,4523.077148,2644,0,5,1792,56990,,,,0,4,4,4,4,4,4,4,4,4,4,4,4,4,4,4,4,4,4,4,4,4,4,4,4,4,4,4,4,4,4,4,4,100,,,,,,,,,,,,,,,,,,,,,,,,,,,,,,,,,,,,,,,,,,,,,,,,,,,,,,,,,,,,,,,,,,,,,,,,,,,,,,,,,,,,,,,,,,,,,,,,,,,,,,,,,,,,,,,,,,,,,,,,,,,,,,,,,,,,,,,,,,,,,,,,,,,,,,,,,,,,,,,,,,,,,,,,,,,,,,,,,,,,,,,,,,,,,,,,,,,,,,,,,,,,,,
1764669112.792739,54781,0,4388.205078,4394.358887,4517.563965,4530.512695,4403.205078,4518.333496,4540.897461,4385.512695,4565.128418,4431.282227,4496.025879,4520.128418,4573.717773,4398.974121,4396.538574,4516.025879,4553.974121,4543.205078,4521.794922,4394.102539,4404.230957,4576.666504,4518.077148,4500,4393.077148,4592.307617,4401.153809,4572.307617,4514.230957,4406.794922,4551.538574,4514.230957,2488,0,5,1792,56990,,,,0,4,4,4,4,4,4,4,4,4,4,4,4,4,4,4,4,4,4,4,4,4,4,4,4,4,4,4,4,4,4,4,4,100,,,,,,,,,,,,,,,,,,,,,,,,,,,,,,,,,,,13695,0,0.64421,-0.321167,-0.299744,0.626099,1.005494,0.007325,0.020999,16.666666,39.333332,-25,,,,,,,,,,,,,,,,,,,,,,,,,,,,,,,,,,,,,,,,,,,,,,,,,,,,,,,,,,,,,,,,,,,,,,,,,,,,,,,,,,,,,,,,,,,,,,,,,,,,,,,,,,,,,,,,,,,,,,,,,,,,,,,,,,,,,,,,,,,,,,,,,,,,,,,,,,,,,,,,
1764669112.796645,54782,0,4387.820313,4390.256348,4506.025879,4525.512695,4402.692383,4515.128418,4536.922852,4381.666504,4558.333496,4424.102539,4494.102539,4517.563965,4571.153809,4397.436035,4388.333496,4513.461426,4550.256348,4541.922852,4518.333496,4390.128418,4393.461426,4576.282227,4516.666504,4498.589844,4400.641113,4589.615234,4394.487305,4567.94873,4511.922852,4399.743652,4540.641113,4504.615234,2746,0,5,2048,56998,,,,0,4,4,4,4,4,4,4,4,4,4,4,4,4,4,4,4,4,4,4,4,4,4,4,4,4,4,4,4,4,4,4,4,100,,,,,,,,,,,,,,,,,,,,,,,,,,,,,,,,,,,,,,,,,,,,,,,,,,,,,,,,,,,,,,,,,,,,,,,,,,,,,,,,,,,,,,,,,,,,,,,,,,,,,,,,,,,,,,,,,,,,,,,,,,,,,,,,,,,,,,,,,,,,,,,,,,,,,,,,,,,,,,,,,,,,,,,,,,,,,,,,,,,,,,,,,,,,,,,,,,,,,,,,,,,,,,
1764669112.800551,54783,0,4391.025879,4392.436035,4499.102539,4528.846191,4407.179688,4518.846191,4539.102539,4386.794922,4556.282227,4407.436035,4497.436035,4520,4574.487305,4397.692383,4382.05127,4512.05127,4551.410156,4543.077148,4517.436035,4387.436035,4386.282227,4580.128418,4520.128418,4503.717773,4413.077148,4594.230957,4394.487305,4569.102539,4512.94873,4402.05127,4533.461426,4499.871582,2756,0,5,2048,56998,,,,0,4,4,4,4,4,4,4,4,4,4,4,4,4,4,4,4,4,4,4,4,4,4,4,4,4,4,4,4,4,4,4,4,100,,,,,,,,,,,,,,,,,,,,,,,,,,,,,,,,,,,,,,,,,,,,,,,,,,,,,,,,,,,,,,,,,,,,,,,,,,,,,,,,,,,,,,,,,,,,,,,,,,,,,,,,,,,,,,,,,,,,,,,,,,,,,,,,,,,,,,,,,,,,,,,,,,,,,,,,,,,,,,,,,,,,,,,,,,,,,,,,,,,,,,,,,,,,,,,,,,,,,,,,,,,,,,
1764669112.804457,54784,0,4394.102539,4397.820313,4497.820313,4534.487305,4411.922852,4525.256348,4543.333496,4393.333496,4557.307617,4389.230957,4501.666504,4522.820313,4580.256348,4399.230957,4382.05127,4513.205078,4555.512695,4546.410156,4519.230957,4387.179688,4386.153809,4583.461426,4525.256348,4510.128418,4423.205078,4600,4397.05127,4572.05127,4514.871582,4408.205078,4530,4502.179688,2812,0,5,2304,57006,,,,0,4,4,4,4,4,4,4,4,4,4,4,4,4,4,4,4,4,4,4,4,4,4,4,4,4,4,4,4,4,4,4,4,100,,,,,,,,,,,,,,,,,,,,,,,,,,,,,,,,,,,,,,,,,,,,,,,,,,,,,,,,,,,,,,,,,,,,,,,,,,,,,,,,,,,,,,,,,,,,,,,,,,,,,,,,,,,,,,,,,,,,,,,,,,,,,,,,,,,,,,,,,,,,,,,,,,,,,,,,,,,,,,,,,,,,,,,,,,,,,,,,,,,,,,,,,,,,,,,,,,,,,,,,,,,,,,
1764669112.808363,54785,0,4393.205078,4400.897461,4496.794922,4534.487305,4413.461426,4528.205078,4545.256348,4393.974121,4558.717773,4376.025879,4502.820313,4522.05127,4583.846191,4400.256348,4387.307617,4516.153809,4557.94873,4549.358887,4521.922852,4388.717773,4391.538574,4581.666504,4527.307617,4511.794922,4424.487305,4600.512695,4397.436035,4571.666504,4514.871582,4410.384766,4527.436035,4507.692383,2907,0,5,2304,57006,,,,0,4,4,4,4,4,4,4,4,4,4,4,4,4,4,4,4,4,4,4,4,4,4,4,4,4,4,4,4,4,4,4,4,100,,,,,,,,,,,,,,,,,,,,,,,,,,,,,,,,,,,13696,0,0.643851,-0.321228,-0.299683,0.626465,1.005982,0.004883,0.026859,16.666666,37.333332,-25.333334,,,,,,,,,,,,,,,,,,,,,,,,,,,,,,,,,,,,,,,,,,,,,,,,,,,,,,,,,,,,,,,,,,,,,,,,,,,,,,,,,,,,,,,,,,,,,,,,,,,,,,,,,,,,,,,,,,,,,,,,,,,,,,,,,,,,,,,,,,,,,,,,,,,,,,,,,,,,,,,,
1764669112.812269,54786,0,4387.436035,4398.717773,4491.282227,4526.666504,4412.05127,4524.358887,4542.820313,4386.794922,4558.974121,4370.512695,4499.871582,4517.05127,4582.563965,4397.94873,4391.922852,4517.436035,4555.897461,4548.974121,4523.461426,4390.769043,4398.205078,4573.461426,4523.846191,4507.05127,4417.179688,4593.974121,4394.230957,4566.153809,4512.179688,4405.256348,4523.333496,4510.384766,2693,0,5,2560,57013,,,,0,4,4,4,4,4,4,4,4,4,4,4,4,4,4,4,4,4,4,4,4,4,4,4,4,4,4,4,4,4,4,4,4,100,,,,,,,,,,,,,,,,,,,,,,,,,,,,,,,,,,,,,,,,,,,,,,,,,,,,,,,,,,,,,,,,,,,,,,,,,,,,,,,,,,,,,,,,,,,,,,,,,,,,,,,,,,,,,,,,,,,,,,,,,,,,,,,,,,,,,,,,,,,,,,,,,,,,,,,,,,,,,,,,,,,,,,,,,,,,,,,,,,,,,,,,,,,,,,,,,,,,,,,,,,,,,,
1764669112.816175,54787,0,4380.769043,4393.461426,4483.846191,4517.307617,4409.743652,4516.153809,4538.205078,4377.05127,4559.102539,4372.692383,4496.153809,4511.025879,4577.692383,4392.179688,4391.282227,4515,4550.128418,4543.717773,4522.179688,4392.692383,4402.692383,4563.333496,4516.666504,4499.358887,4408.205078,4584.615234,4390.512695,4558.589844,4508.717773,4397.820313,4519.871582,4508.461426,2855,0,5,2560,57013,,,,0,4,4,4,4,4,4,4,4,4,4,4,4,4,4,4,4,4,4,4,4,4,4,4,4,4,4,4,4,4,4,4,4,100,,,,,,,,,,,,,,,,,,,,,,,,,,,,,,,,,,,,,,,,,,,,,,,,,,,,,,,,,,,,,,,,,,,,,,,,,,,,,,,,,,,,,,,,,,,,,,,,,,,,,,,,,,,,,,,,,,,,,,,,,,,,,,,,,,,,,,,,,,,,,,,,,,,,,,,,,,,,,,,,,,,,,,,,,,,,,,,,,,,,,,,,,,,,,,,,,,,,,,,,,,,,,,
1764669112.820081,54788,0,4378.333496,4390.384766,4481.794922,4514.871582,4407.94873,4510,4534.358887,4371.538574,4560.897461,4380.769043,4495.512695,4508.205078,4572.563965,4386.282227,4386.922852,4510.769043,4544.615234,4535.769043,4517.820313,4393.846191,4404.743652,4557.307617,4510.384766,4494.487305,4405,4578.846191,4390.641113,4554.230957,4506.922852,4396.153809,4522.307617,4505.128418,2758,0,5,2560,57021,,,,0,4,4,4,4,4,4,4,4,4,4,4,4,4,4,4,4,4,4,4,4,4,4,4,4,4,4,4,4,4,4,4,4,100,,,,,,,,,,,,,,,,,,,,,,,,,,,,,,,,,,,,,,,,,,,,,,,,,,,,,,,,,,,,,,,,,,,,,,,,,,,,,,,,,,,,,,,,,,,,,,,,,,,,,,,,,,,,,,,,,,,,,,,,,,,,,,,,,,,,,,,,,,,,,,,,,,,,,,,,,,,,,,,,,,,,,,,,,,,,,,,,,,,,,,,,,,,,,,,,,,,,,,,,,,,,,,
1764669112.823987,54789,0,4381.666504,4391.666504,4488.205078,4521.666504,4404.102539,4509.743652,4532.94873,4372.820313,4564.615234,4391.025879,4498.333496,4509.487305,4569.871582,4384.487305,4385,4509.102539,4542.179688,4529.615234,4511.410156,4392.820313,4404.230957,4558.589844,4508.205078,4494.358887,4408.333496,4579.615234,4394.871582,4555.256348,4507.94873,4404.102539,4532.692383,4503.846191,2834,0,5,2560,57021,,,,0,4,4,4,4,4,4,4,4,4,4,4,4,4,4,4,4,4,4,4,4,4,4,4,4,4,4,4,4,4,4,4,4,100,,,,,,,,,,,,,,,,,,,,,,,,,,,,,,,,,,,13697,0,0.643399,-0.321472,-0.2995,0.626892,0.996215,-0.00879,0.049322,15,37.833332,-25.833334,,,,,,,,,,,,,,,,,,,,,,,,,,,,,,,,,,,,,,,,,,,,,,,,,,,,,,,,,,,,,,,,,,,,,,,,,,,,,,,,,,,,,,,,,,,,,,,,,,,,,,,,,,,,,,,,,,,,,,,,,,,,,,,,,,,,,,,,,,,,,,,,,,,,,,,,,,,,,,,,
1764669112.827893,54790,0,4386.922852,4395,4496.538574,4531.025879,4395.384766,4513.333496,4532.563965,4377.436035,4568.205078,4399.102539,4501.153809,4511.666504,4569.487305,4387.820313,4390.256348,4513.205078,4542.436035,4529.102539,4506.153809,4387.563965,4400.769043,4565.128418,4509.743652,4496.282227,4411.153809,4583.974121,4399.487305,4559.230957,4510,4416.794922,4545.384766,4503.717773,2811,0,5,2561,57029,,,,0,4,4,4,4,4,4,4,4,4,4,4,4,4,4,4,4,4,4,4,4,4,4,4,4,4,4,4,4,4,4,4,4,100,,,,,,,,,,,,,,,,,,,,,,,,,,,,,,,,,,,,,,,,,,,,,,,,,,,,,,,,,,,,,,,,,,,,,,,,,,,,,,,,,,,,,,,,,,,,,,,,,,,,,,,,,,,,,,,,,,,,,,,,,,,,,,,,,,,,,,,,,,,,,,,,,,,,,,,,,,,,,,,,,,,,,,,,,,,,,,,,,,,,,,,,,,,,,,,,,,,,,,,,,,,,,,
1764669112.831799,54791,0,4388.333496,4395.256348,4496.410156,4532.307617,4383.333496,4515.641113,4530.641113,4379.743652,4569.102539,4402.179688,4500.384766,4510.897461,4569.230957,4393.461426,4401.025879,4522.436035,4543.205078,4535.256348,4505.769043,4379.743652,4393.717773,4571.282227,4511.666504,4496.794922,4406.025879,4586.410156,4399.743652,4560.769043,4510.897461,4425.384766,4549.871582,4500.256348,3002,0,5,2561,57029,,,,0,4,4,4,4,4,4,4,4,4,4,4,4,4,4,4,4,4,4,4,4,4,4,4,4,4,4,4,4,4,4,4,4,100,,,,,,,,,,,,,,,,,,,,,,,,,,,,,,,,,,,,,,,,,,,,,,,,,,,,,,,,,,,,,,,,,,,,,,,,,,,,,,,,,,,,,,,,,,,,,,,,,,,,,,,,,,,,,,,,,,,,,,,,,,,,,,,,,,,,,,,,,,,,,,,,,,,,,,,,,,,,,,,,,,,,,,,,,,,,,,,,,,,,,,,,,,,,,,,,,,,,,,,,,,,,,,
1764669112.835705,54792,0,4383.589844,4390.512695,4483.846191,4520.897461,4373.589844,4512.820313,4526.666504,4377.307617,4565.897461,4399.615234,4495.128418,4505.897461,4567.436035,4396.794922,4409.871582,4531.922852,4542.436035,4544.871582,4511.922852,4373.846191,4385.384766,4572.94873,4511.794922,4495.641113,4392.436035,4583.846191,4394.615234,4557.692383,4509.230957,4423.974121,4540.384766,4491.025879,2899,0,5,2562,57037,,,,0,4,4,4,4,4,4,4,4,4,4,4,4,4,4,4,4,4,4,4,4,4,4,4,4,4,4,4,4,4,4,4,4,100,,,,,,,,,,,,,,,,,,,,,,,,,,,,,,,,,,,,,,,,,,,,,,,,,,,,,,,,,,,,,,,,,,,,,,,,,,,,,,,,,,,,,,,,,,,,,,,,,,,,,,,,,,,,,,,,,,,,,,,,,,,,,,,,,,,,,,,,,,,,,,,,,,,,,,,,,,,,,,,,,,,,,,,,,,,,,,,,,,,,,,,,,,,,,,,,,,,,,,,,,,,,,,
1764669112.839611,54793,0,4375.897461,4382.94873,4466.282227,4502.436035,4371.538574,4506.153809,4522.307617,4372.179688,4559.743652,4392.307617,4488.077148,4499.230957,4564.102539,4394.743652,4409.743652,4535.128418,4539.358887,4551.282227,4520.897461,4373.974121,4379.743652,4569.615234,4509.743652,4494.358887,4378.205078,4578.077148,4387.307617,4552.307617,4505.641113,4413.846191,4521.410156,4480.769043,2773,0,5,2562,57037,,,,0,4,4,4,4,4,4,4,4,4,4,4,4,4,4,4,4,4,4,4,4,4,4,4,4,4,4,4,4,4,4,4,4,100,,,,,,,,,,,,,,,,,,,,,,,,,,,,,,,,,,,13698,0,0.643062,-0.321777,-0.299255,0.627197,1.006471,-0.013674,0.065926,15.833333,37.333332,-24.5,,,,,,,,,,,,,,,,,,,,,,,,,,,,,,,,,,,,,,,,,,,,,,,,,,,,,,,,,,,,,,,,,,,,,,,,,,,,,,,,,,,,,,,,,,,,,,,,,,,,,,,,,,,,,,,,,,,,,,,,,,,,,,,,,,,,,,,,,,,,,,,,,,,,,,,,,,,,,,,,
1764669112.843517,54794,0,4370.769043,4377.436035,4457.307617,4489.871582,4377.436035,4500.128418,4520,4368.333496,4553.205078,4383.717773,4482.436035,4494.615234,4560,4387.436035,4399.871582,4528.333496,4535.256348,4548.717773,4526.153809,4379.743652,4380.384766,4564.102539,4507.563965,4494.871582,4374.102539,4573.717773,4382.692383,4549.358887,4502.307617,4402.179688,4505.769043,4477.820313,2437,0,5,1792,57045,,,,0,4,4,4,4,4,4,4,4,4,4,4,4,4,4,4,4,4,4,4,4,4,4,4,4,4,4,4,4,4,4,4,4,100,,,,,,,,,,,,,,,,,,,,,,,,,,,,,,,,,,,,,,,,,,,,,,,,,,,,,,,,,,,,,,,,,,,,,,,,,,,,,,,,,,,,,,,,,,,,,,,,,,,,,,,,,,,,,,,,,,,,,,,,,,,,,,,,,,,,,,,,,,,,,,,,,,,,,,,,,,,,,,,,,,,,,,,,,,,,,,,,,,,,,,,,,,,,,,,,,,,,,,,,,,,,,,
1764669112.847423,54795,0,4372.179688,4378.589844,4465.769043,4492.563965,4387.436035,4499.230957,4521.153809,4368.205078,4550.256348,4379.102539,4480.769043,4493.846191,4556.410156,4379.358887,4385.769043,4513.589844,4532.820313,4536.282227,4522.820313,4387.05127,4386.794922,4560.384766,4507.94873,4497.307617,4385.128418,4575.512695,4384.102539,4551.922852,4502.05127,4396.794922,4505.256348,4487.307617,2717,0,5,1792,57045,,,,0,4,4,4,4,4,4,4,4,4,4,4,4,4,4,4,4,4,4,4,4,4,4,4,4,4,4,4,4,4,4,4,4,100,,,,,,,,,,,,,,,,,,,,,,,,,,,,,,,,,,,,,,,,,,,,,,,,,,,,,,,,,,,,,,,,,,,,,,,,,,,,,,,,,,,,,,,,,,,,,,,,,,,,,,,,,,,,,,,,,,,,,,,,,,,,,,,,,,,,,,,,,,,,,,,,,,,,,,,,,,,,,,,,,,,,,,,,,,,,,,,,,,,,,,,,,,,,,,,,,,,,,,,,,,,,,,
1764669112.851329,54796,0,4379.871582,4386.922852,4488.205078,4509.743652,4396.922852,4504.358887,4525.384766,4371.538574,4553.077148,4382.820313,4483.077148,4496.538574,4555.128418,4376.025879,4376.025879,4497.05127,4533.974121,4519.615234,4512.179688,4391.538574,4395.641113,4560.641113,4511.666504,4500.641113,4405,4584.358887,4391.666504,4559.615234,4505.641113,4400.897461,4521.794922,4505.897461,2479,0,5,2048,57052,,,,0,4,4,4,4,4,4,4,4,4,4,4,4,4,4,4,4,4,4,4,4,4,4,4,4,4,4,4,4,4,4,4,4,100,,,,,,,,,,,,,,,,,,,,,,,,,,,,,,,,,,,,,,,,,,,,,,,,,,,,,,,,,,,,,,,,,,,,,,,,,,,,,,,,,,,,,,,,,,,,,,,,,,,,,,,,,,,,,,,,,,,,,,,,,,,,,,,,,,,,,,,,,,,,,,,,,,,,,,,,,,,,,,,,,,,,,,,,,,,,,,,,,,,,,,,,,,,,,,,,,,,,,,,,,,,,,,
1764669112.855235,54797,0,4389.487305,4398.461426,4511.538574,4530.641113,4403.589844,4512.94873,4531.025879,4376.282227,4560.256348,4393.333496,4487.179688,4500.512695,4557.307617,4379.487305,4375.256348,4485.128418,4538.461426,4506.922852,4500.769043,4392.307617,4401.538574,4564.102539,4517.05127,4503.717773,4419.743652,4596.153809,4402.692383,4568.717773,4511.410156,4410.512695,4545.897461,4523.589844,2253,0,5,2048,57052,,,,0,4,4,4,4,4,4,4,4,4,4,4,4,4,4,4,4,4,4,4,4,4,4,4,4,4,4,4,4,4,4,4,4,100,,,,,,,,,,,,,,,,,,,,,,,,,,,,,,,,,,,13699,0,0.64264,-0.322327,-0.299316,0.627319,1.006471,-0.013674,0.065926,14.5,38.833332,-23.5,,,,,,,,,,,,,,,,,,,,,,,,,,,,,,,,,,,,,,,,,,,,,,,,,,,,,,,,,,,,,,,,,,,,,,,,,,,,,,,,,,,,,,,,,,,,,,,,,,,,,,,,,,,,,,,,,,,,,,,,,,,,,,,,,,,,,,,,,,,,,,,,,,,,,,,,,,,,,,,,
1764669112.859141,54798,0,4395.641113,4405.897461,4521.794922,4542.692383,4407.179688,4519.871582,4535.769043,4380.256348,4567.436035,4403.077148,4490.384766,4504.102539,4562.307617,4386.410156,4381.025879,4480.256348,4543.717773,4504.358887,4495.256348,4390.512695,4401.025879,4567.692383,4521.025879,4506.025879,4417.307617,4605,4412.820313,4574.871582,4516.025879,4418.333496,4564.230957,4531.025879,2738,0,5,1536,57060,,,,0,4,4,4,4,4,4,4,4,4,4,4,4,4,4,4,4,4,4,4,4,4,4,4,4,4,4,4,4,4,4,4,4,100,,,,,,,,,,,,,,,,,,,,,,,,,,,,,,,,,,,,,,,,,,,,,,,,,,,,,,,,,,,,,,,,,,,,,,,,,,,,,,,,,,,,,,,,,,,,,,,,,,,,,,,,,,,,,,,,,,,,,,,,,,,,,,,,,,,,,,,,,,,,,,,,,,,,,,,,,,,,,,,,,,,,,,,,,,,,,,,,,,,,,,,,,,,,,,,,,,,,,,,,,,,,,,
1764669112.863047,54799,0,4395.256348,4404.871582,4513.846191,4540.641113,4408.205078,4521.666504,4537.820313,4381.922852,4570.897461,4404.871582,4491.410156,4506.153809,4567.820313,4391.153809,4386.538574,4481.666504,4546.794922,4511.025879,4497.820313,4388.846191,4394.615234,4568.717773,4521.282227,4507.05127,4398.589844,4607.179688,4418.205078,4575.897461,4516.922852,4419.871582,4569.102539,4526.794922,2455,0,5,1536,57060,,,,0,4,4,4,4,4,4,4,4,4,4,4,4,4,4,4,4,4,4,4,4,4,4,4,4,4,4,4,4,4,4,4,4,100,,,,,,,,,,,,,,,,,,,,,,,,,,,,,,,,,,,,,,,,,,,,,,,,,,,,,,,,,,,,,,,,,,,,,,,,,,,,,,,,,,,,,,,,,,,,,,,,,,,,,,,,,,,,,,,,,,,,,,,,,,,,,,,,,,,,,,,,,,,,,,,,,,,,,,,,,,,,,,,,,,,,,,,,,,,,,,,,,,,,,,,,,,,,,,,,,,,,,,,,,,,,,,
1764669112.866953,54800,0,4390,4397.179688,4495.512695,4529.743652,4406.922852,4519.102539,4537.05127,4382.05127,4571.410156,4398.205078,4490.769043,4506.922852,4571.282227,4390.512695,4387.307617,4487.179688,4547.05127,4521.538574,4505.384766,4389.358887,4386.666504,4566.538574,4518.589844,4507.307617,4378.461426,4604.230957,4418.205078,4572.94873,4514.487305,4416.666504,4562.436035,4517.692383,2893,0,5,768,57068,,,,0,4,4,4,4,4,4,4,4,4,4,4,4,4,4,4,4,4,4,4,4,4,4,4,4,4,4,4,4,4,4,4,4,100,,,,,,,,,,,,,,,,,,,,,,,,,,,,,,,,,,,,,,,,,,,,,,,,,,,,,,,,,,,,,,,,,,,,,,,,,,,,,,,,,,,,,,,,,,,,,,,,,,,,,,,,,,,,,,,,,,,,,,,,,,,,,,,,,,,,,,,,,,,,,,,,,,,,,,,,,,,,,,,,,,,,,,,,,,,,,,,,,,,,,,,,,,,,,,,,,,,,,,,,,,,,,,
1764669112.870859,54801,0,4384.871582,4390.128418,4481.282227,4521.025879,4404.743652,4515.769043,4536.025879,4382.94873,4572.307617,4389.487305,4490.384766,4507.563965,4572.05127,4386.666504,4385.512695,4495.641113,4546.153809,4530.384766,4513.077148,4392.307617,4382.179688,4563.205078,4516.282227,4507.436035,4374.871582,4601.410156,4414.487305,4569.743652,4511.410156,4413.974121,4553.461426,4512.179688,2962,0,5,768,57068,,,,0,4,4,4,4,4,4,4,4,4,4,4,4,4,4,4,4,4,4,4,4,4,4,4,4,4,4,4,4,4,4,4,4,100,,,,,,,,,,,,,,,,,,,,,,,,,,,,,,,,,,,13700,0,0.641497,-0.323608,-0.299744,0.627625,0.975217,-0.007325,0.02051,15.666667,38,-23.833334,,,,,,,,,,,,,,,,,,,,,,,,,,,,,,,,,,,,,,,,,,,,,,,,,,,,,,,,,,,,,,,,,,,,,,,,,,,,,,,,,,,,,,,,,,,,,,,,,,,,,,,,,,,,,,,,,,,,,,,,,,,,,,,,,,,,,,,,,,,,,,,,,,,,,,,,,,,,,,,,
1764669112.874765,54802,0,4384.230957,4390.641113,4482.436035,4522.436035,4404.102539,4515.769043,4537.307617,4387.05127,4576.282227,4385.512695,4491.666504,4509.358887,4571.282227,4385,4386.666504,4505.897461,4546.153809,4536.666504,4517.563965,4396.282227,4384.615234,4561.538574,4517.436035,4508.461426,4395,4603.077148,4411.025879,4568.717773,4510.384766,4416.153809,4551.410156,4514.743652,1790,0,5,1024,57076,,,,0,4,4,4,4,4,4,4,4,4,4,4,4,4,4,4,4,4,4,4,4,4,4,4,4,4,4,4,4,4,4,4,4,100,,,,,,,,,,,,,,,,,,,,,,,,,,,,,,,,,,,,,,,,,,,,,,,,,,,,,,,,,,,,,,,,,,,,,,,,,,,,,,,,,,,,,,,,,,,,,,,,,,,,,,,,,,,,,,,,,,,,,,,,,,,,,,,,,,,,,,,,,,,,,,,,,,,,,,,,,,,,,,,,,,,,,,,,,,,,,,,,,,,,,,,,,,,,,,,,,,,,,,,,,,,,,,
1764669112.878671,54803,0,4388.974121,4399.487305,4499.615234,4534.230957,4406.538574,4520.384766,4542.307617,4394.358887,4582.307617,4387.820313,4494.871582,4512.820313,4571.666504,4389.615234,4393.717773,4515.769043,4548.077148,4542.307617,4519.743652,4399.358887,4392.94873,4563.333496,4522.692383,4511.153809,4429.487305,4609.871582,4411.153809,4571.025879,4512.563965,4423.461426,4558.589844,4522.692383,2752,0,5,1024,57076,,,,0,4,4,4,4,4,4,4,4,4,4,4,4,4,4,4,4,4,4,4,4,4,4,4,4,4,4,4,4,4,4,4,4,100,,,,,,,,,,,,,,,,,,,,,,,,,,,,,,,,,,,,,,,,,,,,,,,,,,,,,,,,,,,,,,,,,,,,,,,,,,,,,,,,,,,,,,,,,,,,,,,,,,,,,,,,,,,,,,,,,,,,,,,,,,,,,,,,,,,,,,,,,,,,,,,,,,,,,,,,,,,,,,,,,,,,,,,,,,,,,,,,,,,,,,,,,,,,,,,,,,,,,,,,,,,,,,
1764669112.882577,54804,0,4395.641113,4411.153809,4522.820313,4549.743652,4411.282227,4527.692383,4549.102539,4401.922852,4588.205078,4393.974121,4499.102539,4517.179688,4574.615234,4399.615234,4404.102539,4521.922852,4551.666504,4548.205078,4521.410156,4400.384766,4403.589844,4568.717773,4529.615234,4515.769043,4460.256348,4617.820313,4415.512695,4575.128418,4516.794922,4431.794922,4569.743652,4530.897461,2604,0,5,1280,57084,,,,0,4,4,4,4,4,4,4,4,4,4,4,4,4,4,4,4,4,4,4,4,4,4,4,4,4,4,4,4,4,4,4,4,100,,,,,,,,,,,,,,,,,,,,,,,,,,,,,,,,,,,,,,,,,,,,,,,,,,,,,,,,,,,,,,,,,,,,,,,,,,,,,,,,,,,,,,,,,,,,,,,,,,,,,,,,,,,,,,,,,,,,,,,,,,,,,,,,,,,,,,,,,,,,,,,,,,,,,,,,,,,,,,,,,,,,,,,,,,,,,,,,,,,,,,,,,,,,,,,,,,,,,,,,,,,,,,
1764669112.886483,54805,0,4398.974121,4417.307617,4538.717773,4560.384766,4415.256348,4532.94873,4553.717773,4405.641113,4591.153809,4400.897461,4502.820313,4520.769043,4578.717773,4408.717773,4411.282227,4521.794922,4555.256348,4551.794922,4523.333496,4399.871582,4412.179688,4575.641113,4533.717773,4520.769043,4473.077148,4622.05127,4420.897461,4578.077148,4520.384766,4435.769043,4576.153809,4535.641113,2822,0,5,1280,57084,,,,0,4,4,4,4,4,4,4,4,4,4,4,4,4,4,4,4,4,4,4,4,4,4,4,4,4,4,4,4,4,4,4,4,100,,,,,,,,,,,,,,,,,,,,,,,,,,,,,,,,,,,13701,0,0.641201,-0.323914,-0.300049,0.627625,0.975217,-0.007325,0.02051,16.5,38,-23.5,,,,,,,,,,,,,,,,,,,,,,,,,,,,,,,,,,,,,,,,,,,,,,,,,,,,,,,,,,,,,,,,,,,,,,,,,,,,,,,,,,,,,,,,,,,,,,,,,,,,,,,,,,,,,,,,,,,,,,,,,,,,,,,,,,,,,,,,,,,,,,,,,,,,,,,,,,,,,,,,
1764669112.890390,54806,0,4395,4412.692383,4538.846191,4560,4414.358887,4531.794922,4552.05127,4402.179688,4589.743652,4405.641113,4503.717773,4520,4579.871582,4409.615234,4408.974121,4515.256348,4555.512695,4550,4523.974121,4397.692383,4414.871582,4579.871582,4531.025879,4522.94873,4465.128418,4618.974121,4421.538574,4575.769043,4520.256348,4431.025879,4571.666504,4535.512695,2939,0,5,1536,57092,,,,0,4,4,4,4,4,4,4,4,4,4,4,4,4,4,4,4,4,4,4,4,4,4,4,4,4,4,4,4,4,4,4,4,100,,,,,,,,,,,,,,,,,,,,,,,,,,,,,,,,,,,,,,,,,,,,,,,,,,,,,,,,,,,,,,,,,,,,,,,,,,,,,,,,,,,,,,,,,,,,,,,,,,,,,,,,,,,,,,,,,,,,,,,,,,,,,,,,,,,,,,,,,,,,,,,,,,,,,,,,,,,,,,,,,,,,,,,,,,,,,,,,,,,,,,,,,,,,,,,,,,,,,,,,,,,,,,
1764669112.894296,54807,0,4383.589844,4398.333496,4524.102539,4548.461426,4406.153809,4522.563965,4542.436035,4391.153809,4583.461426,4405.641113,4499.871582,4512.820313,4573.846191,4399.230957,4396.922852,4505.769043,4549.230957,4542.563965,4521.538574,4392.94873,4409.743652,4577.692383,4521.153809,4518.717773,4443.974121,4608.333496,4412.94873,4566.153809,4514.615234,4417.307617,4557.05127,4529.743652,2872,0,5,1536,57092,,,,0,4,4,4,4,4,4,4,4,4,4,4,4,4,4,4,4,4,4,4,4,4,4,4,4,4,4,4,4,4,4,4,4,100,,,,,,,,,,,,,,,,,,,,,,,,,,,,,,,,,,,,,,,,,,,,,,,,,,,,,,,,,,,,,,,,,,,,,,,,,,,,,,,,,,,,,,,,,,,,,,,,,,,,,,,,,,,,,,,,,,,,,,,,,,,,,,,,,,,,,,,,,,,,,,,,,,,,,,,,,,,,,,,,,,,,,,,,,,,,,,,,,,,,,,,,,,,,,,,,,,,,,,,,,,,,,,
1764669112.898202,54808,0,4368.589844,4380.384766,4502.436035,4531.153809,4393.333496,4508.974121,4527.94873,4376.538574,4573.461426,4398.846191,4491.410156,4500.769043,4561.153809,4382.563965,4381.538574,4498.333496,4537.307617,4533.461426,4516.153809,4385.384766,4397.820313,4569.230957,4507.692383,4507.307617,4419.487305,4592.820313,4396.666504,4551.282227,4505.128418,4399.102539,4537.94873,4516.922852,2727,0,5,1792,57099,,,,0,4,4,4,4,4,4,4,4,4,4,4,4,4,4,4,4,4,4,4,4,4,4,4,4,4,4,4,4,4,4,4,4,100,,,,,,,,,,,,,,,,,,,,,,,,,,,,,,,,,,,,,,,,,,,,,,,1.640741,2.22091,4.774112,0.899525,1.055377,9.203475,2.732363,4.574426,0.859393,1.452741,53.804771,4.039562,4.548663,4.361353,2.778654,10.406216,2.851022,5.032735,1.325245,1.543863,8.581684,2.076308,4.49652,1.266641,1.963952,3.258698,2.00314,4.260208,0.815576,1.122566,2.195128,2.679739,5.148837,0.805181,1.213535,4.39029,2.142365,4.827622,0.834201,1.541142,2.091206,1.781191,4.456651,1.140422,1.107961,0.814911,3.083199,7.184101,2.987347,3.359113,0.964185,1.629673,2.641422,1.088896,1.040186,2.120051,1.830967,4.323184,0.927218,1.029513,0.612564,1.246589,3.426152,0.957042,1.074169,0.659764,0.58722,1.408966,0.578408,0.72354,0.994144,1.666745,2.472681,1.284486,1.122898,0.87259,1.336858,4.003008,1.950669,1.528357,1.62813,2.56512,5.25774,1.22867,1.343085,1.587077,2.104318,5.284559,2.204002,2.052829,1.081972,1.328784,3.64289,1.372115,1.363731,0.612351,2.481656,3.99384,1.032092,1.23155,1.136913,2.264927,3.037475,1.348992,1.388296,1.326846,2.756788,4.759035,1.019679,1.542129,1.234887,2.623945,3.653328,0.885258,1.083793,0.871581,2.551009,4.206273,1.041108,1.405552,2.919404,2.98862,13.06856,5.672079,8.059722,0.836543,1.763367,3.442354,0.914498,1.308759,1.885877,2.493517,4.3155,1.129129,1.684437,1.124576,2.830405,5.294658,1.025566,1.297458,1.161818,0.976573,2.222911,0.546232,0.580087,8.575712,2.048272,3.97875,1.587061,2.008823,4.601925,3.287739,5.396963,1.561831,2.436682,67.005363,8.128867,6.074094,5.566189,3.775736
1764669112.902108,54809,0,4356.538574,4367.05127,4483.974121,4515.897461,4382.563965,4497.307617,4515.512695,4363.974121,4563.589844,4386.794922,4481.922852,4488.974121,4547.94873,4369.743652,4371.922852,4496.666504,4524.615234,4527.94873,4510.384766,4377.179688,4383.589844,4558.974121,4496.410156,4492.692383,4399.102539,4577.05127,4379.230957,4537.179688,4496.282227,4384.358887,4521.410156,4498.333496,2891,0,5,1792,57099,,,,0,4,4,4,4,4,4,4,4,4,4,4,4,4,4,4,4,4,4,4,4,4,4,4,4,4,4,4,4,4,4,4,4,100,,,,,,,,,,,,,,,,,,,,,,,,,,,,,,,,,,,13702,0,0.641172,-0.323975,-0.300171,0.627563,0.992797,-0.006837,0.028324,14.166667,39,-25,,,,,,,,,,,,,,,,,,,,,,,,,,,,,,,,,,,,,,,,,,,,,,,,,,,,,,,,,,,,,,,,,,,,,,,,,,,,,,,,,,,,,,,,,,,,,,,,,,,,,,,,,,,,,,,,,,,,,,,,,,,,,,,,,,,,,,,,,,,,,,,,,,,,,,,,,,,,,,,,
1764669112.906014,54810,0,4353.461426,4364.487305,4476.025879,4508.717773,4379.871582,4493.205078,4511.410156,4358.846191,4558.333496,4376.153809,4477.05127,4483.717773,4542.05127,4368.974121,4373.077148,4500.897461,4517.436035,4528.717773,4507.94873,4372.692383,4373.974121,4552.820313,4492.436035,4481.282227,4387.820313,4566.794922,4369.358887,4530.384766,4492.563965,4379.871582,4512.692383,4479.743652,1821,0,5,2048,57107,,,,0,4,4,4,4,4,4,4,4,4,4,4,4,4,4,4,4,4,4,4,4,4,4,4,4,4,4,4,4,4,4,4,4,100,,,,,,,,,,,,,,,,,,,,,,,,,,,,,,,,,,,,,,,,,,,,,,,,,,,,,,,,,,,,,,,,,,,,,,,,,,,,,,,,,,,,,,,,,,,,,,,,,,,,,,,,,,,,,,,,,,,,,,,,,,,,,,,,,,,,,,,,,,,,,,,,,,,,,,,,,,,,,,,,,,,,,,,,,,,,,,,,,,,,,,,,,,,,,,,,,,,,,,,,,,,,,,
1764669112.909920,54811,0,4360.512695,4372.820313,4479.615234,4510.897461,4386.282227,4498.461426,4517.307617,4362.692383,4560.384766,4375.256348,4479.871582,4487.820313,4547.436035,4380.769043,4383.589844,4508.077148,4519.743652,4534.102539,4510.256348,4375.128418,4374.230957,4553.717773,4496.922852,4477.692383,4388.077148,4565.256348,4371.153809,4533.461426,4495.128418,4387.436035,4513.717773,4470.384766,2449,0,5,2048,57107,,,,0,4,4,4,4,4,4,4,4,4,4,4,4,4,4,4,4,4,4,4,4,4,4,4,4,4,4,4,4,4,4,4,4,100,,,,,,,,,,,,,,,,,,,,,,,,,,,,,,,,,,,,,,,,,,,,,,,,,,,,,,,,,,,,,,,,,,,,,,,,,,,,,,,,,,,,,,,,,,,,,,,,,,,,,,,,,,,,,,,,,,,,,,,,,,,,,,,,,,,,,,,,,,,,,,,,,,,,,,,,,,,,,,,,,,,,,,,,,,,,,,,,,,,,,,,,,,,,,,,,,,,,,,,,,,,,,,
1764669112.913826,54812,0,4373.974121,4386.538574,4489.102539,4518.717773,4396.666504,4509.230957,4528.974121,4372.307617,4567.692383,4387.307617,4488.205078,4498.589844,4560.384766,4397.436035,4396.410156,4513.589844,4529.871582,4540.769043,4517.05127,4383.974121,4384.102539,4560.384766,4506.666504,4481.922852,4398.461426,4571.666504,4381.794922,4543.717773,4501.538574,4401.794922,4521.794922,4475.897461,2644,0,5,2304,57115,,,,0,4,4,4,4,4,4,4,4,4,4,4,4,4,4,4,4,4,4,4,4,4,4,4,4,4,4,4,4,4,4,4,4,100,,,,,,,,,,,,,,,,,,,,,,,,,,,,,,,,,,,,,,,,,,,,,,,,,,,,,,,,,,,,,,,,,,,,,,,,,,,,,,,,,,,,,,,,,,,,,,,,,,,,,,,,,,,,,,,,,,,,,,,,,,,,,,,,,,,,,,,,,,,,,,,,,,,,,,,,,,,,,,,,,,,,,,,,,,,,,,,,,,,,,,,,,,,,,,,,,,,,,,,,,,,,,,
1764669112.917732,54813,0,4386.025879,4397.05127,4495.128418,4526.794922,4404.102539,4518.846191,4539.102539,4381.410156,4574.358887,4406.153809,4496.282227,4509.487305,4572.692383,4408.589844,4404.487305,4514.743652,4541.794922,4546.153809,4526.410156,4394.615234,4397.692383,4568.461426,4515.897461,4489.230957,4411.282227,4580.897461,4393.077148,4553.974121,4506.922852,4412.820313,4530.256348,4492.94873,2484,0,5,2304,57115,,,,0,4,4,4,4,4,4,4,4,4,4,4,4,4,4,4,4,4,4,4,4,4,4,4,4,4,4,4,4,4,4,4,4,100,,,,,,,,,,,,,,,,,,,,,,,,,,,,,,,,,,,13703,0,0.641144,-0.324036,-0.300293,0.627502,0.994262,-0.009278,0.028812,16.5,38,-24.666666,,,,,,,,,,,,,,,,,,,,,,,,,,,,,,,,,,,,,,,,,,,,,,,,,,,,,,,,,,,,,,,,,,,,,,,,,,,,,,,,,,,,,,,,,,,,,,,,,,,,,,,,,,,,,,,,,,,,,,,,,,,,,,,,,,,,,,,,,,,,,,,,,,,,,,,,,,,,,,,,
1764669112.921638,54814,0,4389.615234,4398.205078,4491.794922,4530.384766,4404.487305,4520.641113,4541.410156,4383.717773,4574.230957,4418.717773,4499.230957,4513.974121,4576.410156,4408.589844,4404.358887,4512.820313,4548.333496,4550.128418,4535.256348,4401.538574,4406.922852,4573.461426,4519.102539,4494.358887,4415.384766,4585.641113,4396.282227,4556.922852,4507.692383,4412.05127,4531.922852,4509.615234,2751,0,5,2560,57123,,,,0,4,4,4,4,4,4,4,4,4,4,4,4,4,4,4,4,4,4,4,4,4,4,4,4,4,4,4,4,4,4,4,4,100,,,,,,,,,,,,,,,,,,,,,,,,,,,,,,,,,,,,,,,,,,,,,,,,,,,,,,,,,,,,,,,,,,,,,,,,,,,,,,,,,,,,,,,,,,,,,,,,,,,,,,,,,,,,,,,,,,,,,,,,,,,,,,,,,,,,,,,,,,,,,,,,,,,,,,,,,,,,,,,,,,,,,,,,,,,,,,,,,,,,,,,,,,,,,,,,,,,,,,,,,,,,,,
1764669112.925544,54815,0,4382.692383,4389.358887,4481.025879,4527.307617,4398.717773,4512.436035,4534.871582,4377.179688,4565,4414.615234,4495.641113,4510.128418,4570,4400.384766,4398.205078,4511.025879,4546.025879,4552.820313,4539.743652,4400.512695,4405.384766,4572.179688,4514.230957,4493.846191,4403.589844,4581.282227,4388.717773,4550.128418,4502.94873,4398.589844,4524.487305,4513.461426,2759,0,5,2560,57123,,,,0,4,4,4,4,4,4,4,4,4,4,4,4,4,4,4,4,4,4,4,4,4,4,4,4,4,4,4,4,4,4,4,4,100,,,,,,,,,,,,,,,,,,,,,,,,,,,,,,,,,,,,,,,,,,,,,,,,,,,,,,,,,,,,,,,,,,,,,,,,,,,,,,,,,,,,,,,,,,,,,,,,,,,,,,,,,,,,,,,,,,,,,,,,,,,,,,,,,,,,,,,,,,,,,,,,,,,,,,,,,,,,,,,,,,,,,,,,,,,,,,,,,,,,,,,,,,,,,,,,,,,,,,,,,,,,,,
1764669112.929450,54816,0,4369.358887,4376.025879,4471.025879,4519.358887,4390.384766,4498.205078,4523.846191,4365.769043,4550.384766,4394.743652,4489.230957,4500.897461,4558.589844,4392.307617,4392.05127,4511.153809,4536.410156,4553.077148,4536.025879,4391.282227,4392.820313,4564.743652,4503.974121,4487.692383,4378.077148,4569.358887,4374.615234,4537.436035,4494.743652,4380.512695,4512.179688,4501.538574,2815,0,5,2560,57131,,,,0,4,4,4,4,4,4,4,4,4,4,4,4,4,4,4,4,4,4,4,4,4,4,4,4,4,4,4,4,4,4,4,4,100,,,,,,,,,,,,,,,,,,,,,,,,,,,,,,,,,,,,,,,,,,,,,,,,,,,,,,,,,,,,,,,,,,,,,,,,,,,,,,,,,,,,,,,,,,,,,,,,,,,,,,,,,,,,,,,,,,,,,,,,,,,,,,,,,,,,,,,,,,,,,,,,,,,,,,,,,,,,,,,,,,,,,,,,,,,,,,,,,,,,,,,,,,,,,,,,,,,,,,,,,,,,,,
1764669112.933356,54817,0,4358.717773,4366.922852,4470.256348,4513.077148,4383.846191,4486.666504,4516.025879,4357.820313,4539.487305,4371.794922,4485.769043,4493.717773,4551.153809,4391.666504,4391.153809,4512.820313,4525.897461,4549.358887,4523.589844,4378.077148,4375.897461,4554.743652,4495.512695,4479.743652,4351.794922,4557.563965,4363.846191,4527.820313,4488.589844,4370.128418,4503.974121,4484.487305,2919,0,5,2560,57131,,,,0,4,4,4,4,4,4,4,4,4,4,4,4,4,4,4,4,4,4,4,4,4,4,4,4,4,4,4,4,4,4,4,4,100,,,,,,,,,,,,,,,,,,,,,,,,,,,,,,,,,,,13704,0,0.641204,-0.324158,-0.300415,0.627319,0.976193,-0.011232,0.043951,16.5,38,-24.666666,,,,,,,,,,,,,,,,,,,,,,,,,,,,,,,,,,,,,,,,,,,,,,,,,,,,,,,,,,,,,,,,,,,,,,,,,,,,,,,,,,,,,,,,,,,,,,,,,,,,,,,,,,,,,,,,,,,,,,,,,,,,,,,,,,,,,,,,,,,,,,,,,,,,,,,,,,,,,,,,
1764669112.937262,54818,0,4359.102539,4368.846191,4481.922852,4515.897461,4383.589844,4486.794922,4517.820313,4360.769043,4541.025879,4362.307617,4490.128418,4495.128418,4553.974121,4399.230957,4397.436035,4514.871582,4522.94873,4542.179688,4507.563965,4368.589844,4365,4548.717773,4496.410156,4476.153809,4341.666504,4555.128418,4364.743652,4529.871582,4489.871582,4376.410156,4507.94873,4477.692383,2697,0,5,2561,57138,,,,0,4,4,4,4,4,4,4,4,4,4,4,4,4,4,4,4,4,4,4,4,4,4,4,4,4,4,4,4,4,4,4,4,100,,,,,,,,,,,,,,,,,,,,,,,,,,,,,,,,,,,,,,,,,,,,,,,,,,,,,,,,,,,,,,,,,,,,,,,,,,,,,,,,,,,,,,,,,,,,,,,,,,,,,,,,,,,,,,,,,,,,,,,,,,,,,,,,,,,,,,,,,,,,,,,,,,,,,,,,,,,,,,,,,,,,,,,,,,,,,,,,,,,,,,,,,,,,,,,,,,,,,,,,,,,,,,
1764669112.941168,54819,0,4372.436035,4383.077148,4500.512695,4530.512695,4392.307617,4500.769043,4530.256348,4376.025879,4557.94873,4373.717773,4502.436035,4506.666504,4566.666504,4410.256348,4406.922852,4516.666504,4531.153809,4534.615234,4495.769043,4369.102539,4367.307617,4551.410156,4508.974121,4481.410156,4357.692383,4566.282227,4378.589844,4545.128418,4500.256348,4398.205078,4524.743652,4488.205078,2855,0,5,2561,57138,,,,0,4,4,4,4,4,4,4,4,4,4,4,4,4,4,4,4,4,4,4,4,4,4,4,4,4,4,4,4,4,4,4,4,100,,,,,,,,,,,,,,,,,,,,,,,,,,,,,,,,,,,,,,,,,,,,,,,,,,,,,,,,,,,,,,,,,,,,,,,,,,,,,,,,,,,,,,,,,,,,,,,,,,,,,,,,,,,,,,,,,,,,,,,,,,,,,,,,,,,,,,,,,,,,,,,,,,,,,,,,,,,,,,,,,,,,,,,,,,,,,,,,,,,,,,,,,,,,,,,,,,,,,,,,,,,,,,
1764669112.945074,54820,0,4392.05127,4403.333496,4516.025879,4551.025879,4408.333496,4522.05127,4547.563965,4396.666504,4583.461426,4398.717773,4516.794922,4523.589844,4581.666504,4417.307617,4413.461426,4517.692383,4546.410156,4529.615234,4493.846191,4379.615234,4381.282227,4562.05127,4528.333496,4495.384766,4395.641113,4586.153809,4397.820313,4566.282227,4515.128418,4425.128418,4546.794922,4509.487305,2756,0,5,2562,57146,,,,0,4,4,4,4,4,4,4,4,4,4,4,4,4,4,4,4,4,4,4,4,4,4,4,4,4,4,4,4,4,4,4,4,100,,,,,,,,,,,,,,,,,,,,,,,,,,,,,,,,,,,,,,,,,,,,,,,,,,,,,,,,,,,,,,,,,,,,,,,,,,,,,,,,,,,,,,,,,,,,,,,,,,,,,,,,,,,,,,,,,,,,,,,,,,,,,,,,,,,,,,,,,,,,,,,,,,,,,,,,,,,,,,,,,,,,,,,,,,,,,,,,,,,,,,,,,,,,,,,,,,,,,,,,,,,,,,
1764669112.948980,54821,0,4407.307617,4419.487305,4520.769043,4566.538574,4425,4538.974121,4560.512695,4411.410156,4604.102539,4421.153809,4525.641113,4536.666504,4589.871582,4415.512695,4412.94873,4516.666504,4559.230957,4527.94873,4500.512695,4393.205078,4397.179688,4574.871582,4544.358887,4511.666504,4437.436035,4604.358887,4411.666504,4582.307617,4527.05127,4443.717773,4562.94873,4527.692383,2842,0,5,2562,57146,,,,0,4,4,4,4,4,4,4,4,4,4,4,4,4,4,4,4,4,4,4,4,4,4,4,4,4,4,4,4,4,4,4,4,100,,,,,,,,,,,,,,,,,,,,,,,,,,,,,,,,,,,13705,0,0.641174,-0.324463,-0.300659,0.627075,0.994262,0,0.041997,14.5,37.166668,-23,,,,,,,,,,,,,,,,,,,,,,,,,,,,,,,,,,,,,,,,,,,,,,,,,,,,,,,,,,,,,,,,,,,,,,,,,,,,,,,,,,,,,,,,,,,,,,,,,,,,,,,,,,,,,,,,,,,,,,,,,,,,,,,,,,,,,,,,,,,,,,,,,,,,,,,,,,,,,,,,
1764669112.952886,54822,0,4411.410156,4424.871582,4514.487305,4569.102539,4434.615234,4543.461426,4564.102539,4413.205078,4609.743652,4428.461426,4524.358887,4538.461426,4587.05127,4405.769043,4405.384766,4512.563965,4562.179688,4528.077148,4509.358887,4400.897461,4405.512695,4583.077148,4548.974121,4522.307617,4461.410156,4612.436035,4414.102539,4586.282227,4530.641113,4446.153809,4566.666504,4533.461426,2817,0,5,1792,57154,,,,0,4,4,4,4,4,4,4,4,4,4,4,4,4,4,4,4,4,4,4,4,4,4,4,4,4,4,4,4,4,4,4,4,100,,,,,,,,,,,,,,,,,,,,,,,,,,,,,,,,,,,,,,,,,,,,,,,,,,,,,,,,,,,,,,,,,,,,,,,,,,,,,,,,,,,,,,,,,,,,,,,,,,,,,,,,,,,,,,,,,,,,,,,,,,,,,,,,,,,,,,,,,,,,,,,,,,,,,,,,,,,,,,,,,,,,,,,,,,,,,,,,,,,,,,,,,,,,,,,,,,,,,,,,,,,,,,
1764669112.956792,54823,0,4405.384766,4419.871582,4504.358887,4559.358887,4433.461426,4536.025879,4559.102539,4403.333496,4600.256348,4420.128418,4515.512695,4529.615234,4576.922852,4394.102539,4395,4506.025879,4555.641113,4527.94873,4513.461426,4399.358887,4403.205078,4583.333496,4541.922852,4522.692383,4453.974121,4609.615234,4407.94873,4579.487305,4527.05127,4434.871582,4559.230957,4527.692383,3009,0,5,1792,57154,,,,0,4,4,4,4,4,4,4,4,4,4,4,4,4,4,4,4,4,4,4,4,4,4,4,4,4,4,4,4,4,4,4,4,100,,,,,,,,,,,,,,,,,,,,,,,,,,,,,,,,,,,,,,,,,,,,,,,,,,,,,,,,,,,,,,,,,,,,,,,,,,,,,,,,,,,,,,,,,,,,,,,,,,,,,,,,,,,,,,,,,,,,,,,,,,,,,,,,,,,,,,,,,,,,,,,,,,,,,,,,,,,,,,,,,,,,,,,,,,,,,,,,,,,,,,,,,,,,,,,,,,,,,,,,,,,,,,
1764669112.960698,54824,0,4396.794922,4411.666504,4499.487305,4545.256348,4424.230957,4525.256348,4551.410156,4390.256348,4584.615234,4405,4506.410156,4518.077148,4567.692383,4386.794922,4387.436035,4500.384766,4547.179688,4527.94873,4511.153809,4392.692383,4395.512695,4578.846191,4530.641113,4515.128418,4420,4601.538574,4401.922852,4570.512695,4521.153809,4420,4547.307617,4518.077148,2904,0,5,2048,57162,,,,0,4,4,4,4,4,4,4,4,4,4,4,4,4,4,4,4,4,4,4,4,4,4,4,4,4,4,4,4,4,4,4,4,100,,,,,,,,,,,,,,,,,,,,,,,,,,,,,,,,,,,,,,,,,,,,,,,,,,,,,,,,,,,,,,,,,,,,,,,,,,,,,,,,,,,,,,,,,,,,,,,,,,,,,,,,,,,,,,,,,,,,,,,,,,,,,,,,,,,,,,,,,,,,,,,,,,,,,,,,,,,,,,,,,,,,,,,,,,,,,,,,,,,,,,,,,,,,,,,,,,,,,,,,,,,,,,
1764669112.964604,54825,0,4393.589844,4407.692383,4503.461426,4536.410156,4414.102539,4520.256348,4547.179688,4383.717773,4574.102539,4393.333496,4503.333496,4512.820313,4565.897461,4387.436035,4386.538574,4499.102539,4544.743652,4530.128418,4506.922852,4388.333496,4391.410156,4575.512695,4524.743652,4507.05127,4381.666504,4595.769043,4403.461426,4567.820313,4518.589844,4411.538574,4538.205078,4512.692383,2777,0,5,2048,57162,,,,0,4,4,4,4,4,4,4,4,4,4,4,4,4,4,4,4,4,4,4,4,4,4,4,4,4,4,4,4,4,4,4,4,100,,,,,,,,,,,,,,,,,,,,,,,,,,,,,,,,,,,13706,0,0.641175,-0.324707,-0.300903,0.626831,0.975217,0.010743,0.034672,15,37.333332,-24.5,,,,,,,,,,,,,,,,,,,,,,,,,,,,,,,,,,,,,,,,,,,,,,,,,,,,,,,,,,,,,,,,,,,,,,,,,,,,,,,,,,,,,,,,,,,,,,,,,,,,,,,,,,,,,,,,,,,,,,,,,,,,,,,,,,,,,,,,,,,,,,,,,,,,,,,,,,,,,,,,
1764669112.968510,54826,0,4398.589844,4410.769043,4513.205078,4537.94873,4410,4524.615234,4548.589844,4387.820313,4574.102539,4388.974121,4507.563965,4517.179688,4572.307617,4394.358887,4392.307617,4503.717773,4550.512695,4536.410156,4506.794922,4391.153809,4395.384766,4577.436035,4527.94873,4505,4363.974121,4595.256348,4412.563965,4573.974121,4520.897461,4413.461426,4535.897461,4513.717773,2442,0,5,1792,57170,,,,0,4,4,4,4,4,4,4,4,4,4,4,4,4,4,4,4,4,4,4,4,4,4,4,4,4,4,4,4,4,4,4,4,100,,,,,,,,,,,,,,,,,,,,,,,,,,,,,,,,,,,,,,,,,,,,,,,,,,,,,,,,,,,,,,,,,,,,,,,,,,,,,,,,,,,,,,,,,,,,,,,,,,,,,,,,,,,,,,,,,,,,,,,,,,,,,,,,,,,,,,,,,,,,,,,,,,,,,,,,,,,,,,,,,,,,,,,,,,,,,,,,,,,,,,,,,,,,,,,,,,,,,,,,,,,,,,
1764669112.972416,54827,0,4407.05127,4416.666504,4520.512695,4546.153809,4412.563965,4533.461426,4552.94873,4398.077148,4581.153809,4388.974121,4513.974121,4526.153809,4581.282227,4402.94873,4400.384766,4511.666504,4558.846191,4544.487305,4512.94873,4398.846191,4404.358887,4582.820313,4535.897461,4509.230957,4378.077148,4597.307617,4421.922852,4583.333496,4525.256348,4420.897461,4539.102539,4517.563965,2728,0,5,1792,57170,,,,0,4,4,4,4,4,4,4,4,4,4,4,4,4,4,4,4,4,4,4,4,4,4,4,4,4,4,4,4,4,4,4,4,100,,,,,,,,,,,,,,,,,,,,,,,,,,,,,,,,,,,,,,,,,,,,,,,,,,,,,,,,,,,,,,,,,,,,,,,,,,,,,,,,,,,,,,,,,,,,,,,,,,,,,,,,,,,,,,,,,,,,,,,,,,,,,,,,,,,,,,,,,,,,,,,,,,,,,,,,,,,,,,,,,,,,,,,,,,,,,,,,,,,,,,,,,,,,,,,,,,,,,,,,,,,,,,
1764669112.976322,54828,0,4409.615234,4417.563965,4517.94873,4551.666504,4416.153809,4537.692383,4553.717773,4404.487305,4585.641113,4388.333496,4515.512695,4530.384766,4584.871582,4407.179688,4403.974121,4516.538574,4561.538574,4548.717773,4520.641113,4403.717773,4410.897461,4585.512695,4539.358887,4513.974121,4411.282227,4596.666504,4422.307617,4586.025879,4526.410156,4425.128418,4542.563965,4517.820313,2485,0,5,768,57177,,,,0,4,4,4,4,4,4,4,4,4,4,4,4,4,4,4,4,4,4,4,4,4,4,4,4,4,4,4,4,4,4,4,4,100,,,,,,,,,,,,,,,,,,,,,,,,,,,,,,,,,,,,,,,,,,,,,,,,,,,,,,,,,,,,,,,,,,,,,,,,,,,,,,,,,,,,,,,,,,,,,,,,,,,,,,,,,,,,,,,,,,,,,,,,,,,,,,,,,,,,,,,,,,,,,,,,,,,,,,,,,,,,,,,,,,,,,,,,,,,,,,,,,,,,,,,,,,,,,,,,,,,,,,,,,,,,,,
1764669112.980228,54829,0,4401.025879,4408.846191,4505.128418,4546.153809,4413.333496,4530.512695,4546.794922,4399.871582,4580.512695,4385.384766,4508.333496,4523.846191,4578.974121,4404.487305,4399.487305,4513.589844,4554.230957,4545.128418,4522.94873,4399.871582,4409.615234,4580.128418,4532.94873,4512.692383,4437.563965,4590.256348,4410.769043,4576.794922,4521.538574,4421.153809,4541.922852,4511.410156,2260,0,5,768,57177,,,,0,4,4,4,4,4,4,4,4,4,4,4,4,4,4,4,4,4,4,4,4,4,4,4,4,4,4,4,4,4,4,4,4,100,,,,,,,,,,,,,,,,,,,,,,,,,,,,,,,,,,,13707,0,0.641206,-0.325378,-0.301636,0.626099,0.992309,0.005372,0.029789,14.833333,38,-23,,,,,,,,,,,,,,,,,,,,,,,,,,,,,,,,,,,,,,,,,,,,,,,,,,,,,,,,,,,,,,,,,,,,,,,,,,,,,,,,,,,,,,,,,,,,,,,,,,,,,,,,,,,,,,,,,,,,,,,,,,,,,,,,,,,,,,,,,,,,,,,,,,,,,,,,,,,,,,,,
1764669112.984134,54830,0,4384.615234,4394.230957,4489.487305,4530,4403.333496,4514.487305,4534.358887,4386.025879,4566.666504,4383.461426,4495.641113,4509.487305,4566.410156,4397.05127,4388.974121,4504.230957,4540.384766,4536.153809,4518.589844,4388.461426,4401.794922,4568.589844,4520,4505,4436.282227,4581.153809,4393.205078,4560.128418,4512.94873,4411.153809,4537.05127,4500.897461,2739,0,5,1024,57185,,,,0,4,4,4,4,4,4,4,4,4,4,4,4,4,4,4,4,4,4,4,4,4,4,4,4,4,4,4,4,4,4,4,4,100,,,,,,,,,,,,,,,,,,,,,,,,,,,,,,,,,,,,,,,,,,,,,,,,,,,,,,,,,,,,,,,,,,,,,,,,,,,,,,,,,,,,,,,,,,,,,,,,,,,,,,,,,,,,,,,,,,,,,,,,,,,,,,,,,,,,,,,,,,,,,,,,,,,,,,,,,,,,,,,,,,,,,,,,,,,,,,,,,,,,,,,,,,,,,,,,,,,,,,,,,,,,,,
1764669112.988040,54831,0,4371.025879,4383.846191,4481.922852,4513.333496,4392.820313,4500.384766,4524.102539,4372.94873,4553.461426,4387.436035,4485.897461,4497.563965,4556.025879,4391.282227,4379.615234,4495.897461,4529.871582,4529.615234,4512.820313,4378.333496,4394.487305,4559.615234,4510.897461,4497.692383,4408.589844,4576.153809,4381.282227,4547.820313,4506.666504,4403.589844,4532.692383,4493.846191,2461,0,5,1024,57185,,,,0,4,4,4,4,4,4,4,4,4,4,4,4,4,4,4,4,4,4,4,4,4,4,4,4,4,4,4,4,4,4,4,4,100,,,,,,,,,,,,,,,,,,,,,,,,,,,,,,,,,,,,,,,,,,,,,,,,,,,,,,,,,,,,,,,,,,,,,,,,,,,,,,,,,,,,,,,,,,,,,,,,,,,,,,,,,,,,,,,,,,,,,,,,,,,,,,,,,,,,,,,,,,,,,,,,,,,,,,,,,,,,,,,,,,,,,,,,,,,,,,,,,,,,,,,,,,,,,,,,,,,,,,,,,,,,,,
1764669112.991946,54832,0,4369.871582,4385.897461,4489.230957,4508.589844,4390.128418,4498.717773,4523.461426,4370.897461,4551.538574,4398.461426,4485.769043,4498.077148,4555.512695,4392.692383,4378.461426,4496.025879,4530.897461,4533.333496,4513.461426,4378.589844,4394.871582,4561.922852,4514.102539,4498.461426,4376.666504,4579.871582,4383.461426,4550.128418,4507.94873,4405.384766,4534.358887,4496.538574,2895,0,5,1280,57193,,,,0,4,4,4,4,4,4,4,4,4,4,4,4,4,4,4,4,4,4,4,4,4,4,4,4,4,4,4,4,4,4,4,4,100,,,,,,,,,,,,,,,,,,,,,,,,,,,,,,,,,,,,,,,,,,,,,,,,,,,,,,,,,,,,,,,,,,,,,,,,,,,,,,,,,,,,,,,,,,,,,,,,,,,,,,,,,,,,,,,,,,,,,,,,,,,,,,,,,,,,,,,,,,,,,,,,,,,,,,,,,,,,,,,,,,,,,,,,,,,,,,,,,,,,,,,,,,,,,,,,,,,,,,,,,,,,,,
1764669112.995852,54833,0,4381.666504,4399.230957,4507.436035,4520.128418,4396.666504,4510.512695,4533.333496,4381.538574,4562.692383,4410.897461,4494.487305,4511.282227,4565.512695,4401.282227,4386.282227,4506.410156,4543.333496,4547.436035,4522.820313,4389.871582,4404.102539,4575.769043,4528.333496,4509.102539,4366.282227,4590.769043,4397.94873,4566.538574,4515.897461,4415.769043,4543.205078,4509.102539,2960,0,5,1280,57193,,,,0,4,4,4,4,4,4,4,4,4,4,4,4,4,4,4,4,4,4,4,4,4,4,4,4,4,4,4,4,4,4,4,4,100,,,,,,,,,,,,,,,,,,,,,,,,,,,,,,,,,,,13708,0,0.641298,-0.3255,-0.301941,0.625793,1.005494,0.013185,0.034672,16.833334,38,-24.333334,,,,,,,,,,,,,,,,,,,,,,,,,,,,,,,,,,,,,,,,,,,,,,,,,,,,,,,,,,,,,,,,,,,,,,,,,,,,,,,,,,,,,,,,,,,,,,,,,,,,,,,,,,,,,,,,,,,,,,,,,,,,,,,,,,,,,,,,,,,,,,,,,,,,,,,,,,,,,,,,
1764669112.999758,54834,0,4396.410156,4414.102539,4524.487305,4539.487305,4405.641113,4526.025879,4545.641113,4396.282227,4578.461426,4415.641113,4504.230957,4527.05127,4577.820313,4410.769043,4396.538574,4521.410156,4557.307617,4563.333496,4534.871582,4403.717773,4415.256348,4591.282227,4542.307617,4522.179688,4386.282227,4600.512695,4413.589844,4585.128418,4524.102539,4426.410156,4555,4523.461426,1795,0,5,1536,57201,,,,0,4,4,4,4,4,4,4,4,4,4,4,4,4,4,4,4,4,4,4,4,4,4,4,4,4,4,4,4,4,4,4,4,100,,,,,,,,,,,,,,,,,,,,,,,,,,,,,,,,,,,,,,,,,,,,,,,,,,,,,,,,,,,,,,,,,,,,,,,,,,,,,,,,,,,,,,,,,,,,,,,,,,,,,,,,,,,,,,,,,,,,,,,,,,,,,,,,,,,,,,,,,,,,,,,,,,,,,,,,,,,,,,,,,,,,,,,,,,,,,,,,,,,,,,,,,,,,,,,,,,,,,,,,,,,,,,
1764669113.003664,54835,0,4402.436035,4419.487305,4528.461426,4553.333496,4409.487305,4533.461426,4551.153809,4403.461426,4586.794922,4407.820313,4507.307617,4533.205078,4582.563965,4413.461426,4401.153809,4530.769043,4561.922852,4569.871582,4540.769043,4409.102539,4418.717773,4596.538574,4544.102539,4527.692383,4421.410156,4601.922852,4419.487305,4592.436035,4526.153809,4428.717773,4562.307617,4530.256348,2759,0,5,1536,57201,,,,0,4,4,4,4,4,4,4,4,4,4,4,4,4,4,4,4,4,4,4,4,4,4,4,4,4,4,4,4,4,4,4,4,100,,,,,,,,,,,,,,,,,,,,,,,,,,,,,,,,,,,,,,,,,,,,,,,,,,,,,,,,,,,,,,,,,,,,,,,,,,,,,,,,,,,,,,,,,,,,,,,,,,,,,,,,,,,,,,,,,,,,,,,,,,,,,,,,,,,,,,,,,,,,,,,,,,,,,,,,,,,,,,,,,,,,,,,,,,,,,,,,,,,,,,,,,,,,,,,,,,,,,,,,,,,,,,
1764669113.007570,54836,0,4396.025879,4412.94873,4518.461426,4555.384766,4408.205078,4529.230957,4547.05127,4399.743652,4583.589844,4392.820313,4502.563965,4526.794922,4577.05127,4407.820313,4397.692383,4528.461426,4554.358887,4562.436035,4535.641113,4402.307617,4411.025879,4587.820313,4532.179688,4521.666504,4446.538574,4595.128418,4413.846191,4584.358887,4521.153809,4422.307617,4561.666504,4526.666504,2607,0,5,1792,57209,,,,0,4,4,4,4,4,4,4,4,4,4,4,4,4,4,4,4,4,4,4,4,4,4,4,4,4,4,4,4,4,4,4,4,100,,,,,,,,,,,,,,,,,,,,,,,,,,,,,,,,,,,,,,,,,,,,,,,,,,,,,,,,,,,,,,,,,,,,,,,,,,,,,,,,,,,,,,,,,,,,,,,,,,,,,,,,,,,,,,,,,,,,,,,,,,,,,,,,,,,,,,,,,,,,,,,,,,,,,,,,,,,,,,,,,,,,,,,,,,,,,,,,,,,,,,,,,,,,,,,,,,,,,,,,,,,,,,
1764669113.011476,54837,0,4383.717773,4402.436035,4505.128418,4550.641113,4408.589844,4520.256348,4539.102539,4392.436035,4576.282227,4382.563965,4496.666504,4515.384766,4567.436035,4399.102539,4391.410156,4517.307617,4541.666504,4546.410156,4522.179688,4389.615234,4397.436035,4572.436035,4516.025879,4509.743652,4447.179688,4588.205078,4404.871582,4569.487305,4514.615234,4414.358887,4556.025879,4519.102539,2823,0,5,1792,57209,,,,0,4,4,4,4,4,4,4,4,4,4,4,4,4,4,4,4,4,4,4,4,4,4,4,4,4,4,4,4,4,4,4,4,100,,,,,,,,,,,,,,,,,,,,,,,,,,,,,,,,,,,13709,0,0.641446,-0.325562,-0.301941,0.62561,1.005494,0.013185,0.034672,15.5,36.5,-24.5,,,,,,,,,,,,,,,,,,,,,,,,,,,,,,,,,,,,,,,,,,,,,,,,,,,,,,,,,,,,,,,,,,,,,,,,,,,,,,,,,,,,,,,,,,,,,,,,,,,,,,,,,,,,,,,,,,,,,,,,,,,,,,,,,,,,,,,,,,,,,,,,,,,,,,,,,,,,,,,,
1764669113.015382,54838,0,4375.897461,4397.692383,4500.897461,4548.333496,4415.256348,4516.410156,4535.897461,4392.436035,4575.769043,4386.153809,4496.794922,4508.974121,4562.692383,4393.974121,4389.871582,4505.897461,4533.717773,4533.077148,4508.846191,4380.641113,4386.538574,4561.922852,4507.436035,4501.794922,4428.974121,4588.589844,4401.922852,4559.871582,4512.436035,4412.820313,4551.794922,4516.282227,2931,0,5,2048,57217,,,,0,4,4,4,4,4,4,4,4,4,4,4,4,4,4,4,4,4,4,4,4,4,4,4,4,4,4,4,4,4,4,4,4,100,,,,,,,,,,,,,,,,,,,,,,,,,,,,,,,,,,,,,,,,,,,,,,,,,,,,,,,,,,,,,,,,,,,,,,,,,,,,,,,,,,,,,,,,,,,,,,,,,,,,,,,,,,,,,,,,,,,,,,,,,,,,,,,,,,,,,,,,,,,,,,,,,,,,,,,,,,,,,,,,,,,,,,,,,,,,,,,,,,,,,,,,,,,,,,,,,,,,,,,,,,,,,,
1764669113.019288,54839,0,4376.922852,4401.794922,4509.102539,4551.794922,4424.358887,4521.025879,4540.769043,4403.333496,4585.128418,4400.641113,4503.077148,4511.666504,4565.897461,4395.256348,4395.641113,4502.692383,4535.256348,4530.641113,4503.846191,4380.384766,4383.717773,4562.563965,4510.512695,4502.820313,4411.025879,4596.538574,4407.563965,4561.153809,4515.769043,4418.974121,4552.820313,4521.794922,2863,0,5,2048,57217,,,,0,4,4,4,4,4,4,4,4,4,4,4,4,4,4,4,4,4,4,4,4,4,4,4,4,4,4,4,4,4,4,4,4,100,,,,,,,,,,,,,,,,,,,,,,,,,,,,,,,,,,,,,,,,,,,,,,,,,,,,,,,,,,,,,,,,,,,,,,,,,,,,,,,,,,,,,,,,,,,,,,,,,,,,,,,,,,,,,,,,,,,,,,,,,,,,,,,,,,,,,,,,,,,,,,,,,,,,,,,,,,,,,,,,,,,,,,,,,,,,,,,,,,,,,,,,,,,,,,,,,,,,,,,,,,,,,,
1764669113.023194,54840,0,4383.461426,4409.871582,4521.153809,4556.282227,4427.692383,4529.743652,4549.615234,4419.230957,4596.666504,4414.743652,4510,4519.743652,4572.692383,4399.487305,4403.974121,4508.717773,4542.820313,4539.615234,4510.128418,4387.563965,4388.717773,4571.666504,4519.871582,4510.512695,4409.358887,4605.897461,4416.666504,4569.487305,4520.384766,4427.820313,4557.563965,4531.410156,2717,0,5,2304,57224,,,,0,4,4,4,4,4,4,4,4,4,4,4,4,4,4,4,4,4,4,4,4,4,4,4,4,4,4,4,4,4,4,4,4,100,0.96875,25,4,4,1,4,3,4,4,4,4,1,4,4,4,4,4,4,4,3,4,4,4,4,4,4,1,4,3,4,4,3,3,1,,,,,,,,,,,,,1.821592,2.076702,3.807958,0.857019,1.040155,10.905955,2.836729,3.448486,0.870886,1.475953,64.558632,4.681282,3.905062,4.184894,2.846234,12.770179,2.859184,3.94299,1.396936,1.541632,10.192353,2.119453,3.299655,1.260239,1.963493,3.987771,2.039346,3.298157,0.794391,1.151021,2.717113,2.823457,4.127038,0.850325,1.290505,5.757712,2.357873,3.751908,0.788363,1.532029,2.593964,1.764749,3.423732,1.377229,1.142718,0.97788,2.618513,7.212801,3.071461,3.146261,1.266822,1.868043,2.184803,1.103955,1.076708,2.356113,1.683789,3.657219,0.915899,1.041717,0.759523,1.314511,2.845809,0.892479,1.136412,0.746971,0.650567,1.016311,0.652621,0.77894,1.066489,1.941178,2.151723,1.263054,1.169568,1.073563,1.55397,3.842047,1.795598,1.602437,1.763649,2.489675,4.56992,1.198035,1.373664,1.850265,2.265545,5.011769,1.947079,2.093823,1.319849,1.330362,3.50716,1.140793,1.371272,0.824228,2.737527,4.115256,0.937535,1.267292,1.585118,2.241604,3.321685,1.02466,1.506457,1.493281,2.847616,4.224308,0.982472,1.567725,1.317026,2.670563,3.225846,0.828393,1.082656,1.174615,2.629578,3.612867,1.006518,1.400936,3.796656,3.393519,13.369489,4.650846,7.427433,0.988635,1.890604,2.937504,0.947242,1.225336,2.334726,2.436171,3.279535,1.164763,1.712885,1.336468,2.829994,4.160699,0.962538,1.293224,1.485655,1.004585,1.7423,0.527675,0.572876,10.062512,2.197625,3.230837,1.695798,2.034935,5.804288,3.310328,3.930992,1.619553,2.542587,80.261192,9.367249,5.047252,6.504502,4.157172
1764669113.027100,54841,0,4388.717773,4414.358887,4525.641113,4555.641113,4420.897461,4535.256348,4555.512695,4429.358887,4599.871582,4417.820313,4511.282227,4526.025879,4576.538574,4401.282227,4407.307617,4518.333496,4549.743652,4553.333496,4523.717773,4396.410156,4397.563965,4581.666504,4527.563965,4518.461426,4424.615234,4610,4422.307617,4577.307617,4522.05127,4433.461426,4561.282227,4537.436035,2886,0,5,2304,57224,,,,0,4,4,4,4,4,4,4,4,4,4,4,4,4,4,4,4,4,4,4,4,4,4,4,4,4,4,4,4,4,4,4,4,100,,,,,,,,,,,,,,,,,,,,,,,,,,,,,,,,,,,13710,0,0.641444,-0.325684,-0.301941,0.625549,1.010377,0.00586,0.045904,14,38,-23.5,,,,,,,,,,,,,,,,,,,,,,,,,,,,,,,,,,,,,,,,,,,,,,,,,,,,,,,,,,,,,,,,,,,,,,,,,,,,,,,,,,,,,,,,,,,,,,,,,,,,,,,,,,,,,,,,,,,,,,,,,,,,,,,,,,,,,,,,,,,,,,,,,,,,,,,,,,,,,,,,
1764669113.031006,54842,0,4387.94873,4411.410156,4518.333496,4547.94873,4407.94873,4533.589844,4554.102539,4427.179688,4591.025879,4408.205078,4505.128418,4525.769043,4573.846191,4397.179688,4401.025879,4523.717773,4551.282227,4562.05127,4535.769043,4401.410156,4404.487305,4585.641113,4528.333496,4521.794922,4441.794922,4606.922852,4420.256348,4578.974121,4519.743652,4433.846191,4559.871582,4533.717773,1810,0,5,2560,57232,,,,0,4,4,4,4,4,4,4,4,4,4,4,4,4,4,4,4,4,4,4,4,4,4,4,4,4,4,4,4,4,4,4,4,100,,,,,,,,,,,,,,,,,,,,,,,,,,,,,,,,,,,,,,,,,,,,,,,,,,,,,,,,,,,,,,,,,,,,,,,,,,,,,,,,,,,,,,,,,,,,,,,,,,,,,,,,,,,,,,,,,,,,,,,,,,,,,,,,,,,,,,,,,,,,,,,,,,,,,,,,,,,,,,,,,,,,,,,,,,,,,,,,,,,,,,,,,,,,,,,,,,,,,,,,,,,,,,
1764669113.034912,54843,0,4381.538574,4402.94873,4505,4536.666504,4397.05127,4526.025879,4546.153809,4414.358887,4574.487305,4392.05127,4495.128418,4519.615234,4566.153809,4388.333496,4387.307617,4520.256348,4546.922852,4558.974121,4537.692383,4399.102539,4404.358887,4581.025879,4522.563965,4518.974121,4442.692383,4598.846191,4411.153809,4573.717773,4515.384766,4430.897461,4552.563965,4519.743652,2437,0,5,2560,57232,,,,0,4,4,4,4,4,4,4,4,4,4,4,4,4,4,4,4,4,4,4,4,4,4,4,4,4,4,4,4,4,4,4,4,100,,,,,,,,,,,,,,,,,,,,,,,,,,,,,,,,,,,,,,,,,,,,,,,,,,,,,,,,,,,,,,,,,,,,,,,,,,,,,,,,,,,,,,,,,,,,,,,,,,,,,,,,,,,,,,,,,,,,,,,,,,,,,,,,,,,,,,,,,,,,,,,,,,,,,,,,,,,,,,,,,,,,,,,,,,,,,,,,,,,,,,,,,,,,,,,,,,,,,,,,,,,,,,
1764669113.038818,54844,0,4373.333496,4393.717773,4496.025879,4528.077148,4393.333496,4516.922852,4536.025879,4398.461426,4559.102539,4379.358887,4486.025879,4511.153809,4557.563965,4379.871582,4373.333496,4509.358887,4538.461426,4544.743652,4527.179688,4389.743652,4395.256348,4570.641113,4514.102539,4510.769043,4421.538574,4590.512695,4398.205078,4564.615234,4511.666504,4427.436035,4541.666504,4501.922852,2639,0,5,2048,57240,,,,0,4,4,4,4,4,4,4,4,4,4,4,4,4,4,4,4,4,4,4,4,4,4,4,4,4,4,4,4,4,4,4,4,100,,,,,,,,,,,,,,,,,,,,,,,,,,,,,,,,,,,,,,,,,,,,,,,,,,,,,,,,,,,,,,,,,,,,,,,,,,,,,,,,,,,,,,,,,,,,,,,,,,,,,,,,,,,,,,,,,,,,,,,,,,,,,,,,,,,,,,,,,,,,,,,,,,,,,,,,,,,,,,,,,,,,,,,,,,,,,,,,,,,,,,,,,,,,,,,,,,,,,,,,,,,,,,
1764669113.042724,54845,0,4368.205078,4388.077148,4497.94873,4527.05127,4395.897461,4510.769043,4528.717773,4387.307617,4551.666504,4377.05127,4481.410156,4504.358887,4552.94873,4377.179688,4366.666504,4497.563965,4530.384766,4528.205078,4510.769043,4378.461426,4381.794922,4560.897461,4507.94873,4500.897461,4391.025879,4585.897461,4386.282227,4556.538574,4510.128418,4424.358887,4531.922852,4490.897461,2476,0,5,2048,57240,,,,0,4,4,4,4,4,4,4,4,4,4,4,4,4,4,4,4,4,4,4,4,4,4,4,4,4,4,4,4,4,4,4,4,100,,,,,,,,,,,,,,,,,,,,,,,,,,,,,,,,,,,13711,0,0.641469,-0.325989,-0.302063,0.625305,0.99475,-0.003907,0.050299,16.833334,37.166668,-23.5,,,,,,,,,,,,,,,,,,,,,,,,,,,,,,,,,,,,,,,,,,,,,,,,,,,,,,,,,,,,,,,,,,,,,,,,,,,,,,,,,,,,,,,,,,,,,,,,,,,,,,,,,,,,,,,,,,,,,,,,,,,,,,,,,,,,,,,,,,,,,,,,,,,,,,,,,,,,,,,,
1764669113.046630,54846,0,4368.846191,4387.94873,4508.461426,4534.102539,4399.487305,4509.615234,4527.692383,4384.230957,4553.846191,4385.384766,4481.922852,4502.179688,4555.128418,4382.563965,4370.256348,4492.820313,4527.05127,4520.897461,4500,4373.077148,4373.333496,4557.820313,4507.179688,4494.358887,4371.025879,4586.922852,4380.128418,4553.205078,4510.384766,4420.769043,4528.846191,4494.358887,2745,0,5,1024,57248,,,,0,4,4,4,4,4,4,4,4,4,4,4,4,4,4,4,4,4,4,4,4,4,4,4,4,4,4,4,4,4,4,4,4,100,,,,,,,,,,,,,,,,,,,,,,,,,,,,,,,,,,,,,,,,,,,,,,,,,,,,,,,,,,,,,,,,,,,,,,,,,,,,,,,,,,,,,,,,,,,,,,,,,,,,,,,,,,,,,,,,,,,,,,,,,,,,,,,,,,,,,,,,,,,,,,,,,,,,,,,,,,,,,,,,,,,,,,,,,,,,,,,,,,,,,,,,,,,,,,,,,,,,,,,,,,,,,,
1764669113.050536,54847,0,4374.102539,4391.922852,4518.077148,4544.615234,4399.871582,4513.077148,4532.563965,4387.307617,4562.436035,4398.589844,4486.282227,4505.897461,4563.205078,4393.846191,4381.153809,4498.846191,4531.153809,4529.102539,4502.94873,4378.205078,4376.666504,4563.846191,4511.794922,4494.871582,4372.307617,4591.538574,4381.922852,4555.641113,4511.025879,4416.025879,4534.615234,4510.641113,2752,0,5,1024,57248,,,,0,4,4,4,4,4,4,4,4,4,4,4,4,4,4,4,4,4,4,4,4,4,4,4,4,4,4,4,4,4,4,4,4,100,,,,,,,,,,,,,,,,,,,,,,,,,,,,,,,,,,,,,,,,,,,,,,,,,,,,,,,,,,,,,,,,,,,,,,,,,,,,,,,,,,,,,,,,,,,,,,,,,,,,,,,,,,,,,,,,,,,,,,,,,,,,,,,,,,,,,,,,,,,,,,,,,,,,,,,,,,,,,,,,,,,,,,,,,,,,,,,,,,,,,,,,,,,,,,,,,,,,,,,,,,,,,,
1764669113.054442,54848,0,4380.897461,4397.179688,4518.461426,4551.794922,4397.05127,4518.717773,4540.128418,4391.922852,4572.179688,4408.461426,4492.05127,4514.102539,4573.077148,4405.641113,4393.205078,4512.563965,4541.025879,4548.205078,4517.692383,4392.179688,4390.769043,4575.897461,4519.615234,4502.05127,4388.717773,4596.410156,4390.256348,4561.922852,4511.025879,4411.410156,4545.769043,4531.025879,2803,0,5,1024,57256,,,,0,4,4,4,4,4,4,4,4,4,4,4,4,4,4,4,4,4,4,4,4,4,4,4,4,4,4,4,4,4,4,4,4,100,,,,,,,,,,,,,,,,,,,,,,,,,,,,,,,,,,,,,,,,,,,,,,,,,,,,,,,,,,,,,,,,,,,,,,,,,,,,,,,,,,,,,,,,,,,,,,,,,,,,,,,,,,,,,,,,,,,,,,,,,,,,,,,,,,,,,,,,,,,,,,,,,,,,,,,,,,,,,,,,,,,,,,,,,,,,,,,,,,,,,,,,,,,,,,,,,,,,,,,,,,,,,,
1764669113.058348,54849,0,4386.922852,4402.692383,4509.871582,4552.563965,4396.153809,4524.615234,4547.05127,4396.282227,4580.641113,4411.282227,4498.077148,4523.846191,4580.769043,4413.333496,4401.153809,4526.922852,4552.307617,4566.410156,4534.487305,4407.307617,4407.05127,4588.077148,4527.692383,4512.307617,4405.512695,4598.717773,4401.794922,4569.615234,4511.410156,4409.743652,4556.153809,4546.025879,2905,0,5,1024,57256,,,,0,4,4,4,4,4,4,4,4,4,4,4,4,4,4,4,4,4,4,4,4,4,4,4,4,4,4,4,4,4,4,4,4,100,,,,,,,,,,,,,,,,,,,,,,,,,,,,,,,,,,,13712,0,0.641345,-0.326599,-0.302551,0.624878,0.997192,0.018069,0.041997,16.333334,37.833332,-23.333334,,,,,,,,,,,,,,,,,,,,,,,,,,,,,,,,,,,,,,,,,,,,,,,,,,,,,,,,,,,,,,,,,,,,,,,,,,,,,,,,,,,,,,,,,,,,,,,,,,,,,,,,,,,,,,,,,,,,,,,,,,,,,,,,,,,,,,,,,,,,,,,,,,,,,,,,,,,,,,,,
1764669113.062254,54850,0,4392.05127,4408.846191,4500.769043,4550,4402.563965,4529.871582,4552.179688,4401.922852,4587.692383,4409.743652,4503.717773,4531.666504,4584.615234,4416.025879,4403.461426,4535.769043,4560.128418,4574.358887,4542.692383,4416.794922,4416.410156,4595.128418,4533.333496,4520.769043,4411.666504,4598.205078,4412.94873,4576.922852,4513.717773,4413.077148,4562.05127,4551.666504,2685,0,5,1280,57263,,,,0,4,4,4,4,4,4,4,4,4,4,4,4,4,4,4,4,4,4,4,4,4,4,4,4,4,4,4,4,4,4,4,4,100,,,,,,,,,,,,,,,,,,,,,,,,,,,,,,,,,,,,,,,,,,,,,,,,,,,,,,,,,,,,,,,,,,,,,,,,,,,,,,,,,,,,,,,,,,,,,,,,,,,,,,,,,,,,,,,,,,,,,,,,,,,,,,,,,,,,,,,,,,,,,,,,,,,,,,,,,,,,,,,,,,,,,,,,,,,,,,,,,,,,,,,,,,,,,,,,,,,,,,,,,,,,,,
1764669113.066160,54851,0,4395.256348,4414.743652,4500.128418,4548.589844,4415,4533.205078,4554.871582,4409.358887,4592.563965,4408.846191,4507.563965,4533.589844,4583.974121,4414.487305,4400.897461,4536.153809,4561.025879,4569.102539,4537.692383,4416.922852,4414.487305,4593.589844,4534.358887,4522.563965,4406.410156,4595.128418,4420.256348,4580.897461,4517.820313,4419.358887,4562.94873,4548.205078,2841,0,5,1280,57263,,,,0,4,4,4,4,4,4,4,4,4,4,4,4,4,4,4,4,4,4,4,4,4,4,4,4,4,4,4,4,4,4,4,4,100,,,,,,,,,,,,,,,,,,,,,,,,,,,,,,,,,,,,,,,,,,,,,,,,,,,,,,,,,,,,,,,,,,,,,,,,,,,,,,,,,,,,,,,,,,,,,,,,,,,,,,,,,,,,,,,,,,,,,,,,,,,,,,,,,,,,,,,,,,,,,,,,,,,,,,,,,,,,,,,,,,,,,,,,,,,,,,,,,,,,,,,,,,,,,,,,,,,,,,,,,,,,,,
1764669113.070066,54852,0,4394.487305,4416.410156,4508.077148,4548.717773,4424.743652,4531.538574,4552.94873,4414.487305,4591.666504,4409.615234,4506.794922,4527.05127,4578.205078,4409.615234,4395.384766,4528.717773,4553.846191,4554.615234,4522.692383,4408.461426,4403.461426,4583.333496,4528.461426,4515,4396.153809,4589.487305,4420,4577.692383,4520,4422.94873,4558.717773,4536.922852,2743,0,5,768,57271,,,,0,4,4,4,4,4,4,4,4,4,4,4,4,4,4,4,4,4,4,4,4,4,4,4,4,4,4,4,4,4,4,4,4,100,,,,,,,,,,,,,,,,,,,,,,,,,,,,,,,,,,,,,,,,,,,,,,,,,,,,,,,,,,,,,,,,,,,,,,,,,,,,,,,,,,,,,,,,,,,,,,,,,,,,,,,,,,,,,,,,,,,,,,,,,,,,,,,,,,,,,,,,,,,,,,,,,,,,,,,,,,,,,,,,,,,,,,,,,,,,,,,,,,,,,,,,,,,,,,,,,,,,,,,,,,,,,,
1764669113.073972,54853,0,4388.205078,4410.512695,4517.820313,4546.922852,4423.205078,4523.589844,4545.512695,4412.05127,4582.179688,4409.743652,4500.128418,4514.102539,4568.077148,4402.820313,4389.358887,4516.538574,4541.282227,4538.589844,4506.025879,4395.512695,4390.256348,4568.717773,4517.05127,4500.769043,4388.461426,4582.692383,4411.538574,4566.794922,4517.307617,4419.615234,4550.128418,4521.153809,2828,0,5,768,57271,,,,0,4,4,4,4,4,4,4,4,4,4,4,4,4,4,4,4,4,4,4,4,4,4,4,4,4,4,4,4,4,4,4,4,100,,,,,,,,,,,,,,,,,,,,,,,,,,,,,,,,,,,13713,0,0.641224,-0.326843,-0.302795,0.624756,1.001099,0.012697,0.034672,15.833333,38.5,-23.666666,,,,,,,,,,,,,,,,,,,,,,,,,,,,,,,,,,,,,,,,,,,,,,,,,,,,,,,,,,,,,,,,,,,,,,,,,,,,,,,,,,,,,,,,,,,,,,,,,,,,,,,,,,,,,,,,,,,,,,,,,,,,,,,,,,,,,,,,,,,,,,,,,,,,,,,,,,,,,,,,
1764669113.077878,54854,0,4380,4400.897461,4522.94873,4542.692383,4411.794922,4513.333496,4537.179688,4403.333496,4568.333496,4408.333496,4492.820313,4502.94873,4559.102539,4397.307617,4386.410156,4506.025879,4530.769043,4529.230957,4497.05127,4385.641113,4382.94873,4558.205078,4506.794922,4488.846191,4390.128418,4579.743652,4400,4554.615234,4511.666504,4412.179688,4540.128418,4508.333496,2804,0,5,256,57279,,,,0,4,4,4,4,4,4,4,4,4,4,4,4,4,4,4,4,4,4,4,4,4,4,4,4,4,4,4,4,4,4,4,4,100,,,,,,,,,,,,,,,,,,,,,,,,,,,,,,,,,,,,,,,,,,,,,,,,,,,,,,,,,,,,,,,,,,,,,,,,,,,,,,,,,,,,,,,,,,,,,,,,,,,,,,,,,,,,,,,,,,,,,,,,,,,,,,,,,,,,,,,,,,,,,,,,,,,,,,,,,,,,,,,,,,,,,,,,,,,,,,,,,,,,,,,,,,,,,,,,,,,,,,,,,,,,,,
1764669113.081784,54855,0,4378.461426,4397.94873,4525.512695,4542.436035,4402.563965,4509.358887,4537.307617,4398.077148,4561.666504,4408.846191,4493.974121,4503.846191,4559.871582,4397.820313,4390.512695,4504.102539,4531.794922,4532.692383,4501.282227,4386.538574,4387.563965,4560.641113,4507.94873,4489.871582,4405,4587.179688,4395.769043,4552.563965,4509.358887,4410.256348,4535.769043,4508.461426,2992,0,5,256,57279,,,,0,4,4,4,4,4,4,4,4,4,4,4,4,4,4,4,4,4,4,4,4,4,4,4,4,4,4,4,4,4,4,4,4,100,,,,,,,,,,,,,,,,,,,,,,,,,,,,,,,,,,,,,,,,,,,,,,,,,,,,,,,,,,,,,,,,,,,,,,,,,,,,,,,,,,,,,,,,,,,,,,,,,,,,,,,,,,,,,,,,,,,,,,,,,,,,,,,,,,,,,,,,,,,,,,,,,,,,,,,,,,,,,,,,,,,,,,,,,,,,,,,,,,,,,,,,,,,,,,,,,,,,,,,,,,,,,,
1764669113.085690,54856,0,4389.743652,4409.743652,4532.563965,4552.820313,4408.589844,4518.461426,4551.794922,4407.179688,4571.794922,4414.615234,4508.333496,4520.897461,4575.256348,4405.512695,4402.692383,4514.743652,4548.974121,4549.102539,4516.794922,4400.641113,4403.461426,4578.077148,4525.128418,4508.077148,4430.641113,4606.538574,4406.410156,4567.692383,4515.769043,4421.794922,4543.461426,4525.384766,2894,0,5,512,57287,,,,0,4,4,4,4,4,4,4,4,4,4,4,4,4,4,4,4,4,4,4,4,4,4,4,4,4,4,4,4,4,4,4,4,100,,,,,,,,,,,,,,,,,,,,,,,,,,,,,,,,,,,,,,,,,,,,,,,,,,,,,,,,,,,,,,,,,,,,,,,,,,,,,,,,,,,,,,,,,,,,,,,,,,,,,,,,,,,,,,,,,,,,,,,,,,,,,,,,,,,,,,,,,,,,,,,,,,,,,,,,,,,,,,,,,,,,,,,,,,,,,,,,,,,,,,,,,,,,,,,,,,,,,,,,,,,,,,
1764669113.089596,54857,0,4410.128418,4432.05127,4546.153809,4571.794922,4430.512695,4537.94873,4576.025879,4430.128418,4595.641113,4423.333496,4529.743652,4545.641113,4599.102539,4415.256348,4417.436035,4533.205078,4575.384766,4571.025879,4535.512695,4420.897461,4423.077148,4602.179688,4550.897461,4535.384766,4456.794922,4629.871582,4428.205078,4593.974121,4528.974121,4444.102539,4562.179688,4550.256348,2768,0,5,512,57287,,,,0,4,4,4,4,4,4,4,4,4,4,4,4,4,4,4,4,4,4,4,4,4,4,4,4,4,4,4,4,4,4,4,4,100,,,,,,,,,,,,,,,,,,,,,,,,,,,,,,,,,,,13714,0,0.641287,-0.32666,-0.302734,0.624817,0.995239,0.01465,0.026859,15.166667,40,-23.833334,,,,,,,,,,,,,,,,,,,,,,,,,,,,,,,,,,,,,,,,,,,,,,,,,,,,,,,,,,,,,,,,,,,,,,,,,,,,,,,,,,,,,,,,,,,,,,,,,,,,,,,,,,,,,,,,,,,,,,,,,,,,,,,,,,,,,,,,,,,,,,,,,,,,,,,,,,,,,,,,
1764669113.093502,54858,0,4426.922852,4450.769043,4559.102539,4588.205078,4455.256348,4556.153809,4596.282227,4453.077148,4618.333496,4427.436035,4544.102539,4561.666504,4616.538574,4418.717773,4426.025879,4548.589844,4595.512695,4586.794922,4547.692383,4434.871582,4435.384766,4618.974121,4569.743652,4555.641113,4470.384766,4643.589844,4447.563965,4615.897461,4540.641113,4463.846191,4582.307617,4566.410156,2431,0,5,768,57295,,,,0,4,4,4,4,4,4,4,4,4,4,4,4,4,4,4,4,4,4,4,4,4,4,4,4,4,4,4,4,4,4,4,4,100,,,,,,,,,,,,,,,,,,,,,,,,,,,,,,,,,,,,,,,,,,,,,,,,,,,,,,,,,,,,,,,,,,,,,,,,,,,,,,,,,,,,,,,,,,,,,,,,,,,,,,,,,,,,,,,,,,,,,,,,,,,,,,,,,,,,,,,,,,,,,,,,,,,,,,,,,,,,,,,,,,,,,,,,,,,,,,,,,,,,,,,,,,,,,,,,,,,,,,,,,,,,,,
1764669113.097408,54859,0,4427.820313,4452.563965,4560.512695,4590.128418,4466.794922,4561.282227,4599.487305,4459.487305,4624.487305,4422.563965,4540.897461,4557.820313,4615.641113,4411.794922,4423.077148,4551.282227,4596.794922,4587.94873,4548.333496,4433.717773,4434.615234,4619.102539,4569.358887,4556.922852,4465,4639.871582,4451.153809,4618.974121,4542.307617,4467.563965,4591.282227,4562.436035,2717,0,5,768,57295,,,,0,4,4,4,4,4,4,4,4,4,4,4,4,4,4,4,4,4,4,4,4,4,4,4,4,4,4,4,4,4,4,4,4,100,,,,,,,,,,,,,,,,,,,,,,,,,,,,,,,,,,,,,,,,,,,,,,,,,,,,,,,,,,,,,,,,,,,,,,,,,,,,,,,,,,,,,,,,,,,,,,,,,,,,,,,,,,,,,,,,,,,,,,,,,,,,,,,,,,,,,,,,,,,,,,,,,,,,,,,,,,,,,,,,,,,,,,,,,,,,,,,,,,,,,,,,,,,,,,,,,,,,,,,,,,,,,,
1764669113.101314,54860,0,4411.153809,4435.512695,4545.769043,4575,4457.307617,4550,4582.692383,4443.846191,4610.256348,4411.794922,4521.025879,4536.282227,4596.153809,4398.077148,4410.256348,4539.230957,4578.717773,4574.230957,4538.333496,4418.589844,4423.205078,4603.205078,4550.128418,4539.615234,4446.282227,4622.94873,4435.128418,4601.538574,4532.563965,4451.922852,4582.94873,4540.641113,2475,0,5,1024,57302,,,,0,4,4,4,4,4,4,4,4,4,4,4,4,4,4,4,4,4,4,4,4,4,4,4,4,4,4,4,4,4,4,4,4,100,,,,,,,,,,,,,,,,,,,,,,,,,,,,,,,,,,,,,,,,,,,,,,,,,,,,,,,,,,,,,,,,,,,,,,,,,,,,,,,,,,,,,,,,,,,,,,,,,,,,,,,,,,,,,,,,,,,,,,,,,,,,,,,,,,,,,,,,,,,,,,,,,,,,,,,,,,,,,,,,,,,,,,,,,,,,,,,,,,,,,,,,,,,,,,,,,,,,,,,,,,,,,,
1764669113.105220,54861,0,4386.410156,4409.743652,4520.512695,4550.128418,4432.436035,4528.974121,4555,4415,4584.487305,4402.563965,4495.769043,4510,4568.974121,4385.512695,4394.358887,4519.230957,4551.922852,4553.333496,4524.230957,4398.333496,4409.487305,4581.666504,4523.717773,4515.641113,4425.769043,4603.974121,4407.820313,4574.487305,4517.307617,4425.897461,4561.153809,4514.230957,2248,0,5,1024,57302,,,,0,4,4,4,4,4,4,4,4,4,4,4,4,4,4,4,4,4,4,4,4,4,4,4,4,4,4,4,4,4,4,4,4,100,,,,,,,,,,,,,,,,,,,,,,,,,,,,,,,,,,,13715,0,0.641227,-0.326782,-0.302856,0.624756,0.981565,0.014162,0.019534,16.333334,39,-25,,,,,,,,,,,,,,,,,,,,,,,,,,,,,,,,,,,,,,,,,,,,,,,,,,,,,,,,,,,,,,,,,,,,,,,,,,,,,,,,,,,,,,,,,,,,,,,,,,,,,,,,,,,,,,,,,,,,,,,,,,,,,,,,,,,,,,,,,,,,,,,,,,,,,,,,,,,,,,,,
1764669113.109126,54862,0,4366.922852,4389.358887,4497.436035,4528.205078,4405.897461,4509.487305,4530.897461,4389.871582,4561.410156,4399.871582,4478.461426,4492.692383,4548.717773,4380.384766,4382.307617,4501.794922,4531.153809,4536.666504,4514.102539,4383.333496,4400.769043,4566.666504,4505,4498.717773,4413.205078,4592.307617,4383.846191,4552.820313,4504.743652,4403.846191,4537.94873,4497.563965,2730,0,5,1280,57310,,,,0,4,4,4,4,4,4,4,4,4,4,4,4,4,4,4,4,4,4,4,4,4,4,4,4,4,4,4,4,4,4,4,4,100,,,,,,,,,,,,,,,,,,,,,,,,,,,,,,,,,,,,,,,,,,,,,,,,,,,,,,,,,,,,,,,,,,,,,,,,,,,,,,,,,,,,,,,,,,,,,,,,,,,,,,,,,,,,,,,,,,,,,,,,,,,,,,,,,,,,,,,,,,,,,,,,,,,,,,,,,,,,,,,,,,,,,,,,,,,,,,,,,,,,,,,,,,,,,,,,,,,,,,,,,,,,,,
1764669113.113032,54863,0,4362.179688,4383.974121,4488.077148,4518.846191,4391.538574,4500.897461,4522.179688,4382.436035,4551.794922,4402.563965,4476.666504,4491.410156,4544.487305,4384.615234,4379.487305,4495.897461,4526.025879,4533.333496,4514.358887,4379.871582,4400.641113,4565.769043,4502.307617,4496.410156,4410.769043,4590.897461,4375.897461,4547.05127,4501.410156,4396.410156,4526.282227,4497.820313,2445,0,5,1280,57310,,,,0,4,4,4,4,4,4,4,4,4,4,4,4,4,4,4,4,4,4,4,4,4,4,4,4,4,4,4,4,4,4,4,4,100,,,,,,,,,,,,,,,,,,,,,,,,,,,,,,,,,,,,,,,,,,,,,,,,,,,,,,,,,,,,,,,,,,,,,,,,,,,,,,,,,,,,,,,,,,,,,,,,,,,,,,,,,,,,,,,,,,,,,,,,,,,,,,,,,,,,,,,,,,,,,,,,,,,,,,,,,,,,,,,,,,,,,,,,,,,,,,,,,,,,,,,,,,,,,,,,,,,,,,,,,,,,,,
1764669113.116938,54864,0,4372.179688,4394.615234,4496.153809,4524.743652,4395.384766,4507.05127,4531.922852,4395.512695,4558.846191,4407.436035,4488.717773,4504.358887,4556.538574,4395.897461,4387.436035,4504.102539,4536.922852,4545.769043,4525.897461,4388.077148,4408.077148,4578.077148,4515.128418,4507.692383,4415.384766,4597.307617,4387.563965,4557.94873,4508.205078,4405.641113,4532.307617,4512.436035,2890,0,5,1536,57318,,,,0,4,4,4,4,4,4,4,4,4,4,4,4,4,4,4,4,4,4,4,4,4,4,4,4,4,4,4,4,4,4,4,4,100,,,,,,,,,,,,,,,,,,,,,,,,,,,,,,,,,,,,,,,,,,,,,,,,,,,,,,,,,,,,,,,,,,,,,,,,,,,,,,,,,,,,,,,,,,,,,,,,,,,,,,,,,,,,,,,,,,,,,,,,,,,,,,,,,,,,,,,,,,,,,,,,,,,,,,,,,,,,,,,,,,,,,,,,,,,,,,,,,,,,,,,,,,,,,,,,,,,,,,,,,,,,,,
1764669113.120844,54865,0,4389.358887,4413.205078,4514.615234,4540.769043,4412.820313,4523.333496,4553.333496,4419.358887,4577.05127,4413.333496,4505.641113,4522.692383,4575.897461,4409.102539,4402.05127,4520.897461,4555.897461,4566.282227,4541.922852,4401.410156,4418.974121,4595.384766,4534.230957,4524.743652,4421.794922,4606.153809,4410.512695,4577.436035,4520.897461,4424.358887,4550.128418,4530.897461,2943,0,5,1536,57318,,,,0,4,4,4,4,4,4,4,4,4,4,4,4,4,4,4,4,4,4,4,4,4,4,4,4,4,4,4,4,4,4,4,4,100,,,,,,,,,,,,,,,,,,,,,,,,,,,,,,,,,,,13716,0,0.641254,-0.326782,-0.302673,0.624817,0.981565,0.014162,0.019534,16.666666,38.5,-25.333334,,,,,,,,,,,,,,,,,,,,,,,,,,,,,,,,,,,,,,,,,,,,,,,,,,,,,,,,,,,,,,,,,,,,,,,,,,,,,,,,,,,,,,,,,,,,,,,,,,,,,,,,,,,,,,,,,,,,,,,,,,,,,,,,,,,,,,,,,,,,,,,,,,,,,,,,,,,,,,,,
1764669113.124750,54866,0,4402.94873,4428.077148,4531.153809,4556.410156,4431.025879,4539.487305,4573.333496,4438.077148,4595,4419.871582,4516.153809,4535.256348,4590.128418,4417.563965,4414.358887,4533.717773,4570.512695,4580.256348,4550.384766,4409.615234,4425.769043,4606.538574,4547.179688,4536.794922,4424.358887,4611.538574,4429.487305,4593.205078,4531.538574,4440.769043,4565.641113,4540.897461,1790,0,5,1792,57326,,,,0,4,4,4,4,4,4,4,4,4,4,4,4,4,4,4,4,4,4,4,4,4,4,4,4,4,4,4,4,4,4,4,4,100,,,,,,,,,,,,,,,,,,,,,,,,,,,,,,,,,,,,,,,,,,,,,,,,,,,,,,,,,,,,,,,,,,,,,,,,,,,,,,,,,,,,,,,,,,,,,,,,,,,,,,,,,,,,,,,,,,,,,,,,,,,,,,,,,,,,,,,,,,,,,,,,,,,,,,,,,,,,,,,,,,,,,,,,,,,,,,,,,,,,,,,,,,,,,,,,,,,,,,,,,,,,,,
1764669113.128656,54867,0,4403.974121,4429.615234,4535.384766,4561.282227,4437.436035,4545.128418,4579.871582,4438.974121,4601.410156,4424.230957,4513.461426,4534.358887,4589.871582,4415.897461,4415.384766,4531.153809,4570.512695,4574.615234,4541.922852,4404.871582,4422.307617,4603.205078,4544.743652,4535.641113,4420.641113,4609.358887,4431.538574,4595,4533.333496,4443.974121,4565.384766,4535.384766,2750,0,5,1792,57326,,,,0,4,4,4,4,4,4,4,4,4,4,4,4,4,4,4,4,4,4,4,4,4,4,4,4,4,4,4,4,4,4,4,4,100,,,,,,,,,,,,,,,,,,,,,,,,,,,,,,,,,,,,,,,,,,,,,,,,,,,,,,,,,,,,,,,,,,,,,,,,,,,,,,,,,,,,,,,,,,,,,,,,,,,,,,,,,,,,,,,,,,,,,,,,,,,,,,,,,,,,,,,,,,,,,,,,,,,,,,,,,,,,,,,,,,,,,,,,,,,,,,,,,,,,,,,,,,,,,,,,,,,,,,,,,,,,,,
1764669113.132562,54868,0,4391.794922,4416.922852,4525.641113,4551.922852,4428.461426,4536.794922,4569.615234,4421.153809,4591.025879,4421.794922,4499.871582,4520.897461,4575.769043,4405,4403.589844,4512.692383,4555,4549.487305,4519.230957,4388.589844,4408.461426,4585.384766,4528.077148,4520.897461,4413.717773,4599.743652,4415.384766,4581.410156,4524.743652,4431.025879,4547.179688,4517.820313,2599,0,5,2048,57334,,,,0,4,4,4,4,4,4,4,4,4,4,4,4,4,4,4,4,4,4,4,4,4,4,4,4,4,4,4,4,4,4,4,4,100,,,,,,,,,,,,,,,,,,,,,,,,,,,,,,,,,,,,,,,,,,,,,,,,,,,,,,,,,,,,,,,,,,,,,,,,,,,,,,,,,,,,,,,,,,,,,,,,,,,,,,,,,,,,,,,,,,,,,,,,,,,,,,,,,,,,,,,,,,,,,,,,,,,,,,,,,,,,,,,,,,,,,,,,,,,,,,,,,,,,,,,,,,,,,,,,,,,,,,,,,,,,,,
1764669113.136468,54869,0,4374.615234,4399.102539,4510.256348,4535.641113,4411.922852,4521.025879,4550.769043,4397.05127,4570.256348,4411.538574,4485.256348,4505.384766,4559.102539,4392.94873,4387.563965,4491.538574,4534.615234,4521.666504,4497.692383,4372.307617,4392.94873,4564.358887,4509.230957,4502.820313,4410.641113,4588.205078,4392.94873,4561.794922,4511.410156,4410.384766,4523.077148,4500.384766,2830,0,5,2048,57334,,,,0,4,4,4,4,4,4,4,4,4,4,4,4,4,4,4,4,4,4,4,4,4,4,4,4,4,4,4,4,4,4,4,4,100,,,,,,,,,,,,,,,,,,,,,,,,,,,,,,,,,,,13717,0,0.641476,-0.32666,-0.301575,0.625183,1.003052,0.012697,0.049811,15.833333,37.333332,-25.333334,,,,,,,,,,,,,,,,,,,,,,,,,,,,,,,,,,,,,,,,,,,,,,,,,,,,,,,,,,,,,,,,,,,,,,,,,,,,,,,,,,,,,,,,,,,,,,,,,,,,,,,,,,,,,,,,,,,,,,,,,,,,,,,,,,,,,,,,,,,,,,,,,,,,,,,,,,,,,,,,
1764669113.140374,54870,0,4365.256348,4388.846191,4501.794922,4525,4400.897461,4509.871582,4537.94873,4383.589844,4553.077148,4400.512695,4480.769043,4500.256348,4553.717773,4388.589844,4380.769043,4486.025879,4525.256348,4512.692383,4493.974121,4369.358887,4386.922852,4555.256348,4502.563965,4495.512695,4416.666504,4582.820313,4381.153809,4550.641113,4502.820313,4396.922852,4511.153809,4495.384766,2940,0,5,2304,57342,,,,0,4,4,4,4,4,4,4,4,4,4,4,4,4,4,4,4,4,4,4,4,4,4,4,4,4,4,4,4,4,4,4,4,100,,,,,,,,,,,,,,,,,,,,,,,,,,,,,,,,,,,,,,,,,,,,,,,,,,,,,,,,,,,,,,,,,,,,,,,,,,,,,,,,,,,,,,,,,,,,,,,,,,,,,,,,,,,,,,,,,,,,,,,,,,,,,,,,,,,,,,,,,,,,,,,,,,,,,,,,,,,,,,,,,,,,,,,,,,,,,,,,,,,,,,,,,,,,,,,,,,,,,,,,,,,,,,
1764669113.144280,54871,0,4371.153809,4393.589844,4507.307617,4529.102539,4403.333496,4511.666504,4541.410156,4389.743652,4551.538574,4398.846191,4490.256348,4510.769043,4565.128418,4395.512695,4389.871582,4503.717773,4535.256348,4531.538574,4512.820313,4383.717773,4394.487305,4566.153809,4514.230957,4505.384766,4428.846191,4587.820313,4388.717773,4556.794922,4505,4401.025879,4520.384766,4506.538574,2868,0,5,2304,57342,,,,0,4,4,4,4,4,4,4,4,4,4,4,4,4,4,4,4,4,4,4,4,4,4,4,4,4,4,4,4,4,4,4,4,100,,,,,,,,,,,,,,,,,,,,,,,,,,,,,,,,,,,,,,,,,,,,,,,,,,,,,,,,,,,,,,,,,,,,,,,,,,,,,,,,,,,,,,,,,,,,,,,,,,,,,,,,,,,,,,,,,,,,,,,,,,,,,,,,,,,,,,,,,,,,,,,,,,,,,,,,,,,,,,,,,,,,,,,,,,,,,,,,,,,,,,,,,,,,,,,,,,,,,,,,,,,,,,
1764669113.148186,54872,0,4389.487305,4409.871582,4522.692383,4545.897461,4416.794922,4525.384766,4559.230957,4410.769043,4566.153809,4411.538574,4508.205078,4531.282227,4586.922852,4409.102539,4409.358887,4534.743652,4559.102539,4566.666504,4541.538574,4406.282227,4409.487305,4590.512695,4536.922852,4525.897461,4438.846191,4600.256348,4410.128418,4576.538574,4516.410156,4420.256348,4544.102539,4526.538574,2727,0,5,2560,57349,,,,0,4,4,4,4,4,4,4,4,4,4,4,4,4,4,4,4,4,4,4,4,4,4,4,4,4,4,4,4,4,4,4,4,100,,,,,,,,,,,,,,,,,,,,,,,,,,,,,,,,,,,,,,,,,,,,,,,2.353348,1.948186,2.899558,0.869807,1.041192,11.592388,2.924152,2.44224,0.996666,1.517732,66.850037,4.977381,3.420779,4.259677,2.958955,13.767111,2.768844,2.983057,1.57188,1.563452,10.957871,2.113461,2.345647,1.36336,1.966133,4.771408,2.019482,2.430816,0.835672,1.194805,3.375671,2.765969,3.176711,0.990474,1.357552,6.711492,2.440109,2.76325,0.845836,1.515676,2.95486,1.707887,2.57335,1.740056,1.206521,1.315936,2.202772,7.346319,3.214405,3.10435,1.513077,1.921678,1.754523,1.137924,1.110036,2.796627,1.530163,3.036927,0.961005,1.070783,0.987755,1.304535,2.318161,0.880465,1.204371,0.765723,0.716935,0.744998,0.75012,0.843184,1.113231,2.095603,1.863832,1.274207,1.239961,1.287206,1.813636,3.657353,1.708957,1.708672,2.156486,2.380091,3.957643,1.222345,1.420552,2.110468,2.468325,4.77547,1.767497,2.19662,1.539904,1.464106,3.392717,0.982648,1.479355,1.129849,2.929157,4.172707,0.969221,1.328381,2.146608,2.348499,3.517043,0.845871,1.700851,1.878702,2.926484,3.735816,1.017866,1.604404,1.731735,2.726705,2.862258,0.834961,1.11163,1.735202,2.767778,3.149354,1.05796,1.399343,4.588371,3.944807,12.961509,4.219731,6.429087,1.274588,2.122242,2.601067,1.106815,1.165804,2.807148,2.463656,2.332511,1.351592,1.768866,1.869768,2.848783,3.179952,0.994533,1.344758,1.882036,1.054441,1.312503,0.535875,0.583099,10.628451,2.372804,2.676133,1.940254,2.054879,6.567409,3.346663,2.592295,1.846794,2.667032,82.789017,9.670025,3.951758,7.640251,4.459018
1764669113.152092,54873,0,4409.871582,4427.307617,4537.692383,4565,4432.692383,4542.307617,4580.641113,4432.94873,4587.436035,4432.563965,4524.230957,4550.128418,4606.282227,4420.512695,4425.512695,4559.743652,4582.05127,4594.743652,4560.384766,4422.436035,4420.384766,4612.563965,4556.922852,4542.692383,4439.743652,4612.692383,4431.410156,4597.692383,4529.358887,4442.436035,4566.410156,4543.077148,2891,0,5,2560,57349,,,,0,4,4,4,4,4,4,4,4,4,4,4,4,4,4,4,4,4,4,4,4,4,4,4,4,4,4,4,4,4,4,4,4,100,,,,,,,,,,,,,,,,,,,,,,,,,,,,,,,,,,,13718,0,0.641465,-0.326721,-0.301025,0.625427,1.003052,0.012697,0.049811,15.833333,37.333332,-25.333334,,,,,,,,,,,,,,,,,,,,,,,,,,,,,,,,,,,,,,,,,,,,,,,,,,,,,,,,,,,,,,,,,,,,,,,,,,,,,,,,,,,,,,,,,,,,,,,,,,,,,,,,,,,,,,,,,,,,,,,,,,,,,,,,,,,,,,,,,,,,,,,,,,,,,,,,,,,,,,,,
1764669113.155998,54874,0,4421.922852,4436.153809,4543.589844,4574.871582,4443.205078,4553.205078,4593.846191,4444.615234,4603.333496,4448.333496,4530.641113,4557.692383,4613.461426,4423.077148,4428.205078,4564.358887,4591.282227,4598.333496,4557.05127,4423.333496,4420.256348,4618.717773,4563.461426,4544.743652,4432.05127,4617.94873,4441.025879,4607.94873,4536.410156,4454.358887,4575.256348,4548.461426,1819,0,5,2560,57357,,,,0,4,4,4,4,4,4,4,4,4,4,4,4,4,4,4,4,4,4,4,4,4,4,4,4,4,4,4,4,4,4,4,4,100,,,,,,,,,,,,,,,,,,,,,,,,,,,,,,,,,,,,,,,,,,,,,,,,,,,,,,,,,,,,,,,,,,,,,,,,,,,,,,,,,,,,,,,,,,,,,,,,,,,,,,,,,,,,,,,,,,,,,,,,,,,,,,,,,,,,,,,,,,,,,,,,,,,,,,,,,,,,,,,,,,,,,,,,,,,,,,,,,,,,,,,,,,,,,,,,,,,,,,,,,,,,,,
1764669113.159904,54875,0,4420,4431.538574,4537.563965,4568.974121,4443.461426,4553.205078,4592.179688,4441.410156,4605.256348,4446.153809,4524.871582,4550.641113,4605.512695,4414.487305,4415.384766,4546.666504,4582.692383,4575.769043,4533.077148,4409.358887,4408.205078,4605.512695,4553.846191,4530,4420.641113,4612.436035,4434.743652,4601.153809,4533.333496,4448.846191,4568.077148,4540.769043,2442,0,5,2560,57357,,,,0,4,4,4,4,4,4,4,4,4,4,4,4,4,4,4,4,4,4,4,4,4,4,4,4,4,4,4,4,4,4,4,4,100,,,,,,,,,,,,,,,,,,,,,,,,,,,,,,,,,,,,,,,,,,,,,,,,,,,,,,,,,,,,,,,,,,,,,,,,,,,,,,,,,,,,,,,,,,,,,,,,,,,,,,,,,,,,,,,,,,,,,,,,,,,,,,,,,,,,,,,,,,,,,,,,,,,,,,,,,,,,,,,,,,,,,,,,,,,,,,,,,,,,,,,,,,,,,,,,,,,,,,,,,,,,,,
1764669113.163810,54876,1,4418.876953,4430.354004,4536.323242,4567.57959,4442.261719,4552.220703,4590.620605,4440.030762,4603.440918,4445.338379,4523.610352,4549.430664,4604.256348,4413.276855,4413.989746,4544.94873,4581.410156,4573.871582,4531.600098,4408.374512,4407.18457,4604.056641,4552.687012,4528.492188,4419.164063,4611.102539,4432.876953,4599.451172,4532.65625,4447.200195,4566.425781,4539.020508,0,0,5,0,0,,,,0,4,4,4,4,4,4,4,4,4,4,4,4,4,4,4,4,4,4,4,4,4,4,4,4,4,4,4,4,4,4,4,4,100,,,,,,,,,,,,,,,,,,,,,,,,,,,,,,,,,,,,,,,,,,,,,,,,,,,,,,,,,,,,,,,,,,,,,,,,,,,,,,,,,,,,,,,,,,,,,,,,,,,,,,,,,,,,,,,,,,,,,,,,,,,,,,,,,,,,,,,,,,,,,,,,,,,,,,,,,,,,,,,,,,,,,,,,,,,,,,,,,,,,,,,,,,,,,,,,,,,,,,,,,,,,,,
1764669113.167716,54877,1,4417.753906,4429.169434,4535.082031,4566.18457,4441.061523,4551.23584,4589.061523,4438.651367,4601.625488,4444.522949,4522.348633,4548.220703,4603,4412.066895,4412.594727,4543.230957,4580.128418,4571.974121,4530.123047,4407.389648,4406.164063,4602.600098,4551.52832,4526.984375,4417.687012,4609.769043,4431.010254,4597.748535,4531.979492,4445.553711,4564.774414,4537.271973,0,0,5,0,0,,,,0,4,4,4,4,4,4,4,4,4,4,4,4,4,4,4,4,4,4,4,4,4,4,4,4,4,4,4,4,4,4,4,4,100,,,,,,,,,,,,,,,,,,,,,,,,,,,,,,,,,,,,,,,,,,,,,,,,,,,,,,,,,,,,,,,,,,,,,,,,,,,,,,,,,,,,,,,,,,,,,,,,,,,,,,,,,,,,,,,,,,,,,,,,,,,,,,,,,,,,,,,,,,,,,,,,,,,,,,,,,,,,,,,,,,,,,,,,,,,,,,,,,,,,,,,,,,,,,,,,,,,,,,,,,,,,,,
1764669113.171622,54878,1,4416.630859,4427.984375,4533.84082,4564.789551,4439.861328,4550.251465,4587.502441,4437.271973,4599.810059,4443.70752,4521.087402,4547.010254,4601.743652,4410.856445,4411.200195,4541.512695,4578.846191,4570.077148,4528.645996,4406.405273,4405.143555,4601.143555,4550.369141,4525.477051,4416.210449,4608.436035,4429.143555,4596.046387,4531.302734,4443.907715,4563.123047,4535.522949,0,0,5,0,0,,,,0,4,4,4,4,4,4,4,4,4,4,4,4,4,4,4,4,4,4,4,4,4,4,4,4,4,4,4,4,4,4,4,4,100,,,,,,,,,,,,,,,,,,,,,,,,,,,,,,,,,,,,,,,,,,,,,,,,,,,,,,,,,,,,,,,,,,,,,,,,,,,,,,,,,,,,,,,,,,,,,,,,,,,,,,,,,,,,,,,,,,,,,,,,,,,,,,,,,,,,,,,,,,,,,,,,,,,,,,,,,,,,,,,,,,,,,,,,,,,,,,,,,,,,,,,,,,,,,,,,,,,,,,,,,,,,,,
1764669113.175528,54879,1,4415.507813,4426.799805,4532.600098,4563.39502,4438.661621,4549.266602,4585.943359,4435.89209,4597.994629,4442.89209,4519.825684,4545.799805,4600.487305,4409.645996,4409.805176,4539.794922,4577.563965,4568.179688,4527.169434,4405.42041,4404.123047,4599.687012,4549.210449,4523.969238,4414.733398,4607.102539,4427.276855,4594.34375,4530.625488,4442.261719,4561.47168,4533.774414,0,0,5,0,0,,,,0,4,4,4,4,4,4,4,4,4,4,4,4,4,4,4,4,4,4,4,4,4,4,4,4,4,4,4,4,4,4,4,4,100,,,,,,,,,,,,,,,,,,,,,,,,,,,,,,,,,,,,,,,,,,,,,,,,,,,,,,,,,,,,,,,,,,,,,,,,,,,,,,,,,,,,,,,,,,,,,,,,,,,,,,,,,,,,,,,,,,,,,,,,,,,,,,,,,,,,,,,,,,,,,,,,,,,,,,,,,,,,,,,,,,,,,,,,,,,,,,,,,,,,,,,,,,,,,,,,,,,,,,,,,,,,,,
1764669113.179434,54880,1,4414.384766,4425.615234,4531.358887,4562,4437.461426,4548.282227,4584.384766,4434.512695,4596.179688,4442.077148,4518.563965,4544.589844,4599.230957,4408.436035,4408.410156,4538.077148,4576.282227,4566.282227,4525.692383,4404.436035,4403.102539,4598.230957,4548.05127,4522.461426,4413.256348,4605.769043,4425.410156,4592.641113,4529.94873,4440.615234,4559.820313,4532.025879,0,0,5,0,0,,,,0,4,4,4,4,4,4,4,4,4,4,4,4,4,4,4,4,4,4,4,4,4,4,4,4,4,4,4,4,4,4,4,4,100,,,,,,,,,,,,,,,,,,,,,,,,,,,,,,,,,,,,,,,,,,,,,,,,,,,,,,,,,,,,,,,,,,,,,,,,,,,,,,,,,,,,,,,,,,,,,,,,,,,,,,,,,,,,,,,,,,,,,,,,,,,,,,,,,,,,,,,,,,,,,,,,,,,,,,,,,,,,,,,,,,,,,,,,,,,,,,,,,,,,,,,,,,,,,,,,,,,,,,,,,,,,,,
1764669113.183340,54881,1,4413.261719,4424.430664,4530.118164,4560.60498,4436.261719,4547.297363,4582.825684,4433.133301,4594.364258,4441.261719,4517.302734,4543.379395,4597.974121,4407.225586,4407.015625,4536.358887,4575,4564.384766,4524.215332,4403.451172,4402.082031,4596.774414,4546.89209,4520.953613,4411.779297,4604.436035,4423.543457,4590.938477,4529.271973,4438.969238,4558.169434,4530.276855,0,0,5,0,0,,,,0,4,4,4,4,4,4,4,4,4,4,4,4,4,4,4,4,4,4,4,4,4,4,4,4,4,4,4,4,4,4,4,4,100,,,,,,,,,,,,,,,,,,,,,,,,,,,,,,,,,,,,,,,,,,,,,,,,,,,,,,,,,,,,,,,,,,,,,,,,,,,,,,,,,,,,,,,,,,,,,,,,,,,,,,,,,,,,,,,,,,,,,,,,,,,,,,,,,,,,,,,,,,,,,,,,,,,,,,,,,,,,,,,,,,,,,,,,,,,,,,,,,,,,,,,,,,,,,,,,,,,,,,,,,,,,,,
1764669113.187246,54882,1,4412.138672,4423.246094,4528.876953,4559.210449,4435.061523,4546.312988,4581.266602,4431.753906,4592.548828,4440.446289,4516.041016,4542.169434,4596.717773,4406.015625,4405.620605,4534.641113,4573.717773,4562.487305,4522.738281,4402.466797,4401.061523,4595.317871,4545.733398,4519.446289,4410.302734,4603.102539,4421.676758,4589.23584,4528.594727,4437.323242,4556.518066,4528.52832,0,0,5,0,0,,,,0,4,4,4,4,4,4,4,4,4,4,4,4,4,4,4,4,4,4,4,4,4,4,4,4,4,4,4,4,4,4,4,4,100,,,,,,,,,,,,,,,,,,,,,,,,,,,,,,,,,,,,,,,,,,,,,,,,,,,,,,,,,,,,,,,,,,,,,,,,,,,,,,,,,,,,,,,,,,,,,,,,,,,,,,,,,,,,,,,,,,,,,,,,,,,,,,,,,,,,,,,,,,,,,,,,,,,,,,,,,,,,,,,,,,,,,,,,,,,,,,,,,,,,,,,,,,,,,,,,,,,,,,,,,,,,,,
1764669113.191152,54883,1,4411.015625,4422.061523,4527.635742,4557.81543,4433.861328,4545.328125,4579.70752,4430.374512,4590.733398,4439.630859,4514.779297,4540.958984,4595.461426,4404.805176,4404.225586,4532.922852,4572.436035,4560.589844,4521.261719,4401.481934,4400.041016,4593.861328,4544.574219,4517.938477,4408.825684,4601.769043,4419.810059,4587.533203,4527.917969,4435.676758,4554.866699,4526.779297,0,0,5,0,0,,,,0,4,4,4,4,4,4,4,4,4,4,4,4,4,4,4,4,4,4,4,4,4,4,4,4,4,4,4,4,4,4,4,4,100,,,,,,,,,,,,,,,,,,,,,,,,,,,,,,,,,,,,,,,,,,,,,,,,,,,,,,,,,,,,,,,,,,,,,,,,,,,,,,,,,,,,,,,,,,,,,,,,,,,,,,,,,,,,,,,,,,,,,,,,,,,,,,,,,,,,,,,,,,,,,,,,,,,,,,,,,,,,,,,,,,,,,,,,,,,,,,,,,,,,,,,,,,,,,,,,,,,,,,,,,,,,,,
1764669113.195058,54884,1,4409.89209,4420.876953,4526.39502,4556.42041,4432.661621,4544.34375,4578.148926,4428.994629,4588.917969,4438.81543,4513.518066,4539.748535,4594.205078,4403.594727,4402.830566,4531.205078,4571.153809,4558.692383,4519.784668,4400.497559,4399.020508,4592.405273,4543.415527,4516.430664,4407.348633,4600.436035,4417.943359,4585.830566,4527.241211,4434.030762,4553.215332,4525.030762,0,0,5,0,0,,,,0,4,4,4,4,4,4,4,4,4,4,4,4,4,4,4,4,4,4,4,4,4,4,4,4,4,4,4,4,4,4,4,4,100,,,,,,,,,,,,,,,,,,,,,,,,,,,,,,,,,,,,,,,,,,,,,,,,,,,,,,,,,,,,,,,,,,,,,,,,,,,,,,,,,,,,,,,,,,,,,,,,,,,,,,,,,,,,,,,,,,,,,,,,,,,,,,,,,,,,,,,,,,,,,,,,,,,,,,,,,,,,,,,,,,,,,,,,,,,,,,,,,,,,,,,,,,,,,,,,,,,,,,,,,,,,,,
1764669113.198964,54885,1,4408.769043,4419.692383,4525.153809,4555.025879,4431.461426,4543.358887,4576.589844,4427.615234,4587.102539,4438,4512.256348,4538.538574,4592.94873,4402.384766,4401.436035,4529.487305,4569.871582,4556.794922,4518.307617,4399.512695,4398,4590.94873,4542.256348,4514.922852,4405.871582,4599.102539,4416.077148,4584.128418,4526.563965,4432.384766,4551.563965,4523.282227,0,0,5,0,0,,,,0,4,4,4,4,4,4,4,4,4,4,4,4,4,4,4,4,4,4,4,4,4,4,4,4,4,4,4,4,4,4,4,4,100,,,,,,,,,,,,,,,,,,,,,,,,,,,,,,,,,,,,,,,,,,,,,,,,,,,,,,,,,,,,,,,,,,,,,,,,,,,,,,,,,,,,,,,,,,,,,,,,,,,,,,,,,,,,,,,,,,,,,,,,,,,,,,,,,,,,,,,,,,,,,,,,,,,,,,,,,,,,,,,,,,,,,,,,,,,,,,,,,,,,,,,,,,,,,,,,,,,,,,,,,,,,,,
1764669113.202870,54886,1,4407.645996,4418.507813,4523.912598,4553.630859,4430.261719,4542.374512,4575.030762,4426.23584,4585.287109,4437.18457,4510.994629,4537.328125,4591.692383,4401.174316,4400.041016,4527.769043,4568.589844,4554.897461,4516.830566,4398.52832,4396.979492,4589.492188,4541.097656,4513.415527,4404.39502,4597.769043,4414.210449,4582.425781,4525.887207,4430.738281,4549.912598,4521.533203,0,0,5,0,0,,,,0,4,4,4,4,4,4,4,4,4,4,4,4,4,4,4,4,4,4,4,4,4,4,4,4,4,4,4,4,4,4,4,4,100,,,,,,,,,,,,,,,,,,,,,,,,,,,,,,,,,,,,,,,,,,,,,,,,,,,,,,,,,,,,,,,,,,,,,,,,,,,,,,,,,,,,,,,,,,,,,,,,,,,,,,,,,,,,,,,,,,,,,,,,,,,,,,,,,,,,,,,,,,,,,,,,,,,,,,,,,,,,,,,,,,,,,,,,,,,,,,,,,,,,,,,,,,,,,,,,,,,,,,,,,,,,,,
1764669113.206776,54887,1,4406.522949,4417.323242,4522.671875,4552.23584,4429.061523,4541.389648,4573.47168,4424.856445,4583.47168,4436.369141,4509.733398,4536.118164,4590.436035,4399.963867,4398.645996,4526.05127,4567.307617,4553,4515.354004,4397.543457,4395.958984,4588.036133,4539.938477,4511.907715,4402.917969,4596.436035,4412.34375,4580.723145,4525.210449,4429.092285,4548.261719,4519.784668,0,0,5,0,0,,,,0,4,4,4,4,4,4,4,4,4,4,4,4,4,4,4,4,4,4,4,4,4,4,4,4,4,4,4,4,4,4,4,4,100,,,,,,,,,,,,,,,,,,,,,,,,,,,,,,,,,,,,,,,,,,,,,,,,,,,,,,,,,,,,,,,,,,,,,,,,,,,,,,,,,,,,,,,,,,,,,,,,,,,,,,,,,,,,,,,,,,,,,,,,,,,,,,,,,,,,,,,,,,,,,,,,,,,,,,,,,,,,,,,,,,,,,,,,,,,,,,,,,,,,,,,,,,,,,,,,,,,,,,,,,,,,,,
1764669113.210682,54888,1,4405.399902,4416.138672,4521.430664,4550.84082,4427.861328,4540.405273,4571.912598,4423.477051,4581.65625,4435.553711,4508.47168,4534.907715,4589.179688,4398.753906,4397.251465,4524.333496,4566.025879,4551.102539,4513.876953,4396.559082,4394.938477,4586.57959,4538.779297,4510.399902,4401.440918,4595.102539,4410.477051,4579.020508,4524.533203,4427.446289,4546.610352,4518.036133,0,0,5,0,0,,,,0,4,4,4,4,4,4,4,4,4,4,4,4,4,4,4,4,4,4,4,4,4,4,4,4,4,4,4,4,4,4,4,4,100,,,,,,,,,,,,,,,,,,,,,,,,,,,,,,,,,,,,,,,,,,,,,,,,,,,,,,,,,,,,,,,,,,,,,,,,,,,,,,,,,,,,,,,,,,,,,,,,,,,,,,,,,,,,,,,,,,,,,,,,,,,,,,,,,,,,,,,,,,,,,,,,,,,,,,,,,,,,,,,,,,,,,,,,,,,,,,,,,,,,,,,,,,,,,,,,,,,,,,,,,,,,,,
1764669113.214588,54889,1,4404.276855,4414.953613,4520.189941,4549.446289,4426.661621,4539.42041,4570.354004,4422.097656,4579.84082,4434.738281,4507.210449,4533.697266,4587.922852,4397.543457,4395.856445,4522.615234,4564.743652,4549.205078,4512.399902,4395.574219,4393.917969,4585.123047,4537.620605,4508.89209,4399.963867,4593.769043,4408.610352,4577.317871,4523.856445,4425.799805,4544.958984,4516.287109,0,0,5,0,0,,,,0,4,4,4,4,4,4,4,4,4,4,4,4,4,4,4,4,4,4,4,4,4,4,4,4,4,4,4,4,4,4,4,4,100,,,,,,,,,,,,,,,,,,,,,,,,,,,,,,,,,,,13719,1,0.641284,-0.326983,-0.300581,0.625689,1.001517,0.012278,0.049392,15.690476,37.357143,-25.119047,,,,,,,,,,,,,,,,,,,,,,,,,,,,,,,,,,,,,,,,,,,,,,,,,,,,,,,,,,,,,,,,,,,,,,,,,,,,,,,,,,,,,,,,,,,,,,,,,,,,,,,,,,,,,,,,,,,,,,,,,,,,,,,,,,,,,,,,,,,,,,,,,,,,,,,,,,,,,,,,
1764669113.218494,54890,1,4403.153809,4413.769043,4518.94873,4548.05127,4425.461426,4538.436035,4568.794922,4420.717773,4578.025879,4433.922852,4505.94873,4532.487305,4586.666504,4396.333496,4394.461426,4520.897461,4563.461426,4547.307617,4510.922852,4394.589844,4392.897461,4583.666504,4536.461426,4507.384766,4398.487305,4592.436035,4406.743652,4575.615234,4523.179688,4424.153809,4543.307617,4514.538574,0,0,5,0,0,,,,0,4,4,4,4,4,4,4,4,4,4,4,4,4,4,4,4,4,4,4,4,4,4,4,4,4,4,4,4,4,4,4,4,100,,,,,,,,,,,,,,,,,,,,,,,,,,,,,,,,,,,,,,,,,,,,,,,,,,,,,,,,,,,,,,,,,,,,,,,,,,,,,,,,,,,,,,,,,,,,,,,,,,,,,,,,,,,,,,,,,,,,,,,,,,,,,,,,,,,,,,,,,,,,,,,,,,,,,,,,,,,,,,,,,,,,,,,,,,,,,,,,,,,,,,,,,,,,,,,,,,,,,,,,,,,,,,
1764669113.222400,54891,1,4402.030762,4412.584473,4517.70752,4546.65625,4424.261719,4537.451172,4567.23584,4419.338379,4576.210449,4433.10791,4504.687012,4531.276855,4585.410156,4395.123047,4393.066895,4519.179688,4562.179688,4545.410156,4509.446289,4393.60498,4391.876953,4582.210449,4535.302734,4505.876953,4397.010254,4591.102539,4404.876953,4573.912598,4522.502441,4422.507813,4541.65625,4512.789551,0,0,5,0,0,,,,0,4,4,4,4,4,4,4,4,4,4,4,4,4,4,4,4,4,4,4,4,4,4,4,4,4,4,4,4,4,4,4,4,100,,,,,,,,,,,,,,,,,,,,,,,,,,,,,,,,,,,13720,1,0.641102,-0.327244,-0.300136,0.62595,0.999983,0.01186,0.048974,15.547619,37.380951,-24.904762,,,,,,,,,,,,,,,,,,,,,,,,,,,,,,,,,,,,,,,,,,,,,,,,,,,,,,,,,,,,,,,,,,,,,,,,,,,,,,,,,,,,,,,,,,,,,,,,,,,,,,,,,,,,,,,,,,,,,,,,,,,,,,,,,,,,,,,,,,,,,,,,,,,,,,,,,,,,,,,,
1764669113.226307,54892,1,4400.907715,4411.399902,4516.466797,4545.261719,4423.061523,4536.466797,4565.676758,4417.958984,4574.39502,4432.29248,4503.425781,4530.066895,4584.153809,4393.912598,4391.671875,4517.461426,4560.897461,4543.512695,4507.969238,4392.620605,4390.856445,4580.753906,4534.143555,4504.369141,4395.533203,4589.769043,4403.010254,4572.210449,4521.825684,4420.861328,4540.005371,4511.041016,0,0,5,0,0,,,,0,4,4,4,4,4,4,4,4,4,4,4,4,4,4,4,4,4,4,4,4,4,4,4,4,4,4,4,4,4,4,4,4,100,,,,,,,,,,,,,,,,,,,,,,,,,,,,,,,,,,,,,,,,,,,,,,,,,,,,,,,,,,,,,,,,,,,,,,,,,,,,,,,,,,,,,,,,,,,,,,,,,,,,,,,,,,,,,,,,,,,,,,,,,,,,,,,,,,,,,,,,,,,,,,,,,,,,,,,,,,,,,,,,,,,,,,,,,,,,,,,,,,,,,,,,,,,,,,,,,,,,,,,,,,,,,,
1764669113.230213,54893,1,4399.784668,4410.215332,4515.225586,4543.866699,4421.861328,4535.481934,4564.118164,4416.57959,4572.57959,4431.477051,4502.164063,4528.856445,4582.897461,4392.702637,4390.276855,4515.743652,4559.615234,4541.615234,4506.492188,4391.635742,4389.835938,4579.297363,4532.984375,4502.861328,4394.056641,4588.436035,4401.143555,4570.507813,4521.148926,4419.215332,4538.354004,4509.29248,0,0,5,0,0,,,,0,4,4,4,4,4,4,4,4,4,4,4,4,4,4,4,4,4,4,4,4,4,4,4,4,4,4,4,4,4,4,4,4,100,,,,,,,,,,,,,,,,,,,,,,,,,,,,,,,,,,,13721,1,0.640921,-0.327506,-0.299691,0.626212,0.998448,0.011441,0.048555,15.404762,37.404762,-24.690475,,,,,,,,,,,,,,,,,,,,,,,,,,,,,,,,,,,,,,,,,,,,,,,,,,,,,,,,,,,,,,,,,,,,,,,,,,,,,,,,,,,,,,,,,,,,,,,,,,,,,,,,,,,,,,,,,,,,,,,,,,,,,,,,,,,,,,,,,,,,,,,,,,,,,,,,,,,,,,,,
1764669113.234119,54894,1,4398.661621,4409.030762,4513.984375,4542.47168,4420.661621,4534.497559,4562.559082,4415.200195,4570.76416,4430.661621,4500.902344,4527.645996,4581.641113,4391.492188,4388.881836,4514.025879,4558.333496,4539.717773,4505.015625,4390.651367,4388.81543,4577.84082,4531.825684,4501.354004,4392.57959,4587.102539,4399.276855,4568.805176,4520.47168,4417.569336,4536.702637,4507.543457,0,0,5,0,0,,,,0,4,4,4,4,4,4,4,4,4,4,4,4,4,4,4,4,4,4,4,4,4,4,4,4,4,4,4,4,4,4,4,4,100,,,,,,,,,,,,,,,,,,,,,,,,,,,,,,,,,,,,,,,,,,,,,,,,,,,,,,,,,,,,,,,,,,,,,,,,,,,,,,,,,,,,,,,,,,,,,,,,,,,,,,,,,,,,,,,,,,,,,,,,,,,,,,,,,,,,,,,,,,,,,,,,,,,,,,,,,,,,,,,,,,,,,,,,,,,,,,,,,,,,,,,,,,,,,,,,,,,,,,,,,,,,,,
1764669113.238025,54895,1,4397.538574,4407.846191,4512.743652,4541.077148,4419.461426,4533.512695,4561,4413.820313,4568.94873,4429.846191,4499.641113,4526.436035,4580.384766,4390.282227,4387.487305,4512.307617,4557.05127,4537.820313,4503.538574,4389.666504,4387.794922,4576.384766,4530.666504,4499.846191,4391.102539,4585.769043,4397.410156,4567.102539,4519.794922,4415.922852,4535.05127,4505.794922,0,0,5,0,0,,,,0,4,4,4,4,4,4,4,4,4,4,4,4,4,4,4,4,4,4,4,4,4,4,4,4,4,4,4,4,4,4,4,4,100,,,,,,,,,,,,,,,,,,,,,,,,,,,,,,,,,,,13722,1,0.640739,-0.327768,-0.299247,0.626474,0.996913,0.011023,0.048136,15.261905,37.42857,-24.476191,,,,,,,,,,,,,,,,,,,,,,,,,,,,,,,,,,,,,,,,,,,,,,,,,,,,,,,,,,,,,,,,,,,,,,,,,,,,,,,,,,,,,,,,,,,,,,,,,,,,,,,,,,,,,,,,,,,,,,,,,,,,,,,,,,,,,,,,,,,,,,,,,,,,,,,,,,,,,,,,
1764669113.241931,54896,1,4396.415527,4406.661621,4511.502441,4539.682129,4418.261719,4532.52832,4559.440918,4412.440918,4567.133301,4429.030762,4498.379395,4525.225586,4579.128418,4389.071777,4386.092285,4510.589844,4555.769043,4535.922852,4502.061523,4388.682129,4386.774414,4574.928223,4529.507813,4498.338379,4389.625488,4584.436035,4395.543457,4565.399902,4519.118164,4414.276855,4533.399902,4504.046387,0,0,5,0,0,,,,0,4,4,4,4,4,4,4,4,4,4,4,4,4,4,4,4,4,4,4,4,4,4,4,4,4,4,4,4,4,4,4,4,100,,,,,,,,,,,,,,,,,,,,,,,,,,,,,,,,,,,,,,,,,,,,,,,,,,,,,,,,,,,,,,,,,,,,,,,,,,,,,,,,,,,,,,,,,,,,,,,,,,,,,,,,,,,,,,,,,,,,,,,,,,,,,,,,,,,,,,,,,,,,,,,,,,,,,,,,,,,,,,,,,,,,,,,,,,,,,,,,,,,,,,,,,,,,,,,,,,,,,,,,,,,,,,
1764669113.245837,54897,1,4395.29248,4405.477051,4510.261719,4538.287109,4417.061523,4531.543457,4557.881836,4411.061523,4565.317871,4428.215332,4497.118164,4524.015625,4577.871582,4387.861328,4384.697266,4508.871582,4554.487305,4534.025879,4500.584473,4387.697266,4385.753906,4573.47168,4528.348633,4496.830566,4388.148926,4583.102539,4393.676758,4563.697266,4518.440918,4412.630859,4531.748535,4502.297363,0,0,5,0,0,,,,0,4,4,4,4,4,4,4,4,4,4,4,4,4,4,4,4,4,4,4,4,4,4,4,4,4,4,4,4,4,4,4,4,100,,,,,,,,,,,,,,,,,,,,,,,,,,,,,,,,,,,13723,1,0.640557,-0.328029,-0.298802,0.626735,0.995378,0.010604,0.047718,15.119047,37.452381,-24.261906,,,,,,,,,,,,,,,,,,,,,,,,,,,,,,,,,,,,,,,,,,,,,,,,,,,,,,,,,,,,,,,,,,,,,,,,,,,,,,,,,,,,,,,,,,,,,,,,,,,,,,,,,,,,,,,,,,,,,,,,,,,,,,,,,,,,,,,,,,,,,,,,,,,,,,,,,,,,,,,,
1764669113.249743,54898,1,4394.169434,4404.29248,4509.020508,4536.89209,4415.861328,4530.559082,4556.323242,4409.682129,4563.502441,4427.399902,4495.856445,4522.805176,4576.615234,4386.651367,4383.302734,4507.153809,4553.205078,4532.128418,4499.10791,4386.712891,4384.733398,4572.015625,4527.189941,4495.323242,4386.671875,4581.769043,4391.810059,4561.994629,4517.76416,4410.984375,4530.097656,4500.548828,0,0,5,0,0,,,,0,4,4,4,4,4,4,4,4,4,4,4,4,4,4,4,4,4,4,4,4,4,4,4,4,4,4,4,4,4,4,4,4,100,,,,,,,,,,,,,,,,,,,,,,,,,,,,,,,,,,,,,,,,,,,,,,,,,,,,,,,,,,,,,,,,,,,,,,,,,,,,,,,,,,,,,,,,,,,,,,,,,,,,,,,,,,,,,,,,,,,,,,,,,,,,,,,,,,,,,,,,,,,,,,,,,,,,,,,,,,,,,,,,,,,,,,,,,,,,,,,,,,,,,,,,,,,,,,,,,,,,,,,,,,,,,,
1764669113.253649,54899,1,4393.046387,4403.10791,4507.779297,4535.497559,4414.661621,4529.574219,4554.76416,4408.302734,4561.687012,4426.584473,4494.594727,4521.594727,4575.358887,4385.440918,4381.907715,4505.436035,4551.922852,4530.230957,4497.630859,4385.728027,4383.712891,4570.559082,4526.030762,4493.81543,4385.194824,4580.436035,4389.943359,4560.29248,4517.087402,4409.338379,4528.446289,4498.799805,0,0,5,0,0,,,,0,4,4,4,4,4,4,4,4,4,4,4,4,4,4,4,4,4,4,4,4,4,4,4,4,4,4,4,4,4,4,4,4,100,,,,,,,,,,,,,,,,,,,,,,,,,,,,,,,,,,,13724,1,0.640376,-0.328291,-0.298357,0.626997,0.993843,0.010185,0.047299,14.976191,37.476189,-24.047619,,,,,,,,,,,,,,,,,,,,,,,,,,,,,,,,,,,,,,,,,,,,,,,,,,,,,,,,,,,,,,,,,,,,,,,,,,,,,,,,,,,,,,,,,,,,,,,,,,,,,,,,,,,,,,,,,,,,,,,,,,,,,,,,,,,,,,,,,,,,,,,,,,,,,,,,,,,,,,,,
1764669113.257555,54900,0,4391.922852,4401.922852,4506.538574,4534.102539,4413.461426,4528.589844,4553.205078,4406.922852,4559.871582,4425.769043,4493.333496,4520.384766,4574.102539,4384.230957,4380.512695,4503.717773,4550.641113,4528.333496,4496.153809,4384.743652,4382.692383,4569.102539,4524.871582,4492.307617,4383.717773,4579.102539,4388.077148,4558.589844,4516.410156,4407.692383,4526.794922,4497.05127,2624,0,5,2572,57459,,,,0,4,4,4,4,4,4,4,4,4,4,4,4,4,4,4,4,4,4,4,4,4,4,4,4,4,4,4,4,4,4,4,4,100,,,,,,,,,,,,,,,,,,,,,,,,,,,,,,,,,,,,,,,,,,,,,,,,,,,,,,,,,,,,,,,,,,,,,,,,,,,,,,,,,,,,,,,,,,,,,,,,,,,,,,,,,,,,,,,,,,,,,,,,,,,,,,,,,,,,,,,,,,,,,,,,,,,,,,,,,,,,,,,,,,,,,,,,,,,,,,,,,,,,,,,,,,,,,,,,,,,,,,,,,,,,,,
1764669113.261461,54901,0,4376.922852,4381.794922,4488.077148,4517.563965,4395.641113,4511.794922,4534.871582,4390.256348,4538.205078,4394.615234,4484.743652,4508.205078,4560.641113,4372.436035,4361.153809,4482.179688,4536.666504,4518.974121,4498.205078,4376.538574,4380.512695,4560.769043,4511.025879,4483.589844,4365.769043,4564.871582,4374.230957,4543.077148,4503.589844,4395,4502.05127,4483.205078,2861,0,5,2572,57459,,,,0,4,4,4,4,4,4,4,4,4,4,4,4,4,4,4,4,4,4,4,4,4,4,4,4,4,4,4,4,4,4,4,4,100,,,,,,,,,,,,,,,,,,,,,,,,,,,,,,,,,,,13725,0,0.640194,-0.328552,-0.297913,0.627258,0.992309,0.009767,0.046881,14.833333,37.5,-23.833334,,,,,,,,,,,,,,,,,,,,,,,,,,,,,,,,,,,,,,,,,,,,,,,,,,,,,,,,,,,,,,,,,,,,,,,,,,,,,,,,,,,,,,,,,,,,,,,,,,,,,,,,,,,,,,,,,,,,,,,,,,,,,,,,,,,,,,,,,,,,,,,,,,,,,,,,,,,,,,,,
1764669113.265367,54902,0,4372.307617,4374.487305,4478.461426,4508.589844,4391.666504,4505.769043,4528.333496,4384.743652,4529.487305,4372.94873,4486.025879,4506.282227,4556.922852,4372.692383,4360.128418,4478.333496,4534.487305,4524.871582,4510.256348,4380.641113,4387.05127,4564.871582,4509.743652,4487.307617,4349.871582,4556.025879,4371.410156,4541.538574,4498.205078,4390.897461,4490.897461,4479.358887,2968,0,5,2573,57467,,,,0,4,4,4,4,4,4,4,4,4,4,4,4,4,4,4,4,4,4,4,4,4,4,4,4,4,4,4,4,4,4,4,4,100,,,,,,,,,,,,,,,,,,,,,,,,,,,,,,,,,,,,,,,,,,,,,,,,,,,,,,,,,,,,,,,,,,,,,,,,,,,,,,,,,,,,,,,,,,,,,,,,,,,,,,,,,,,,,,,,,,,,,,,,,,,,,,,,,,,,,,,,,,,,,,,,,,,,,,,,,,,,,,,,,,,,,,,,,,,,,,,,,,,,,,,,,,,,,,,,,,,,,,,,,,,,,,
1764669113.269273,54903,0,4380.641113,4383.333496,4480.769043,4510.256348,4402.05127,4513.077148,4536.538574,4393.333496,4538.589844,4373.205078,4496.025879,4515.128418,4564.615234,4385.512695,4377.436035,4494.615234,4544.487305,4542.05127,4524.487305,4393.846191,4398.974121,4578.205078,4520.641113,4500.897461,4352.563965,4558.333496,4380.512695,4553.077148,4502.94873,4396.794922,4498.974121,4487.436035,2887,0,5,2573,57467,,,,0,4,4,4,4,4,4,4,4,4,4,4,4,4,4,4,4,4,4,4,4,4,4,4,4,4,4,4,4,4,4,4,4,100,,,,,,,,,,,,,,,,,,,,,,,,,,,,,,,,,,,,,,,,,,,,,,,,,,,,,,,,,,,,,,,,,,,,,,,,,,,,,,,,,,,,,,,,,,,,,,,,,,,,,,,,,,,,,,,,,,,,,,,,,,,,,,,,,,,,,,,,,,,,,,,,,,,,,,,,,,,,,,,,,,,,,,,,,,,,,,,,,,,,,,,,,,,,,,,,,,,,,,,,,,,,,,
1764669113.273179,54904,0,4395.384766,4401.153809,4491.538574,4518.461426,4416.794922,4527.307617,4552.692383,4408.846191,4558.589844,4391.538574,4507.436035,4527.94873,4577.692383,4402.563965,4400,4520.128418,4559.230957,4559.743652,4532.692383,4407.05127,4410.128418,4591.794922,4535.128418,4515.641113,4378.717773,4570,4393.846191,4568.461426,4513.846191,4406.025879,4517.05127,4501.538574,2751,0,5,2574,57474,,,,0,4,4,4,4,4,4,4,4,4,4,4,4,4,4,4,4,4,4,4,4,4,4,4,4,4,4,4,4,4,4,4,4,100,,,,,,,,,,,,,,,,,,,,,,,,,,,,,,,,,,,,,,,,,,,,,,,3.111825,1.840676,2.251034,0.905314,1.065452,11.044861,2.91971,1.776234,1.167306,1.566545,60.078785,4.946987,3.214512,4.388127,3.125213,13.151991,2.605165,2.398353,1.750062,1.613922,10.670627,2.074626,1.829613,1.51562,1.959846,5.410433,1.922141,1.851867,0.895634,1.247192,4.018336,2.515482,2.503246,1.172795,1.399654,7.052047,2.378772,2.09054,0.975445,1.508163,3.070707,1.65164,2.062851,2.128288,1.285295,1.786744,1.915696,7.35371,3.336843,3.190166,1.669054,1.770886,1.452679,1.197288,1.134362,3.408072,1.366722,2.59531,1.034038,1.11196,1.246713,1.194002,1.956105,0.932771,1.268282,0.727617,0.784239,0.625375,0.859957,0.903428,1.092183,2.075051,1.661386,1.346489,1.301397,1.419419,2.01406,3.420604,1.748932,1.802099,2.765019,2.204486,3.520964,1.279902,1.467193,2.272934,2.621606,4.506564,1.701573,2.311776,1.69547,1.669875,3.257337,0.908394,1.632292,1.483309,2.994471,4.088266,1.07204,1.391677,2.713453,2.53162,3.524101,0.785916,1.918297,2.426934,2.913332,3.371283,1.079794,1.645223,2.396937,2.712698,2.608033,0.875649,1.1632,2.477756,2.936558,2.861749,1.142455,1.405719,5.240629,4.574862,11.99433,4.215634,5.383828,1.684564,2.46807,2.499481,1.306598,1.145395,3.211046,2.604299,1.66052,1.611883,1.827883,2.658727,2.889279,2.547833,1.091098,1.436227,2.273095,1.108829,1.03433,0.559106,0.605361,10.111074,2.555212,2.427691,2.275851,2.05727,6.70431,3.468595,1.700026,2.127605,2.776203,73.767197,8.98058,3.102629,8.54139,4.604795
1764669113.277085,54905,0,4405.384766,4413.846191,4503.333496,4524.743652,4421.794922,4536.922852,4563.846191,4417.94873,4574.487305,4411.153809,4511.666504,4535.256348,4586.410156,4413.077148,4411.282227,4537.307617,4567.436035,4566.538574,4530.897461,4411.025879,4414.487305,4596.153809,4542.05127,4521.794922,4414.743652,4582.05127,4400.384766,4576.153809,4522.05127,4409.615234,4528.461426,4510.769043,2919,0,5,2574,57474,,,,0,4,4,4,4,4,4,4,4,4,4,4,4,4,4,4,4,4,4,4,4,4,4,4,4,4,4,4,4,4,4,4,4,100,,,,,,,,,,,,,,,,,,,,,,,,,,,,,,,,,,,13726,0,0.640062,-0.328552,-0.297424,0.627625,0.992309,0.009767,0.046881,15,37,-23.333334,,,,,,,,,,,,,,,,,,,,,,,,,,,,,,,,,,,,,,,,,,,,,,,,,,,,,,,,,,,,,,,,,,,,,,,,,,,,,,,,,,,,,,,,,,,,,,,,,,,,,,,,,,,,,,,,,,,,,,,,,,,,,,,,,,,,,,,,,,,,,,,,,,,,,,,,,,,,,,,,
1764669113.280991,54906,0,4402.94873,4411.794922,4509.358887,4522.94873,4410.897461,4534.358887,4562.436035,4412.436035,4575.384766,4416.538574,4505.384766,4531.410156,4584.871582,4411.282227,4404.230957,4536.282227,4562.820313,4558.589844,4521.025879,4403.461426,4410.384766,4588.589844,4536.922852,4515.512695,4439.102539,4585.256348,4394.358887,4570.641113,4521.153809,4403.717773,4523.461426,4508.077148,1834,0,5,2575,57482,,,,0,4,4,4,4,4,4,4,4,4,4,4,4,4,4,4,4,4,4,4,4,4,4,4,4,4,4,4,4,4,4,4,4,100,,,,,,,,,,,,,,,,,,,,,,,,,,,,,,,,,,,,,,,,,,,,,,,,,,,,,,,,,,,,,,,,,,,,,,,,,,,,,,,,,,,,,,,,,,,,,,,,,,,,,,,,,,,,,,,,,,,,,,,,,,,,,,,,,,,,,,,,,,,,,,,,,,,,,,,,,,,,,,,,,,,,,,,,,,,,,,,,,,,,,,,,,,,,,,,,,,,,,,,,,,,,,,
1764669113.284897,54907,0,4391.153809,4397.94873,4508.205078,4515.128418,4391.538574,4522.692383,4551.282227,4396.666504,4562.692383,4406.282227,4493.846191,4520,4575.512695,4401.153809,4386.794922,4521.922852,4549.487305,4542.94873,4510.384766,4390.641113,4401.282227,4575.769043,4525,4502.820313,4441.153809,4577.94873,4380,4556.922852,4512.563965,4393.333496,4507.05127,4497.05127,2466,0,5,2575,57482,,,,0,4,4,4,4,4,4,4,4,4,4,4,4,4,4,4,4,4,4,4,4,4,4,4,4,4,4,4,4,4,4,4,4,100,,,,,,,,,,,,,,,,,,,,,,,,,,,,,,,,,,,,,,,,,,,,,,,,,,,,,,,,,,,,,,,,,,,,,,,,,,,,,,,,,,,,,,,,,,,,,,,,,,,,,,,,,,,,,,,,,,,,,,,,,,,,,,,,,,,,,,,,,,,,,,,,,,,,,,,,,,,,,,,,,,,,,,,,,,,,,,,,,,,,,,,,,,,,,,,,,,,,,,,,,,,,,,
1764669113.288803,54908,0,4380.897461,4384.230957,4504.358887,4510,4378.589844,4512.94873,4541.794922,4384.358887,4547.692383,4392.563965,4486.025879,4510.256348,4567.307617,4392.179688,4374.102539,4508.077148,4538.846191,4532.563965,4507.307617,4383.077148,4393.333496,4568.205078,4516.666504,4495.256348,4428.205078,4567.307617,4368.333496,4546.410156,4503.974121,4387.94873,4494.230957,4489.102539,2661,0,5,2576,57490,,,,0,4,4,4,4,4,4,4,4,4,4,4,4,4,4,4,4,4,4,4,4,4,4,4,4,4,4,4,4,4,4,4,4,100,,,,,,,,,,,,,,,,,,,,,,,,,,,,,,,,,,,,,,,,,,,,,,,,,,,,,,,,,,,,,,,,,,,,,,,,,,,,,,,,,,,,,,,,,,,,,,,,,,,,,,,,,,,,,,,,,,,,,,,,,,,,,,,,,,,,,,,,,,,,,,,,,,,,,,,,,,,,,,,,,,,,,,,,,,,,,,,,,,,,,,,,,,,,,,,,,,,,,,,,,,,,,,
1764669113.292709,54909,0,4381.410156,4382.692383,4503.846191,4515.384766,4383.205078,4514.871582,4543.333496,4386.282227,4542.307617,4388.589844,4487.692383,4509.487305,4567.436035,4391.922852,4375.641113,4505.256348,4540,4535.641113,4514.615234,4386.410156,4391.153809,4572.692383,4518.974121,4500.384766,4417.05127,4563.589844,4368.589844,4547.692383,4503.077148,4393.077148,4496.794922,4494.615234,2497,0,5,2576,57490,,,,0,4,4,4,4,4,4,4,4,4,4,4,4,4,4,4,4,4,4,4,4,4,4,4,4,4,4,4,4,4,4,4,4,100,,,,,,,,,,,,,,,,,,,,,,,,,,,,,,,,,,,13727,0,0.63999,-0.328552,-0.296936,0.62793,0.978635,0.00293,0.066903,14.166667,39,-25.333334,,,,,,,,,,,,,,,,,,,,,,,,,,,,,,,,,,,,,,,,,,,,,,,,,,,,,,,,,,,,,,,,,,,,,,,,,,,,,,,,,,,,,,,,,,,,,,,,,,,,,,,,,,,,,,,,,,,,,,,,,,,,,,,,,,,,,,,,,,,,,,,,,,,,,,,,,,,,,,,,
1764669113.296615,54910,0,4393.077148,4395.384766,4510,4531.794922,4403.589844,4528.846191,4555.641113,4402.179688,4550.384766,4397.820313,4497.436035,4517.94873,4576.025879,4400.256348,4388.461426,4512.94873,4552.94873,4549.230957,4528.205078,4398.077148,4395.512695,4586.025879,4530.512695,4515.641113,4417.563965,4571.410156,4381.666504,4560.512695,4511.410156,4406.282227,4513.974121,4513.974121,2766,0,5,2576,57498,,,,0,4,4,4,4,4,4,4,4,4,4,4,4,4,4,4,4,4,4,4,4,4,4,4,4,4,4,4,4,4,4,4,4,100,,,,,,,,,,,,,,,,,,,,,,,,,,,,,,,,,,,,,,,,,,,,,,,,,,,,,,,,,,,,,,,,,,,,,,,,,,,,,,,,,,,,,,,,,,,,,,,,,,,,,,,,,,,,,,,,,,,,,,,,,,,,,,,,,,,,,,,,,,,,,,,,,,,,,,,,,,,,,,,,,,,,,,,,,,,,,,,,,,,,,,,,,,,,,,,,,,,,,,,,,,,,,,
1764669113.300521,54911,0,4407.179688,4413.333496,4520.512695,4551.153809,4426.282227,4545.384766,4569.358887,4420.512695,4565.641113,4411.666504,4507.563965,4528.589844,4586.538574,4410.641113,4401.666504,4522.179688,4567.94873,4562.307617,4539.487305,4409.615234,4402.820313,4597.436035,4541.922852,4529.743652,4424.230957,4585.769043,4399.102539,4575.384766,4523.077148,4418.589844,4533.974121,4536.025879,2770,0,5,2576,57498,,,,0,4,4,4,4,4,4,4,4,4,4,4,4,4,4,4,4,4,4,4,4,4,4,4,4,4,4,4,4,4,4,4,4,100,,,,,,,,,,,,,,,,,,,,,,,,,,,,,,,,,,,,,,,,,,,,,,,,,,,,,,,,,,,,,,,,,,,,,,,,,,,,,,,,,,,,,,,,,,,,,,,,,,,,,,,,,,,,,,,,,,,,,,,,,,,,,,,,,,,,,,,,,,,,,,,,,,,,,,,,,,,,,,,,,,,,,,,,,,,,,,,,,,,,,,,,,,,,,,,,,,,,,,,,,,,,,,
1764669113.304427,54912,0,4412.05127,4423.333496,4527.436035,4561.794922,4435.769043,4552.05127,4573.461426,4428.205078,4576.410156,4416.794922,4510.128418,4533.077148,4590.512695,4414.871582,4406.410156,4525,4573.205078,4565,4542.307617,4413.077148,4408.589844,4596.538574,4543.846191,4530.897461,4422.05127,4596.153809,4408.974121,4580.897461,4529.615234,4421.025879,4543.974121,4545.384766,2839,0,5,2576,57506,,,,0,4,4,4,4,4,4,4,4,4,4,4,4,4,4,4,4,4,4,4,4,4,4,4,4,4,4,4,4,4,4,4,4,100,,,,,,,,,,,,,,,,,,,,,,,,,,,,,,,,,,,,,,,,,,,,,,,,,,,,,,,,,,,,,,,,,,,,,,,,,,,,,,,,,,,,,,,,,,,,,,,,,,,,,,,,,,,,,,,,,,,,,,,,,,,,,,,,,,,,,,,,,,,,,,,,,,,,,,,,,,,,,,,,,,,,,,,,,,,,,,,,,,,,,,,,,,,,,,,,,,,,,,,,,,,,,,
1764669113.308333,54913,0,4402.94873,4418.461426,4523.205078,4556.666504,4426.025879,4543.333496,4563.589844,4419.615234,4574.102539,4406.282227,4502.820313,4527.94873,4584.487305,4409.358887,4400.384766,4519.230957,4564.358887,4556.153809,4536.410156,4405.897461,4409.102539,4582.05127,4533.461426,4516.025879,4402.436035,4594.230957,4405.128418,4572.05127,4526.922852,4411.794922,4538.974121,4533.077148,2943,0,5,2576,57506,,,,0,4,4,4,4,4,4,4,4,4,4,4,4,4,4,4,4,4,4,4,4,4,4,4,4,4,4,4,4,4,4,4,4,100,,,,,,,,,,,,,,,,,,,,,,,,,,,,,,,,,,,13728,0,0.639888,-0.328491,-0.296448,0.628296,0.992797,0.015627,0.042974,15.833333,39.333332,-25,,,,,,,,,,,,,,,,,,,,,,,,,,,,,,,,,,,,,,,,,,,,,,,,,,,,,,,,,,,,,,,,,,,,,,,,,,,,,,,,,,,,,,,,,,,,,,,,,,,,,,,,,,,,,,,,,,,,,,,,,,,,,,,,,,,,,,,,,,,,,,,,,,,,,,,,,,,,,,,,
1764669113.312239,54914,0,4385.769043,4403.333496,4508.077148,4538.589844,4405.897461,4525.384766,4546.153809,4401.794922,4560.256348,4387.307617,4491.153809,4516.666504,4573.333496,4397.307617,4388.717773,4510.384766,4547.563965,4544.102539,4527.179688,4392.179688,4404.487305,4562.820313,4517.307617,4494.102539,4373.589844,4582.179688,4391.538574,4554.871582,4517.94873,4398.461426,4525.256348,4505.641113,2719,0,5,2576,57513,,,,0,4,4,4,4,4,4,4,4,4,4,4,4,4,4,4,4,4,4,4,4,4,4,4,4,4,4,4,4,4,4,4,4,100,,,,,,,,,,,,,,,,,,,,,,,,,,,,,,,,,,,,,,,,,,,,,,,,,,,,,,,,,,,,,,,,,,,,,,,,,,,,,,,,,,,,,,,,,,,,,,,,,,,,,,,,,,,,,,,,,,,,,,,,,,,,,,,,,,,,,,,,,,,,,,,,,,,,,,,,,,,,,,,,,,,,,,,,,,,,,,,,,,,,,,,,,,,,,,,,,,,,,,,,,,,,,,
1764669113.316145,54915,0,4372.820313,4390.512695,4490.384766,4519.230957,4392.179688,4511.666504,4533.589844,4388.333496,4545.384766,4376.922852,4484.743652,4508.077148,4566.025879,4386.922852,4379.743652,4506.922852,4535,4540,4521.794922,4380.897461,4398.717773,4552.436035,4506.794922,4479.871582,4356.025879,4570.256348,4380.384766,4542.05127,4510.256348,4392.05127,4514.871582,4481.282227,2881,0,5,2576,57513,,,,0,4,4,4,4,4,4,4,4,4,4,4,4,4,4,4,4,4,4,4,4,4,4,4,4,4,4,4,4,4,4,4,4,100,,,,,,,,,,,,,,,,,,,,,,,,,,,,,,,,,,,,,,,,,,,,,,,,,,,,,,,,,,,,,,,,,,,,,,,,,,,,,,,,,,,,,,,,,,,,,,,,,,,,,,,,,,,,,,,,,,,,,,,,,,,,,,,,,,,,,,,,,,,,,,,,,,,,,,,,,,,,,,,,,,,,,,,,,,,,,,,,,,,,,,,,,,,,,,,,,,,,,,,,,,,,,,
