title:Anxiety3, start timestamp:1764669156.140949, stop timestamp:1764669171.678127, headset type:FLEX2, headset serial:F30002B4, headset firmware:2f10, channels:283, sampling rate:eeg_256;mot_64;pow_8, samples:3979      , version:2.2, ,,,,,,,,,,,,,,,,,,,,,,,,,,,,,,,,,,,,,,,,,,,,,,,,,,,,,,,,,,,,,,,,,,,,,,,,,,,,,,,,,,,,,,,,,,,,,,,,,,,,,,,,,,,,,,,,,,,,,,,,,,,,,,,,,,,,,,,,,,,,,,,,,,,,,,,,,,,,,,,,,,,,,,,,,,,,,,,,,,,,,,,,,,,,,,,,,,,,,,,,,,,,,,,,,,,,,,,,,,,,,,,,,,,,,,,,,,,,,,,,,,,,,,,,,,,,,,,,,,,,,,,,,,,,,,,,
Timestamp,EEG.Counter,EEG.Interpolated,EEG.Cz,EEG.Fz,EEG.Fp1,EEG.F7,EEG.F3,EEG.FC1,EEG.C3,EEG.FC5,EEG.FT9,EEG.T7,EEG.CP5,EEG.CP1,EEG.P3,EEG.P7,EEG.PO9,EEG.O1,EEG.Pz,EEG.Oz,EEG.O2,EEG.PO10,EEG.P8,EEG.P4,EEG.CP2,EEG.CP6,EEG.T8,EEG.FT10,EEG.FC6,EEG.C4,EEG.FC2,EEG.F4,EEG.F8,EEG.Fp2,EEG.RawCq,EEG.Battery,EEG.BatteryPercent,EEG.FwBufferSize,EEG.FwClockTime,MarkerIndex,MarkerType,MarkerValueInt,EEG.MarkerHardware,CQ.Cz,CQ.Fz,CQ.Fp1,CQ.F7,CQ.F3,CQ.FC1,CQ.C3,CQ.FC5,CQ.FT9,CQ.T7,CQ.CP5,CQ.CP1,CQ.P3,CQ.P7,CQ.PO9,CQ.O1,CQ.Pz,CQ.Oz,CQ.O2,CQ.PO10,CQ.P8,CQ.P4,CQ.CP2,CQ.CP6,CQ.T8,CQ.FT10,CQ.FC6,CQ.C4,CQ.FC2,CQ.F4,CQ.F8,CQ.Fp2,CQ.Overall,EQ.SampleRateQuality,EQ.OVERALL,EQ.Cz,EQ.Fz,EQ.Fp1,EQ.F7,EQ.F3,EQ.FC1,EQ.C3,EQ.FC5,EQ.FT9,EQ.T7,EQ.CP5,EQ.CP1,EQ.P3,EQ.P7,EQ.PO9,EQ.O1,EQ.Pz,EQ.Oz,EQ.O2,EQ.PO10,EQ.P8,EQ.P4,EQ.CP2,EQ.CP6,EQ.T8,EQ.FT10,EQ.FC6,EQ.C4,EQ.FC2,EQ.F4,EQ.F8,EQ.Fp2,MOT.CounterMems,MOT.InterpolatedMems,MOT.Q0,MOT.Q1,MOT.Q2,MOT.Q3,MOT.AccX,MOT.AccY,MOT.AccZ,MOT.MagX,MOT.MagY,MOT.MagZ,POW.Cz.Theta,POW.Cz.Alpha,POW.Cz.BetaL,POW.Cz.BetaH,POW.Cz.Gamma,POW.Fz.Theta,POW.Fz.Alpha,POW.Fz.BetaL,POW.Fz.BetaH,POW.Fz.Gamma,POW.Fp1.Theta,POW.Fp1.Alpha,POW.Fp1.BetaL,POW.Fp1.BetaH,POW.Fp1.Gamma,POW.F7.Theta,POW.F7.Alpha,POW.F7.BetaL,POW.F7.BetaH,POW.F7.Gamma,POW.F3.Theta,POW.F3.Alpha,POW.F3.BetaL,POW.F3.BetaH,POW.F3.Gamma,POW.FC1.Theta,POW.FC1.Alpha,POW.FC1.BetaL,POW.FC1.BetaH,POW.FC1.Gamma,POW.C3.Theta,POW.C3.Alpha,POW.C3.BetaL,POW.C3.BetaH,POW.C3.Gamma,POW.FC5.Theta,POW.FC5.Alpha,POW.FC5.BetaL,POW.FC5.BetaH,POW.FC5.Gamma,POW.FT9.Theta,POW.FT9.Alpha,POW.FT9.BetaL,POW.FT9.BetaH,POW.FT9.Gamma,POW.T7.Theta,POW.T7.Alpha,POW.T7.BetaL,POW.T7.BetaH,POW.T7.Gamma,POW.CP5.Theta,POW.CP5.Alpha,POW.CP5.BetaL,POW.CP5.BetaH,POW.CP5.Gamma,POW.CP1.Theta,POW.CP1.Alpha,POW.CP1.BetaL,POW.CP1.BetaH,POW.CP1.Gamma,POW.P3.Theta,POW.P3.Alpha,POW.P3.BetaL,POW.P3.BetaH,POW.P3.Gamma,POW.P7.Theta,POW.P7.Alpha,POW.P7.BetaL,POW.P7.BetaH,POW.P7.Gamma,POW.PO9.Theta,POW.PO9.Alpha,POW.PO9.BetaL,POW.PO9.BetaH,POW.PO9.Gamma,POW.O1.Theta,POW.O1.Alpha,POW.O1.BetaL,POW.O1.BetaH,POW.O1.Gamma,POW.Pz.Theta,POW.Pz.Alpha,POW.Pz.BetaL,POW.Pz.BetaH,POW.Pz.Gamma,POW.Oz.Theta,POW.Oz.Alpha,POW.Oz.BetaL,POW.Oz.BetaH,POW.Oz.Gamma,POW.O2.Theta,POW.O2.Alpha,POW.O2.BetaL,POW.O2.BetaH,POW.O2.Gamma,POW.PO10.Theta,POW.PO10.Alpha,POW.PO10.BetaL,POW.PO10.BetaH,POW.PO10.Gamma,POW.P8.Theta,POW.P8.Alpha,POW.P8.BetaL,POW.P8.BetaH,POW.P8.Gamma,POW.P4.Theta,POW.P4.Alpha,POW.P4.BetaL,POW.P4.BetaH,POW.P4.Gamma,POW.CP2.Theta,POW.CP2.Alpha,POW.CP2.BetaL,POW.CP2.BetaH,POW.CP2.Gamma,POW.CP6.Theta,POW.CP6.Alpha,POW.CP6.BetaL,POW.CP6.BetaH,POW.CP6.Gamma,POW.T8.Theta,POW.T8.Alpha,POW.T8.BetaL,POW.T8.BetaH,POW.T8.Gamma,POW.FT10.Theta,POW.FT10.Alpha,POW.FT10.BetaL,POW.FT10.BetaH,POW.FT10.Gamma,POW.FC6.Theta,POW.FC6.Alpha,POW.FC6.BetaL,POW.FC6.BetaH,POW.FC6.Gamma,POW.C4.Theta,POW.C4.Alpha,POW.C4.BetaL,POW.C4.BetaH,POW.C4.Gamma,POW.FC2.Theta,POW.FC2.Alpha,POW.FC2.BetaL,POW.FC2.BetaH,POW.FC2.Gamma,POW.F4.Theta,POW.F4.Alpha,POW.F4.BetaL,POW.F4.BetaH,POW.F4.Gamma,POW.F8.Theta,POW.F8.Alpha,POW.F8.BetaL,POW.F8.BetaH,POW.F8.Gamma,POW.Fp2.Theta,POW.Fp2.Alpha,POW.Fp2.BetaL,POW.Fp2.BetaH,POW.Fp2.Gamma
1764669163.734236,2287,0,4390.128418,4395.897461,4514.871582,4544.871582,4406.666504,4514.743652,4542.179688,4398.205078,4572.307617,4375.897461,4504.615234,4514.615234,4564.487305,4388.205078,4364.487305,4491.666504,4535.384766,4522.307617,4501.410156,4377.05127,4393.077148,4558.974121,4507.307617,4475.512695,4336.153809,4565.384766,4376.025879,4536.153809,4507.94873,4368.333496,4501.922852,4510.256348,2453,0,5,2562,42391,1,1,7,0,4,4,4,4,4,4,4,4,4,4,4,4,4,4,4,4,4,4,4,4,4,4,4,4,4,4,4,4,4,4,4,4,100,,,,,,,,,,,,,,,,,,,,,,,,,,,,,,,,,,,,,,,,,,,,,,,,,,,,,,,,,,,,,,,,,,,,,,,,,,,,,,,,,,,,,,,,,,,,,,,,,,,,,,,,,,,,,,,,,,,,,,,,,,,,,,,,,,,,,,,,,,,,,,,,,,,,,,,,,,,,,,,,,,,,,,,,,,,,,,,,,,,,,,,,,,,,,,,,,,,,,,,,,,,,,,
1764669163.738142,2288,0,4388.846191,4391.025879,4505,4534.615234,4407.05127,4511.410156,4535.641113,4387.692383,4565,4366.666504,4501.794922,4508.333496,4556.410156,4381.538574,4357.94873,4493.717773,4532.692383,4521.025879,4501.922852,4378.974121,4399.102539,4564.230957,4507.307617,4481.922852,4341.153809,4564.743652,4377.307617,4539.871582,4506.025879,4367.563965,4496.666504,4487.820313,2897,0,5,2562,42399,,,,0,4,4,4,4,4,4,4,4,4,4,4,4,4,4,4,4,4,4,4,4,4,4,4,4,4,4,4,4,4,4,4,4,100,,,,,,,,,,,,,,,,,,,,,,,,,,,,,,,,,,,,,,,,,,,,,,,,,,,,,,,,,,,,,,,,,,,,,,,,,,,,,,,,,,,,,,,,,,,,,,,,,,,,,,,,,,,,,,,,,,,,,,,,,,,,,,,,,,,,,,,,,,,,,,,,,,,,,,,,,,,,,,,,,,,,,,,,,,,,,,,,,,,,,,,,,,,,,,,,,,,,,,,,,,,,,,
1764669163.742048,2289,0,4391.153809,4392.94873,4497.94873,4534.358887,4410.769043,4513.974121,4536.282227,4384.358887,4564.615234,4367.307617,4505.128418,4507.820313,4555.512695,4382.820313,4358.077148,4501.025879,4538.077148,4528.589844,4508.589844,4381.410156,4398.205078,4570.641113,4510.897461,4491.666504,4372.94873,4571.410156,4383.846191,4547.820313,4507.179688,4373.077148,4503.589844,4476.025879,2912,0,5,2562,42399,,,,0,4,4,4,4,4,4,4,4,4,4,4,4,4,4,4,4,4,4,4,4,4,4,4,4,4,4,4,4,4,4,4,4,100,,,,,,,,,,,,,,,,,,,,,,,,,,,,,,,,,,,16956,0,0.639706,-0.322937,-0.317261,0.621155,0.989867,0.013674,0.035649,17.666666,40,-22.166666,,,,,,,,,,,,,,,,,,,,,,,,,,,,,,,,,,,,,,,,,,,,,,,,,,,,,,,,,,,,,,,,,,,,,,,,,,,,,,,,,,,,,,,,,,,,,,,,,,,,,,,,,,,,,,,,,,,,,,,,,,,,,,,,,,,,,,,,,,,,,,,,,,,,,,,,,,,,,,,,
1764669163.745954,2290,0,4397.94873,4403.589844,4498.077148,4547.94873,4420.256348,4523.846191,4546.025879,4393.717773,4573.974121,4378.974121,4514.743652,4515.384766,4563.461426,4391.794922,4365.897461,4509.487305,4550.256348,4541.282227,4518.589844,4385.641113,4395.256348,4574.743652,4518.717773,4500.256348,4419.102539,4584.615234,4394.358887,4557.94873,4512.436035,4383.717773,4524.230957,4485.897461,1797,0,5,2561,42407,,,,0,4,4,4,4,4,4,4,4,4,4,4,4,4,4,4,4,4,4,4,4,4,4,4,4,4,4,4,4,4,4,4,4,100,,,,,,,,,,,,,,,,,,,,,,,,,,,,,,,,,,,,,,,,,,,,,,,,,,,,,,,,,,,,,,,,,,,,,,,,,,,,,,,,,,,,,,,,,,,,,,,,,,,,,,,,,,,,,,,,,,,,,,,,,,,,,,,,,,,,,,,,,,,,,,,,,,,,,,,,,,,,,,,,,,,,,,,,,,,,,,,,,,,,,,,,,,,,,,,,,,,,,,,,,,,,,,
1764669163.749860,2291,0,4407.692383,4419.102539,4507.436035,4569.871582,4432.307617,4538.077148,4560.897461,4411.666504,4590.512695,4398.717773,4525.512695,4528.461426,4576.410156,4403.205078,4378.461426,4515.512695,4563.974121,4554.230957,4528.717773,4393.974121,4398.205078,4577.436035,4529.230957,4506.153809,4459.743652,4598.205078,4405.512695,4567.94873,4520.256348,4395.897461,4551.922852,4514.102539,2747,0,5,2561,42407,,,,0,4,4,4,4,4,4,4,4,4,4,4,4,4,4,4,4,4,4,4,4,4,4,4,4,4,4,4,4,4,4,4,4,100,,,,,,,,,,,,,,,,,,,,,,,,,,,,,,,,,,,,,,,,,,,,,,,,,,,,,,,,,,,,,,,,,,,,,,,,,,,,,,,,,,,,,,,,,,,,,,,,,,,,,,,,,,,,,,,,,,,,,,,,,,,,,,,,,,,,,,,,,,,,,,,,,,,,,,,,,,,,,,,,,,,,,,,,,,,,,,,,,,,,,,,,,,,,,,,,,,,,,,,,,,,,,,
1764669163.753766,2292,0,4415.641113,4430.384766,4521.922852,4586.538574,4438.205078,4549.102539,4572.436035,4425.512695,4605.897461,4418.846191,4530.128418,4540.128418,4587.05127,4410.512695,4390.256348,4519.230957,4572.94873,4564.487305,4538.077148,4406.282227,4410.384766,4581.153809,4538.589844,4510.256348,4478.077148,4604.358887,4411.794922,4574.487305,4526.025879,4402.179688,4573.589844,4542.94873,2592,0,5,2304,42415,,,,0,4,4,4,4,4,4,4,4,4,4,4,4,4,4,4,4,4,4,4,4,4,4,4,4,4,4,4,4,4,4,4,4,100,,,,,,,,,,,,,,,,,,,,,,,,,,,,,,,,,,,,,,,,,,,,,,,,,,,,,,,,,,,,,,,,,,,,,,,,,,,,,,,,,,,,,,,,,,,,,,,,,,,,,,,,,,,,,,,,,,,,,,,,,,,,,,,,,,,,,,,,,,,,,,,,,,,,,,,,,,,,,,,,,,,,,,,,,,,,,,,,,,,,,,,,,,,,,,,,,,,,,,,,,,,,,,
1764669163.757672,2293,0,4416.282227,4430,4532.94873,4585.769043,4431.025879,4549.743652,4572.692383,4423.461426,4611.538574,4430.384766,4525,4543.205078,4589.743652,4410.769043,4397.563965,4524.487305,4573.717773,4572.05127,4546.153809,4418.589844,4426.794922,4586.794922,4542.307617,4513.333496,4470.256348,4599.358887,4408.589844,4574.487305,4525.384766,4397.05127,4576.794922,4551.922852,2828,0,5,2304,42415,,,,0,4,4,4,4,4,4,4,4,4,4,4,4,4,4,4,4,4,4,4,4,4,4,4,4,4,4,4,4,4,4,4,4,100,,,,,,,,,,,,,,,,,,,,,,,,,,,,,,,,,,,16957,0,0.639636,-0.322266,-0.31665,0.621887,0.992309,0.004883,0.031742,17.666666,38.833332,-23.833334,,,,,,,,,,,,,,,,,,,,,,,,,,,,,,,,,,,,,,,,,,,,,,,,,,,,,,,,,,,,,,,,,,,,,,,,,,,,,,,,,,,,,,,,,,,,,,,,,,,,,,,,,,,,,,,,,,,,,,,,,,,,,,,,,,,,,,,,,,,,,,,,,,,,,,,,,,,,,,,,
1764669163.761578,2294,0,4408.333496,4417.563965,4533.077148,4567.05127,4412.307617,4538.846191,4561.410156,4405.128418,4604.743652,4429.487305,4513.974121,4536.922852,4584.358887,4406.794922,4400,4533.589844,4567.563965,4577.179688,4550.641113,4424.743652,4437.307617,4592.179688,4538.589844,4514.615234,4445.769043,4586.538574,4396.538574,4568.589844,4517.94873,4381.666504,4558.589844,4533.717773,2948,0,5,1024,42423,,,,0,4,4,4,4,4,4,4,4,4,4,4,4,4,4,4,4,4,4,4,4,4,4,4,4,4,4,4,4,4,4,4,4,100,,,,,,,,,,,,,,,,,,,,,,,,,,,,,,,,,,,,,,,,,,,,,,,,,,,,,,,,,,,,,,,,,,,,,,,,,,,,,,,,,,,,,,,,,,,,,,,,,,,,,,,,,,,,,,,,,,,,,,,,,,,,,,,,,,,,,,,,,,,,,,,,,,,,,,,,,,,,,,,,,,,,,,,,,,,,,,,,,,,,,,,,,,,,,,,,,,,,,,,,,,,,,,
1764669163.765484,2295,0,4395.769043,4400.897461,4521.794922,4541.794922,4392.307617,4522.692383,4545,4381.922852,4590.256348,4419.615234,4504.871582,4526.282227,4575.769043,4403.589844,4399.230957,4543.205078,4558.717773,4577.820313,4547.820313,4421.153809,4433.846191,4592.692383,4529.230957,4512.436035,4420.128418,4573.589844,4381.794922,4560.512695,4508.333496,4364.358887,4529.102539,4500.128418,2865,0,5,1024,42423,,,,0,4,4,4,4,4,4,4,4,4,4,4,4,4,4,4,4,4,4,4,4,4,4,4,4,4,4,4,4,4,4,4,4,100,,,,,,,,,,,,,,,,,,,,,,,,,,,,,,,,,,,,,,,,,,,,,,,,,,,,,,,,,,,,,,,,,,,,,,,,,,,,,,,,,,,,,,,,,,,,,,,,,,,,,,,,,,,,,,,,,,,,,,,,,,,,,,,,,,,,,,,,,,,,,,,,,,,,,,,,,,,,,,,,,,,,,,,,,,,,,,,,,,,,,,,,,,,,,,,,,,,,,,,,,,,,,,
1764669163.769390,2296,0,4385.256348,4389.230957,4506.794922,4524.871582,4382.563965,4509.871582,4532.94873,4368.205078,4576.410156,4407.820313,4502.820313,4518.461426,4570,4403.717773,4395.384766,4546.153809,4551.282227,4570.512695,4535.256348,4408.077148,4415.641113,4585.641113,4518.205078,4505,4404.230957,4565.769043,4371.794922,4553.974121,4502.05127,4354.358887,4504.358887,4472.179688,2739,0,5,1280,42431,,,,0,4,4,4,4,4,4,4,4,4,4,4,4,4,4,4,4,4,4,4,4,4,4,4,4,4,4,4,4,4,4,4,4,100,,,,,,,,,,,,,,,,,,,,,,,,,,,,,,,,,,,,,,,,,,,,,,,3.327659,1.237584,1.116675,2.487526,0.756316,2.689406,1.516217,2.032679,2.673038,0.954001,1.542284,1.736233,5.297404,3.05103,1.343008,1.023548,0.704864,1.449845,3.249529,1.011335,2.313879,2.287093,2.316546,3.520562,1.076751,3.215187,1.757856,1.183648,2.819594,0.842931,2.061408,0.947967,1.180203,2.883203,0.978834,1.678949,1.027659,1.689183,2.864765,1.150585,2.229264,0.545947,1.240433,2.555804,1.193866,1.686763,1.709982,3.758392,5.490314,1.989526,0.929432,0.92267,1.521432,1.775182,0.754902,1.657941,0.954452,1.719738,2.465058,0.800198,0.670777,0.707294,1.746647,2.087048,0.822552,0.297454,0.339606,0.645843,0.913772,0.519051,0.575869,1.021403,0.795661,1.404961,0.992297,0.735796,1.467355,1.430467,0.772467,0.92662,1.044916,1.21914,1.901605,2.369705,0.94671,1.107947,2.947328,2.432702,1.681229,1.346401,0.515348,2.487752,1.998663,1.233946,1.14187,0.942336,2.357903,1.856715,1.699182,0.895688,1.267389,2.8109,2.998812,2.440762,1.223256,1.09406,1.471198,1.780332,2.276301,1.04977,1.474356,0.93657,1.145203,2.084819,0.833928,1.825735,1.944264,1.948719,2.776246,0.938021,6.070993,2.604585,13.327395,6.146,3.101244,3.244504,1.218329,1.913318,2.189862,0.956564,1.753374,0.920057,1.697209,2.691737,0.955064,2.584669,1.503653,1.462094,2.443054,0.960016,1.445168,0.635178,0.560174,1.147138,0.442169,2.009224,1.066922,1.50455,3.245591,1.009755,2.622523,1.74634,2.995478,2.700193,1.679582,2.536276,2.695847,5.39951,3.256902,1.587766
1764669163.773296,2297,0,4381.025879,4387.563965,4498.333496,4523.717773,4386.538574,4505.641113,4530.384766,4371.025879,4569.102539,4399.871582,4506.538574,4516.410156,4568.589844,4405.512695,4388.205078,4537.179688,4547.307617,4553.846191,4514.230957,4390.128418,4390.512695,4572.307617,4509.230957,4492.436035,4397.179688,4563.205078,4371.025879,4550.769043,4501.922852,4355.897461,4495.769043,4465.897461,2899,0,5,1280,42431,,,,0,4,4,4,4,4,4,4,4,4,4,4,4,4,4,4,4,4,4,4,4,4,4,4,4,4,4,4,4,4,4,4,4,100,,,,,,,,,,,,,,,,,,,,,,,,,,,,,,,,,,,16958,0,0.639412,-0.321655,-0.316162,0.622681,1.006471,0.009767,0.032719,16.666666,39,-22.833334,,,,,,,,,,,,,,,,,,,,,,,,,,,,,,,,,,,,,,,,,,,,,,,,,,,,,,,,,,,,,,,,,,,,,,,,,,,,,,,,,,,,,,,,,,,,,,,,,,,,,,,,,,,,,,,,,,,,,,,,,,,,,,,,,,,,,,,,,,,,,,,,,,,,,,,,,,,,,,,,
1764669163.777202,2298,0,4382.563965,4393.846191,4502.179688,4535.641113,4398.589844,4509.230957,4536.282227,4385.641113,4569.743652,4397.563965,4511.153809,4518.461426,4569.358887,4405.256348,4378.717773,4518.461426,4545.641113,4531.666504,4491.666504,4374.743652,4370.384766,4557.563965,4504.487305,4477.820313,4392.05127,4562.692383,4378.205078,4550.128418,4506.282227,4366.282227,4503.333496,4481.794922,1837,0,5,1536,42438,,,,0,4,4,4,4,4,4,4,4,4,4,4,4,4,4,4,4,4,4,4,4,4,4,4,4,4,4,4,4,4,4,4,4,100,,,,,,,,,,,,,,,,,,,,,,,,,,,,,,,,,,,,,,,,,,,,,,,,,,,,,,,,,,,,,,,,,,,,,,,,,,,,,,,,,,,,,,,,,,,,,,,,,,,,,,,,,,,,,,,,,,,,,,,,,,,,,,,,,,,,,,,,,,,,,,,,,,,,,,,,,,,,,,,,,,,,,,,,,,,,,,,,,,,,,,,,,,,,,,,,,,,,,,,,,,,,,,
1764669163.781108,2299,0,4385.897461,4400.897461,4514.871582,4549.871582,4408.717773,4515.384766,4544.230957,4399.615234,4575.256348,4399.487305,4511.538574,4519.743652,4567.94873,4401.410156,4370.128418,4497.820313,4543.974121,4511.282227,4476.025879,4366.922852,4362.692383,4547.05127,4503.589844,4465.897461,4383.717773,4561.410156,4387.05127,4549.358887,4510.512695,4378.077148,4517.692383,4506.794922,2466,0,5,1536,42438,,,,0,4,4,4,4,4,4,4,4,4,4,4,4,4,4,4,4,4,4,4,4,4,4,4,4,4,4,4,4,4,4,4,4,100,,,,,,,,,,,,,,,,,,,,,,,,,,,,,,,,,,,,,,,,,,,,,,,,,,,,,,,,,,,,,,,,,,,,,,,,,,,,,,,,,,,,,,,,,,,,,,,,,,,,,,,,,,,,,,,,,,,,,,,,,,,,,,,,,,,,,,,,,,,,,,,,,,,,,,,,,,,,,,,,,,,,,,,,,,,,,,,,,,,,,,,,,,,,,,,,,,,,,,,,,,,,,,
1764669163.785014,2300,0,4385.512695,4401.410156,4526.025879,4556.025879,4409.615234,4517.436035,4547.307617,4402.05127,4580.256348,4401.922852,4506.794922,4516.282227,4562.05127,4394.743652,4365.256348,4482.692383,4540.384766,4499.230957,4472.307617,4366.153809,4366.153809,4543.333496,4503.333496,4460.512695,4373.717773,4558.717773,4390.769043,4545.769043,4509.871582,4383.589844,4527.94873,4523.461426,2634,0,5,1792,42446,,,,0,4,4,4,4,4,4,4,4,4,4,4,4,4,4,4,4,4,4,4,4,4,4,4,4,4,4,4,4,4,4,4,4,100,,,,,,,,,,,,,,,,,,,,,,,,,,,,,,,,,,,,,,,,,,,,,,,,,,,,,,,,,,,,,,,,,,,,,,,,,,,,,,,,,,,,,,,,,,,,,,,,,,,,,,,,,,,,,,,,,,,,,,,,,,,,,,,,,,,,,,,,,,,,,,,,,,,,,,,,,,,,,,,,,,,,,,,,,,,,,,,,,,,,,,,,,,,,,,,,,,,,,,,,,,,,,,
1764669163.788920,2301,0,4379.358887,4393.205078,4526.410156,4549.871582,4401.025879,4512.820313,4542.05127,4391.025879,4580.128418,4400.128418,4498.846191,4507.179688,4552.436035,4388.205078,4363.589844,4476.666504,4534.102539,4497.820313,4478.333496,4367.179688,4372.307617,4544.487305,4500.384766,4461.410156,4366.153809,4555.384766,4386.282227,4538.717773,4502.94873,4379.358887,4528.846191,4522.436035,2498,0,5,1792,42446,,,,0,4,4,4,4,4,4,4,4,4,4,4,4,4,4,4,4,4,4,4,4,4,4,4,4,4,4,4,4,4,4,4,4,100,,,,,,,,,,,,,,,,,,,,,,,,,,,,,,,,,,,16959,0,0.639096,-0.321167,-0.315613,0.623535,1.001099,0.001953,0.046392,18.166666,38,-24.333334,,,,,,,,,,,,,,,,,,,,,,,,,,,,,,,,,,,,,,,,,,,,,,,,,,,,,,,,,,,,,,,,,,,,,,,,,,,,,,,,,,,,,,,,,,,,,,,,,,,,,,,,,,,,,,,,,,,,,,,,,,,,,,,,,,,,,,,,,,,,,,,,,,,,,,,,,,,,,,,,
1764669163.792826,2302,0,4370.512695,4381.410156,4515.512695,4537.05127,4389.743652,4504.615234,4531.794922,4375.256348,4574.487305,4393.205078,4492.05127,4497.05127,4543.333496,4384.230957,4363.717773,4478.589844,4527.436035,4503.974121,4487.94873,4365.641113,4374.358887,4547.563965,4495.641113,4466.282227,4362.94873,4554.102539,4378.077148,4531.410156,4493.589844,4369.487305,4523.589844,4509.230957,2752,0,5,2048,42454,,,,0,4,4,4,4,4,4,4,4,4,4,4,4,4,4,4,4,4,4,4,4,4,4,4,4,4,4,4,4,4,4,4,4,100,,,,,,,,,,,,,,,,,,,,,,,,,,,,,,,,,,,,,,,,,,,,,,,,,,,,,,,,,,,,,,,,,,,,,,,,,,,,,,,,,,,,,,,,,,,,,,,,,,,,,,,,,,,,,,,,,,,,,,,,,,,,,,,,,,,,,,,,,,,,,,,,,,,,,,,,,,,,,,,,,,,,,,,,,,,,,,,,,,,,,,,,,,,,,,,,,,,,,,,,,,,,,,
1764669163.796732,2303,0,4365.897461,4375.128418,4502.436035,4527.94873,4385.128418,4499.871582,4524.358887,4367.692383,4567.563965,4386.410156,4490.128418,4492.692383,4539.358887,4384.358887,4364.743652,4484.615234,4523.846191,4512.563965,4495.512695,4362.820313,4372.94873,4551.922852,4493.846191,4472.94873,4364.615234,4557.820313,4374.230957,4530.128418,4489.102539,4362.307617,4519.358887,4498.461426,2755,0,5,2048,42454,,,,0,4,4,4,4,4,4,4,4,4,4,4,4,4,4,4,4,4,4,4,4,4,4,4,4,4,4,4,4,4,4,4,4,100,,,,,,,,,,,,,,,,,,,,,,,,,,,,,,,,,,,,,,,,,,,,,,,,,,,,,,,,,,,,,,,,,,,,,,,,,,,,,,,,,,,,,,,,,,,,,,,,,,,,,,,,,,,,,,,,,,,,,,,,,,,,,,,,,,,,,,,,,,,,,,,,,,,,,,,,,,,,,,,,,,,,,,,,,,,,,,,,,,,,,,,,,,,,,,,,,,,,,,,,,,,,,,
1764669163.800638,2304,0,4370.641113,4379.871582,4498.077148,4529.871582,4391.410156,4503.717773,4526.025879,4375.256348,4565.128418,4387.05127,4494.102539,4497.436035,4541.922852,4387.94873,4367.05127,4490.128418,4526.025879,4518.589844,4498.077148,4362.05127,4372.692383,4558.333496,4498.589844,4480,4371.153809,4566.410156,4379.230957,4538.333496,4493.461426,4364.102539,4521.025879,4499.615234,2833,0,5,2304,42462,,,,0,4,4,4,4,4,4,4,4,4,4,4,4,4,4,4,4,4,4,4,4,4,4,4,4,4,4,4,4,4,4,4,4,100,,,,,,,,,,,,,,,,,,,,,,,,,,,,,,,,,,,,,,,,,,,,,,,,,,,,,,,,,,,,,,,,,,,,,,,,,,,,,,,,,,,,,,,,,,,,,,,,,,,,,,,,,,,,,,,,,,,,,,,,,,,,,,,,,,,,,,,,,,,,,,,,,,,,,,,,,,,,,,,,,,,,,,,,,,,,,,,,,,,,,,,,,,,,,,,,,,,,,,,,,,,,,,
1764669163.804544,2305,0,4381.410156,4392.307617,4505.256348,4540.512695,4404.230957,4513.333496,4535.384766,4391.282227,4569.358887,4395.769043,4500.256348,4507.436035,4547.692383,4392.307617,4370.256348,4491.025879,4531.794922,4518.846191,4495.512695,4363.717773,4375,4564.358887,4506.794922,4485.897461,4381.666504,4575.512695,4388.717773,4551.282227,4503.077148,4372.692383,4526.153809,4508.589844,2929,0,5,2304,42462,,,,0,4,4,4,4,4,4,4,4,4,4,4,4,4,4,4,4,4,4,4,4,4,4,4,4,4,4,4,4,4,4,4,4,100,,,,,,,,,,,,,,,,,,,,,,,,,,,,,,,,,,,16960,0,0.6386,-0.320679,-0.314941,0.624634,1.001099,0.001953,0.046392,15.666667,38,-22.666666,,,,,,,,,,,,,,,,,,,,,,,,,,,,,,,,,,,,,,,,,,,,,,,,,,,,,,,,,,,,,,,,,,,,,,,,,,,,,,,,,,,,,,,,,,,,,,,,,,,,,,,,,,,,,,,,,,,,,,,,,,,,,,,,,,,,,,,,,,,,,,,,,,,,,,,,,,,,,,,,
1764669163.808450,2306,0,4389.358887,4402.692383,4516.025879,4550.641113,4413.077148,4520,4544.871582,4402.563965,4576.282227,4405.512695,4503.461426,4515,4552.307617,4394.487305,4372.563965,4486.025879,4536.153809,4514.358887,4490.384766,4365.128418,4377.05127,4565.512695,4511.666504,4487.94873,4391.410156,4579.230957,4392.436035,4558.461426,4509.743652,4379.487305,4528.333496,4512.94873,2713,0,5,2560,42470,,,,0,4,4,4,4,4,4,4,4,4,4,4,4,4,4,4,4,4,4,4,4,4,4,4,4,4,4,4,4,4,4,4,4,100,,,,,,,,,,,,,,,,,,,,,,,,,,,,,,,,,,,,,,,,,,,,,,,,,,,,,,,,,,,,,,,,,,,,,,,,,,,,,,,,,,,,,,,,,,,,,,,,,,,,,,,,,,,,,,,,,,,,,,,,,,,,,,,,,,,,,,,,,,,,,,,,,,,,,,,,,,,,,,,,,,,,,,,,,,,,,,,,,,,,,,,,,,,,,,,,,,,,,,,,,,,,,,
1764669163.812356,2307,0,4388.846191,4404.230957,4519.871582,4553.077148,4411.538574,4517.692383,4547.692383,4400.256348,4580.256348,4408.846191,4501.922852,4515,4553.846191,4393.974121,4373.205078,4478.846191,4535.769043,4510.256348,4487.820313,4364.487305,4376.794922,4559.871582,4509.230957,4485.769043,4396.153809,4576.025879,4385.769043,4553.846191,4508.205078,4378.717773,4525.256348,4506.282227,2874,0,5,2560,42470,,,,0,4,4,4,4,4,4,4,4,4,4,4,4,4,4,4,4,4,4,4,4,4,4,4,4,4,4,4,4,4,4,4,4,100,,,,,,,,,,,,,,,,,,,,,,,,,,,,,,,,,,,,,,,,,,,,,,,,,,,,,,,,,,,,,,,,,,,,,,,,,,,,,,,,,,,,,,,,,,,,,,,,,,,,,,,,,,,,,,,,,,,,,,,,,,,,,,,,,,,,,,,,,,,,,,,,,,,,,,,,,,,,,,,,,,,,,,,,,,,,,,,,,,,,,,,,,,,,,,,,,,,,,,,,,,,,,,
1764669163.816262,2308,0,4382.436035,4398.461426,4513.461426,4548.333496,4401.922852,4508.717773,4544.230957,4388.333496,4578.974121,4405.641113,4498.205078,4510.128418,4554.102539,4392.94873,4373.461426,4476.794922,4533.461426,4513.205078,4492.820313,4364.487305,4376.666504,4552.692383,4503.461426,4482.692383,4396.282227,4570.512695,4374.230957,4542.436035,4501.282227,4372.692383,4520.769043,4495.512695,2773,0,5,2560,42477,,,,0,4,4,4,4,4,4,4,4,4,4,4,4,4,4,4,4,4,4,4,4,4,4,4,4,4,4,4,4,4,4,4,4,100,,,,,,,,,,,,,,,,,,,,,,,,,,,,,,,,,,,,,,,,,,,,,,,,,,,,,,,,,,,,,,,,,,,,,,,,,,,,,,,,,,,,,,,,,,,,,,,,,,,,,,,,,,,,,,,,,,,,,,,,,,,,,,,,,,,,,,,,,,,,,,,,,,,,,,,,,,,,,,,,,,,,,,,,,,,,,,,,,,,,,,,,,,,,,,,,,,,,,,,,,,,,,,
1764669163.820168,2309,0,4378.461426,4393.077148,4503.333496,4543.077148,4392.563965,4501.153809,4540.128418,4378.461426,4574.871582,4400.769043,4496.922852,4507.436035,4556.153809,4393.717773,4376.153809,4485.641113,4534.230957,4526.153809,4506.025879,4369.615234,4381.025879,4552.563965,4502.05127,4484.230957,4397.94873,4568.846191,4369.615234,4535.769043,4496.922852,4369.230957,4520.897461,4492.05127,2842,0,5,2560,42477,,,,0,4,4,4,4,4,4,4,4,4,4,4,4,4,4,4,4,4,4,4,4,4,4,4,4,4,4,4,4,4,4,4,4,100,,,,,,,,,,,,,,,,,,,,,,,,,,,,,,,,,,,16961,0,0.638135,-0.319641,-0.314636,0.625793,1.000122,0.013185,0.016604,16.666666,37.833332,-23.333334,,,,,,,,,,,,,,,,,,,,,,,,,,,,,,,,,,,,,,,,,,,,,,,,,,,,,,,,,,,,,,,,,,,,,,,,,,,,,,,,,,,,,,,,,,,,,,,,,,,,,,,,,,,,,,,,,,,,,,,,,,,,,,,,,,,,,,,,,,,,,,,,,,,,,,,,,,,,,,,,
1764669163.824074,2310,0,4382.179688,4394.615234,4499.230957,4542.692383,4390.256348,4501.794922,4540.641113,4378.974121,4572.820313,4398.333496,4500.256348,4511.025879,4561.153809,4397.05127,4382.692383,4503.333496,4540.769043,4543.974121,4521.666504,4381.025879,4390.384766,4563.333496,4509.230957,4492.436035,4406.153809,4573.077148,4378.205078,4541.666504,4500.128418,4373.077148,4527.563965,4499.230957,2829,0,5,2561,42485,,,,0,4,4,4,4,4,4,4,4,4,4,4,4,4,4,4,4,4,4,4,4,4,4,4,4,4,4,4,4,4,4,4,4,100,,,,,,,,,,,,,,,,,,,,,,,,,,,,,,,,,,,,,,,,,,,,,,,,,,,,,,,,,,,,,,,,,,,,,,,,,,,,,,,,,,,,,,,,,,,,,,,,,,,,,,,,,,,,,,,,,,,,,,,,,,,,,,,,,,,,,,,,,,,,,,,,,,,,,,,,,,,,,,,,,,,,,,,,,,,,,,,,,,,,,,,,,,,,,,,,,,,,,,,,,,,,,,
1764669163.827980,2311,0,4391.282227,4403.077148,4505.769043,4547.307617,4394.615234,4510.769043,4546.025879,4388.846191,4575.769043,4397.563965,4507.307617,4519.230957,4567.179688,4401.153809,4392.436035,4521.282227,4550.384766,4557.179688,4530.897461,4393.589844,4400.512695,4579.743652,4521.666504,4504.102539,4418.589844,4579.871582,4396.282227,4557.05127,4509.230957,4382.94873,4536.538574,4508.717773,3009,0,5,2561,42485,,,,0,4,4,4,4,4,4,4,4,4,4,4,4,4,4,4,4,4,4,4,4,4,4,4,4,4,4,4,4,4,4,4,4,100,,,,,,,,,,,,,,,,,,,,,,,,,,,,,,,,,,,,,,,,,,,,,,,,,,,,,,,,,,,,,,,,,,,,,,,,,,,,,,,,,,,,,,,,,,,,,,,,,,,,,,,,,,,,,,,,,,,,,,,,,,,,,,,,,,,,,,,,,,,,,,,,,,,,,,,,,,,,,,,,,,,,,,,,,,,,,,,,,,,,,,,,,,,,,,,,,,,,,,,,,,,,,,
1764669163.831886,2312,0,4398.589844,4412.692383,4518.974121,4551.922852,4400.128418,4521.538574,4551.794922,4399.871582,4582.179688,4394.743652,4514.487305,4525.384766,4571.282227,4403.846191,4401.794922,4530,4557.05127,4558.461426,4527.94873,4399.230957,4404.871582,4591.025879,4531.153809,4511.922852,4426.410156,4583.846191,4412.563965,4571.282227,4517.179688,4392.307617,4541.666504,4509.102539,2921,0,5,2562,42493,,,,0,4,4,4,4,4,4,4,4,4,4,4,4,4,4,4,4,4,4,4,4,4,4,4,4,4,4,4,4,4,4,4,4,100,,,,,,,,,,,,,,,,,,,,,,,,,,,,,,,,,,,,,,,,,,,,,,,,,,,,,,,,,,,,,,,,,,,,,,,,,,,,,,,,,,,,,,,,,,,,,,,,,,,,,,,,,,,,,,,,,,,,,,,,,,,,,,,,,,,,,,,,,,,,,,,,,,,,,,,,,,,,,,,,,,,,,,,,,,,,,,,,,,,,,,,,,,,,,,,,,,,,,,,,,,,,,,
1764669163.835792,2313,0,4397.692383,4415.769043,4527.94873,4550.897461,4400.384766,4525.897461,4552.307617,4403.333496,4587.179688,4388.333496,4517.179688,4524.102539,4570.641113,4402.563965,4405.256348,4525.641113,4555.897461,4547.179688,4515,4393.333496,4400.128418,4588.333496,4530.384766,4510.128418,4420.897461,4580.897461,4416.666504,4574.102539,4517.820313,4394.871582,4537.94873,4496.538574,2796,0,5,2562,42493,,,,0,4,4,4,4,4,4,4,4,4,4,4,4,4,4,4,4,4,4,4,4,4,4,4,4,4,4,4,4,4,4,4,4,100,,,,,,,,,,,,,,,,,,,,,,,,,,,,,,,,,,,16962,0,0.637842,-0.319031,-0.314514,0.626465,1.000122,0.013185,0.016604,17.5,38.5,-23.666666,,,,,,,,,,,,,,,,,,,,,,,,,,,,,,,,,,,,,,,,,,,,,,,,,,,,,,,,,,,,,,,,,,,,,,,,,,,,,,,,,,,,,,,,,,,,,,,,,,,,,,,,,,,,,,,,,,,,,,,,,,,,,,,,,,,,,,,,,,,,,,,,,,,,,,,,,,,,,,,,
1764669163.839698,2314,0,4387.436035,4408.461426,4522.820313,4541.922852,4391.922852,4518.974121,4544.230957,4395,4584.487305,4380.128418,4512.05127,4514.615234,4564.230957,4395.641113,4398.717773,4510.769043,4545.128418,4529.102539,4499.871582,4378.846191,4388.205078,4571.410156,4517.820313,4497.436035,4401.025879,4570.641113,4405.641113,4562.692383,4509.615234,4387.563965,4525.512695,4477.94873,2455,0,5,2563,42501,,,,0,4,4,4,4,4,4,4,4,4,4,4,4,4,4,4,4,4,4,4,4,4,4,4,4,4,4,4,4,4,4,4,4,100,,,,,,,,,,,,,,,,,,,,,,,,,,,,,,,,,,,,,,,,,,,,,,,,,,,,,,,,,,,,,,,,,,,,,,,,,,,,,,,,,,,,,,,,,,,,,,,,,,,,,,,,,,,,,,,,,,,,,,,,,,,,,,,,,,,,,,,,,,,,,,,,,,,,,,,,,,,,,,,,,,,,,,,,,,,,,,,,,,,,,,,,,,,,,,,,,,,,,,,,,,,,,,
1764669163.843604,2315,0,4372.179688,4392.820313,4502.05127,4527.692383,4376.410156,4503.461426,4528.846191,4378.461426,4571.922852,4374.230957,4499.871582,4500.512695,4553.846191,4384.615234,4382.692383,4493.589844,4528.589844,4512.692383,4489.871582,4363.974121,4374.871582,4548.461426,4499.230957,4478.461426,4374.230957,4556.410156,4385,4542.307617,4496.538574,4372.05127,4508.461426,4464.743652,2741,0,5,2563,42501,,,,0,4,4,4,4,4,4,4,4,4,4,4,4,4,4,4,4,4,4,4,4,4,4,4,4,4,4,4,4,4,4,4,4,100,,,,,,,,,,,,,,,,,,,,,,,,,,,,,,,,,,,,,,,,,,,,,,,,,,,,,,,,,,,,,,,,,,,,,,,,,,,,,,,,,,,,,,,,,,,,,,,,,,,,,,,,,,,,,,,,,,,,,,,,,,,,,,,,,,,,,,,,,,,,,,,,,,,,,,,,,,,,,,,,,,,,,,,,,,,,,,,,,,,,,,,,,,,,,,,,,,,,,,,,,,,,,,
1764669163.847510,2316,0,4360,4376.922852,4475.641113,4515,4361.282227,4488.077148,4513.333496,4362.692383,4555.256348,4374.487305,4486.282227,4488.974121,4543.461426,4373.846191,4364.487305,4482.820313,4513.461426,4504.358887,4487.563965,4356.538574,4366.794922,4531.153809,4484.743652,4462.05127,4353.461426,4544.487305,4366.025879,4524.102539,4485.641113,4355.512695,4494.615234,4465.256348,2496,0,5,2564,42509,,,,0,4,4,4,4,4,4,4,4,4,4,4,4,4,4,4,4,4,4,4,4,4,4,4,4,4,4,4,4,4,4,4,4,100,,,,,,,,,,,,,,,,,,,,,,,,,,,,,,,,,,,,,,,,,,,,,,,,,,,,,,,,,,,,,,,,,,,,,,,,,,,,,,,,,,,,,,,,,,,,,,,,,,,,,,,,,,,,,,,,,,,,,,,,,,,,,,,,,,,,,,,,,,,,,,,,,,,,,,,,,,,,,,,,,,,,,,,,,,,,,,,,,,,,,,,,,,,,,,,,,,,,,,,,,,,,,,
1764669163.851416,2317,0,4357.820313,4369.871582,4459.358887,4510.512695,4354.871582,4483.077148,4506.794922,4357.563965,4545.641113,4382.94873,4480.128418,4486.794922,4538.077148,4369.743652,4353.589844,4482.820313,4507.94873,4506.410156,4491.153809,4359.743652,4367.94873,4528.589844,4483.077148,4456.794922,4350.512695,4541.794922,4358.974121,4517.94873,4482.94873,4347.307617,4491.922852,4480.769043,2263,0,5,2564,42509,,,,0,4,4,4,4,4,4,4,4,4,4,4,4,4,4,4,4,4,4,4,4,4,4,4,4,4,4,4,4,4,4,4,4,100,,,,,,,,,,,,,,,,,,,,,,,,,,,,,,,,,,,16963,0,0.637427,-0.31842,-0.31427,0.627319,1.013307,-0.003907,-0.002442,15.833333,39,-25,,,,,,,,,,,,,,,,,,,,,,,,,,,,,,,,,,,,,,,,,,,,,,,,,,,,,,,,,,,,,,,,,,,,,,,,,,,,,,,,,,,,,,,,,,,,,,,,,,,,,,,,,,,,,,,,,,,,,,,,,,,,,,,,,,,,,,,,,,,,,,,,,,,,,,,,,,,,,,,,
1764669163.855322,2318,0,4367.179688,4375.384766,4463.333496,4517.563965,4361.282227,4491.922852,4514.230957,4366.666504,4551.153809,4398.077148,4485.512695,4496.025879,4541.153809,4375.384766,4355.897461,4491.282227,4514.871582,4517.436035,4498.717773,4370.769043,4377.563965,4541.794922,4494.743652,4465.769043,4369.102539,4551.538574,4367.05127,4526.794922,4489.230957,4352.820313,4503.589844,4504.102539,2752,0,5,2564,42516,,,,0,4,4,4,4,4,4,4,4,4,4,4,4,4,4,4,4,4,4,4,4,4,4,4,4,4,4,4,4,4,4,4,4,100,,,,,,,,,,,,,,,,,,,,,,,,,,,,,,,,,,,,,,,,,,,,,,,,,,,,,,,,,,,,,,,,,,,,,,,,,,,,,,,,,,,,,,,,,,,,,,,,,,,,,,,,,,,,,,,,,,,,,,,,,,,,,,,,,,,,,,,,,,,,,,,,,,,,,,,,,,,,,,,,,,,,,,,,,,,,,,,,,,,,,,,,,,,,,,,,,,,,,,,,,,,,,,
1764669163.859228,2319,0,4381.794922,4388.589844,4483.589844,4531.922852,4376.538574,4508.333496,4531.025879,4383.846191,4568.846191,4413.333496,4498.333496,4511.410156,4551.538574,4387.820313,4367.94873,4500.897461,4530.128418,4533.205078,4510.128418,4383.717773,4390.641113,4562.563965,4512.05127,4484.230957,4401.153809,4570.256348,4383.077148,4543.846191,4499.743652,4367.179688,4524.487305,4524.230957,2473,0,5,2564,42516,,,,0,4,4,4,4,4,4,4,4,4,4,4,4,4,4,4,4,4,4,4,4,4,4,4,4,4,4,4,4,4,4,4,4,100,,,,,,,,,,,,,,,,,,,,,,,,,,,,,,,,,,,,,,,,,,,,,,,,,,,,,,,,,,,,,,,,,,,,,,,,,,,,,,,,,,,,,,,,,,,,,,,,,,,,,,,,,,,,,,,,,,,,,,,,,,,,,,,,,,,,,,,,,,,,,,,,,,,,,,,,,,,,,,,,,,,,,,,,,,,,,,,,,,,,,,,,,,,,,,,,,,,,,,,,,,,,,,
1764669163.863134,2320,0,4392.436035,4400,4506.538574,4544.871582,4391.538574,4521.666504,4547.05127,4398.589844,4586.794922,4420.384766,4509.230957,4523.333496,4564.358887,4400.512695,4381.282227,4505.641113,4544.743652,4549.358887,4525.769043,4393.461426,4402.563965,4578.846191,4524.487305,4501.666504,4430.384766,4588.461426,4395.384766,4557.692383,4507.179688,4380,4544.358887,4530.897461,2912,0,5,2565,42524,,,,0,4,4,4,4,4,4,4,4,4,4,4,4,4,4,4,4,4,4,4,4,4,4,4,4,4,4,4,4,4,4,4,4,100,,,,,,,,,,,,,,,,,,,,,,,,,,,,,,,,,,,,,,,,,,,,,,,,,,,,,,,,,,,,,,,,,,,,,,,,,,,,,,,,,,,,,,,,,,,,,,,,,,,,,,,,,,,,,,,,,,,,,,,,,,,,,,,,,,,,,,,,,,,,,,,,,,,,,,,,,,,,,,,,,,,,,,,,,,,,,,,,,,,,,,,,,,,,,,,,,,,,,,,,,,,,,,
1764669163.867040,2321,0,4393.461426,4403.717773,4519.615234,4549.230957,4399.615234,4525.384766,4554.230957,4403.974121,4594.358887,4416.025879,4512.05127,4525.641113,4573.974121,4408.205078,4389.871582,4505.256348,4551.794922,4561.025879,4541.410156,4398.461426,4410.897461,4583.205078,4526.282227,4509.743652,4442.307617,4597.436035,4396.922852,4561.282227,4507.820313,4383.846191,4553.077148,4521.794922,2947,0,5,2565,42524,,,,0,4,4,4,4,4,4,4,4,4,4,4,4,4,4,4,4,4,4,4,4,4,4,4,4,4,4,4,4,4,4,4,4,100,,,,,,,,,,,,,,,,,,,,,,,,,,,,,,,,,,,16964,0,0.637101,-0.31781,-0.313843,0.628174,0.999145,-0.010743,0.010255,15.5,39,-25.333334,,,,,,,,,,,,,,,,,,,,,,,,,,,,,,,,,,,,,,,,,,,,,,,,,,,,,,,,,,,,,,,,,,,,,,,,,,,,,,,,,,,,,,,,,,,,,,,,,,,,,,,,,,,,,,,,,,,,,,,,,,,,,,,,,,,,,,,,,,,,,,,,,,,,,,,,,,,,,,,,
1764669163.870946,2322,0,4386.538574,4399.743652,4519.487305,4544.615234,4399.743652,4520.256348,4551.666504,4400.641113,4590.256348,4405.256348,4506.922852,4518.333496,4576.794922,4409.487305,4392.94873,4503.333496,4549.743652,4563.077148,4548.077148,4398.846191,4415,4576.282227,4519.743652,4506.538574,4432.692383,4594.615234,4388.461426,4555.641113,4502.94873,4378.974121,4547.05127,4502.179688,1809,0,5,2564,42532,,,,0,4,4,4,4,4,4,4,4,4,4,4,4,4,4,4,4,4,4,4,4,4,4,4,4,4,4,4,4,4,4,4,4,100,,,,,,,,,,,,,,,,,,,,,,,,,,,,,,,,,,,,,,,,,,,,,,,,,,,,,,,,,,,,,,,,,,,,,,,,,,,,,,,,,,,,,,,,,,,,,,,,,,,,,,,,,,,,,,,,,,,,,,,,,,,,,,,,,,,,,,,,,,,,,,,,,,,,,,,,,,,,,,,,,,,,,,,,,,,,,,,,,,,,,,,,,,,,,,,,,,,,,,,,,,,,,,
1764669163.874852,2323,0,4376.025879,4392.179688,4510,4535.128418,4394.871582,4510.641113,4542.563965,4392.307617,4580.384766,4396.153809,4497.692383,4505.897461,4571.410156,4404.743652,4391.538574,4502.179688,4540.128418,4551.538574,4536.794922,4393.333496,4412.436035,4563.974121,4509.743652,4495.512695,4407.94873,4583.077148,4376.282227,4546.025879,4496.025879,4370.512695,4529.743652,4481.410156,2763,0,5,2564,42532,,,,0,4,4,4,4,4,4,4,4,4,4,4,4,4,4,4,4,4,4,4,4,4,4,4,4,4,4,4,4,4,4,4,4,100,,,,,,,,,,,,,,,,,,,,,,,,,,,,,,,,,,,,,,,,,,,,,,,,,,,,,,,,,,,,,,,,,,,,,,,,,,,,,,,,,,,,,,,,,,,,,,,,,,,,,,,,,,,,,,,,,,,,,,,,,,,,,,,,,,,,,,,,,,,,,,,,,,,,,,,,,,,,,,,,,,,,,,,,,,,,,,,,,,,,,,,,,,,,,,,,,,,,,,,,,,,,,,
1764669163.878758,2324,0,4365.512695,4383.461426,4495.128418,4525.384766,4387.179688,4500.256348,4530.256348,4381.922852,4571.025879,4392.179688,4487.436035,4492.94873,4558.717773,4395.384766,4385.897461,4499.230957,4526.153809,4527.436035,4507.179688,4379.615234,4399.871582,4552.05127,4499.230957,4481.666504,4379.102539,4568.333496,4365.641113,4536.282227,4489.487305,4362.179688,4509.358887,4466.666504,2614,0,5,2561,42540,,,,0,4,4,4,4,4,4,4,4,4,4,4,4,4,4,4,4,4,4,4,4,4,4,4,4,4,4,4,4,4,4,4,4,100,,,,,,,,,,,,,,,,,,,,,,,,,,,,,,,,,,,,,,,,,,,,,,,,,,,,,,,,,,,,,,,,,,,,,,,,,,,,,,,,,,,,,,,,,,,,,,,,,,,,,,,,,,,,,,,,,,,,,,,,,,,,,,,,,,,,,,,,,,,,,,,,,,,,,,,,,,,,,,,,,,,,,,,,,,,,,,,,,,,,,,,,,,,,,,,,,,,,,,,,,,,,,,
1764669163.882664,2325,0,4357.436035,4375.641113,4478.333496,4518.717773,4378.974121,4491.410156,4518.077148,4372.179688,4565.512695,4392.563965,4478.333496,4483.461426,4543.717773,4384.871582,4376.922852,4492.179688,4512.307617,4499.743652,4471.538574,4359.871582,4377.692383,4543.461426,4489.871582,4470.384766,4357.307617,4555.512695,4360.512695,4528.589844,4484.102539,4355.384766,4495.512695,4461.410156,2851,0,5,2561,42540,,,,0,4,4,4,4,4,4,4,4,4,4,4,4,4,4,4,4,4,4,4,4,4,4,4,4,4,4,4,4,4,4,4,4,100,,,,,,,,,,,,,,,,,,,,,,,,,,,,,,,,,,,16965,0,0.636832,-0.3172,-0.313538,0.628906,0.995239,-0.02051,0.008302,15.5,39,-25.333334,,,,,,,,,,,,,,,,,,,,,,,,,,,,,,,,,,,,,,,,,,,,,,,,,,,,,,,,,,,,,,,,,,,,,,,,,,,,,,,,,,,,,,,,,,,,,,,,,,,,,,,,,,,,,,,,,,,,,,,,,,,,,,,,,,,,,,,,,,,,,,,,,,,,,,,,,,,,,,,,
1764669163.886570,2326,0,4355.256348,4372.05127,4464.615234,4518.333496,4373.974121,4486.922852,4511.282227,4368.205078,4564.743652,4396.794922,4474.871582,4481.666504,4534.871582,4378.461426,4369.102539,4483.974121,4504.743652,4482.563965,4448.846191,4342.94873,4354.615234,4541.153809,4485.512695,4466.922852,4350.641113,4549.487305,4363.589844,4525.512695,4482.436035,4352.05127,4495,4465.641113,2961,0,5,2560,42548,,,,0,4,4,4,4,4,4,4,4,4,4,4,4,4,4,4,4,4,4,4,4,4,4,4,4,4,4,4,4,4,4,4,4,100,,,,,,,,,,,,,,,,,,,,,,,,,,,,,,,,,,,,,,,,,,,,,,,,,,,,,,,,,,,,,,,,,,,,,,,,,,,,,,,,,,,,,,,,,,,,,,,,,,,,,,,,,,,,,,,,,,,,,,,,,,,,,,,,,,,,,,,,,,,,,,,,,,,,,,,,,,,,,,,,,,,,,,,,,,,,,,,,,,,,,,,,,,,,,,,,,,,,,,,,,,,,,,
1764669163.890476,2327,0,4362.820313,4377.820313,4460.384766,4526.922852,4378.205078,4491.666504,4516.282227,4375.512695,4570.512695,4406.538574,4481.282227,4490.769043,4539.358887,4381.666504,4370.128418,4482.692383,4509.743652,4486.922852,4451.922852,4341.410156,4343.205078,4546.922852,4490.769043,4474.487305,4362.820313,4553.974121,4375.897461,4531.153809,4487.563965,4355.512695,4509.230957,4477.94873,2888,0,5,2560,42548,,,,0,4,4,4,4,4,4,4,4,4,4,4,4,4,4,4,4,4,4,4,4,4,4,4,4,4,4,4,4,4,4,4,4,100,,,,,,,,,,,,,,,,,,,,,,,,,,,,,,,,,,,,,,,,,,,,,,,,,,,,,,,,,,,,,,,,,,,,,,,,,,,,,,,,,,,,,,,,,,,,,,,,,,,,,,,,,,,,,,,,,,,,,,,,,,,,,,,,,,,,,,,,,,,,,,,,,,,,,,,,,,,,,,,,,,,,,,,,,,,,,,,,,,,,,,,,,,,,,,,,,,,,,,,,,,,,,,
1764669163.894382,2328,0,4380,4394.102539,4469.615234,4543.461426,4394.230957,4507.05127,4534.102539,4393.846191,4583.205078,4420.512695,4497.563965,4508.717773,4557.307617,4394.743652,4383.717773,4494.487305,4527.820313,4512.563965,4479.102539,4360.512695,4351.025879,4560.384766,4505.512695,4490.897461,4390.641113,4567.94873,4393.974121,4545.897461,4499.487305,4367.307617,4530.897461,4493.461426,2747,0,5,2561,42556,,,,0,4,4,4,4,4,4,4,4,4,4,4,4,4,4,4,4,4,4,4,4,4,4,4,4,4,4,4,4,4,4,4,4,100,,,,,,,,,,,,,,,,,,,,,,,,,,,,,,,,,,,,,,,,,,,,,,,3.224361,1.081242,1.184866,2.324213,0.967005,2.788959,1.418688,1.948155,2.631636,1.198559,1.7593,1.742275,4.778616,3.320444,1.623296,1.344172,0.661496,1.453249,3.045905,1.199025,2.578048,2.240807,2.47843,3.158418,1.320596,3.216434,1.612712,1.273039,2.592866,1.010103,2.157046,0.841647,0.975576,2.682786,1.216703,1.747706,0.93343,1.479589,2.673475,1.361793,2.121069,0.523918,1.427407,2.55166,1.351857,1.782314,1.491139,3.735151,5.564125,2.135495,1.0364,0.797526,1.362231,1.818135,0.948927,1.570221,0.65157,1.488683,2.293436,1.012289,0.873662,0.645598,1.513776,1.9532,1.006226,0.293822,0.36751,0.683578,0.855323,0.657091,0.647526,0.92833,0.633768,1.496828,1.130265,0.87467,1.571281,0.945516,0.953208,1.084597,1.323085,1.12501,1.680776,2.31892,1.129939,1.279434,2.8368,1.56303,1.848957,1.515815,0.653567,2.365161,1.299915,1.388818,1.244086,1.072438,1.987357,1.591692,1.768045,1.006395,1.731166,2.550943,2.797131,2.537936,1.359828,1.268709,1.300694,1.601214,2.169694,1.228189,1.622183,0.895691,1.0881,1.964929,1.054734,2.293717,1.775592,2.059163,2.642192,1.113006,6.622954,2.397594,12.156097,5.875946,3.184184,3.150652,1.156881,1.997025,2.097777,1.157968,1.900595,1.025395,1.83958,2.764678,1.190622,2.631528,1.277643,1.586215,2.408646,1.216753,1.391328,0.611664,0.609003,1.121386,0.550803,1.724208,1.027814,1.570985,3.096534,1.263473,2.529807,1.526262,2.989053,2.680364,2.004811,2.586765,3.049959,4.923352,3.288291,1.69839
1764669163.898288,2329,0,4399.102539,4413.846191,4488.846191,4560.512695,4414.871582,4526.922852,4556.538574,4414.230957,4598.717773,4431.410156,4516.410156,4527.436035,4579.358887,4411.025879,4405,4517.179688,4550.512695,4547.179688,4514.743652,4392.307617,4373.589844,4575.256348,4522.692383,4507.692383,4421.794922,4584.102539,4408.461426,4562.94873,4512.563965,4383.333496,4546.666504,4504.230957,2917,0,5,2561,42556,,,,0,4,4,4,4,4,4,4,4,4,4,4,4,4,4,4,4,4,4,4,4,4,4,4,4,4,4,4,4,4,4,4,4,100,,,,,,,,,,,,,,,,,,,,,,,,,,,,,,,,,,,16966,0,0.635898,-0.31665,-0.313293,0.630249,1.005494,-0.002442,0.015627,15.666667,39.166668,-23.833334,,,,,,,,,,,,,,,,,,,,,,,,,,,,,,,,,,,,,,,,,,,,,,,,,,,,,,,,,,,,,,,,,,,,,,,,,,,,,,,,,,,,,,,,,,,,,,,,,,,,,,,,,,,,,,,,,,,,,,,,,,,,,,,,,,,,,,,,,,,,,,,,,,,,,,,,,,,,,,,,
1764669163.902194,2330,0,4408.846191,4424.358887,4508.205078,4568.461426,4426.025879,4538.974121,4569.871582,4423.589844,4608.461426,4430,4527.05127,4536.666504,4592.307617,4420.384766,4422.692383,4540.641113,4564.743652,4573.846191,4541.025879,4419.358887,4397.820313,4583.077148,4532.179688,4514.487305,4438.589844,4592.563965,4410.384766,4571.282227,4518.205078,4394.358887,4546.410156,4503.974121,1843,0,5,2562,42563,,,,0,4,4,4,4,4,4,4,4,4,4,4,4,4,4,4,4,4,4,4,4,4,4,4,4,4,4,4,4,4,4,4,4,100,,,,,,,,,,,,,,,,,,,,,,,,,,,,,,,,,,,,,,,,,,,,,,,,,,,,,,,,,,,,,,,,,,,,,,,,,,,,,,,,,,,,,,,,,,,,,,,,,,,,,,,,,,,,,,,,,,,,,,,,,,,,,,,,,,,,,,,,,,,,,,,,,,,,,,,,,,,,,,,,,,,,,,,,,,,,,,,,,,,,,,,,,,,,,,,,,,,,,,,,,,,,,,
1764669163.906100,2331,0,4402.94873,4417.563965,4518.589844,4562.436035,4417.692383,4534.871582,4565.128418,4415.384766,4605.512695,4414.358887,4523.461426,4531.922852,4588.461426,4416.153809,4426.025879,4552.94873,4562.179688,4580.641113,4547.820313,4426.282227,4410.512695,4578.333496,4528.846191,4506.794922,4429.358887,4587.820313,4397.94873,4564.487305,4512.563965,4393.589844,4531.410156,4494.230957,2477,0,5,2562,42563,,,,0,4,4,4,4,4,4,4,4,4,4,4,4,4,4,4,4,4,4,4,4,4,4,4,4,4,4,4,4,4,4,4,4,100,,,,,,,,,,,,,,,,,,,,,,,,,,,,,,,,,,,,,,,,,,,,,,,,,,,,,,,,,,,,,,,,,,,,,,,,,,,,,,,,,,,,,,,,,,,,,,,,,,,,,,,,,,,,,,,,,,,,,,,,,,,,,,,,,,,,,,,,,,,,,,,,,,,,,,,,,,,,,,,,,,,,,,,,,,,,,,,,,,,,,,,,,,,,,,,,,,,,,,,,,,,,,,
1764669163.910006,2332,0,4385.384766,4396.922852,4517.563965,4546.794922,4393.461426,4517.307617,4546.282227,4395.256348,4590.769043,4393.589844,4509.230957,4517.820313,4571.922852,4400.256348,4412.820313,4547.820313,4546.282227,4566.666504,4536.666504,4410.641113,4406.666504,4563.846191,4516.538574,4489.358887,4397.94873,4572.820313,4378.846191,4546.410156,4499.487305,4381.922852,4514.358887,4483.205078,2641,0,5,2563,42571,,,,0,4,4,4,4,4,4,4,4,4,4,4,4,4,4,4,4,4,4,4,4,4,4,4,4,4,4,4,4,4,4,4,4,100,,,,,,,,,,,,,,,,,,,,,,,,,,,,,,,,,,,,,,,,,,,,,,,,,,,,,,,,,,,,,,,,,,,,,,,,,,,,,,,,,,,,,,,,,,,,,,,,,,,,,,,,,,,,,,,,,,,,,,,,,,,,,,,,,,,,,,,,,,,,,,,,,,,,,,,,,,,,,,,,,,,,,,,,,,,,,,,,,,,,,,,,,,,,,,,,,,,,,,,,,,,,,,
1764669163.913912,2333,0,4367.94873,4376.153809,4511.538574,4532.563965,4369.615234,4498.717773,4527.179688,4377.436035,4573.461426,4381.153809,4495,4504.871582,4554.615234,4382.179688,4390.897461,4527.05127,4528.589844,4540.128418,4516.153809,4383.589844,4391.410156,4548.333496,4504.358887,4472.820313,4362.436035,4557.563965,4365.256348,4528.846191,4487.94873,4367.436035,4508.846191,4478.717773,2510,0,5,2563,42571,,,,0,4,4,4,4,4,4,4,4,4,4,4,4,4,4,4,4,4,4,4,4,4,4,4,4,4,4,4,4,4,4,4,4,100,,,,,,,,,,,,,,,,,,,,,,,,,,,,,,,,,,,16967,0,0.635898,-0.31665,-0.313293,0.630249,1.001099,-0.018069,0.040532,15.5,37.833332,-21.666666,,,,,,,,,,,,,,,,,,,,,,,,,,,,,,,,,,,,,,,,,,,,,,,,,,,,,,,,,,,,,,,,,,,,,,,,,,,,,,,,,,,,,,,,,,,,,,,,,,,,,,,,,,,,,,,,,,,,,,,,,,,,,,,,,,,,,,,,,,,,,,,,,,,,,,,,,,,,,,,,
1764669163.917818,2334,0,4361.410156,4368.461426,4508.974121,4528.589844,4361.794922,4491.922852,4520.384766,4373.077148,4564.230957,4385,4490.769043,4500.641113,4547.307617,4371.538574,4372.692383,4499.487305,4520,4513.205078,4495.512695,4360.641113,4375.128418,4539.615234,4500.128418,4466.025879,4343.589844,4551.666504,4365,4522.820313,4485.384766,4359.358887,4518.333496,4482.179688,2768,0,5,2564,42579,,,,0,4,4,4,4,4,4,4,4,4,4,4,4,4,4,4,4,4,4,4,4,4,4,4,4,4,4,4,4,4,4,4,4,100,,,,,,,,,,,,,,,,,,,,,,,,,,,,,,,,,,,,,,,,,,,,,,,,,,,,,,,,,,,,,,,,,,,,,,,,,,,,,,,,,,,,,,,,,,,,,,,,,,,,,,,,,,,,,,,,,,,,,,,,,,,,,,,,,,,,,,,,,,,,,,,,,,,,,,,,,,,,,,,,,,,,,,,,,,,,,,,,,,,,,,,,,,,,,,,,,,,,,,,,,,,,,,
1764669163.921724,2335,0,4368.077148,4377.563965,4513.717773,4535.769043,4373.717773,4500.641113,4529.102539,4382.436035,4568.461426,4401.922852,4498.077148,4505.897461,4552.179688,4372.307617,4366.025879,4476.282227,4523.461426,4496.153809,4481.410156,4352.94873,4367.820313,4540.512695,4505,4470.512695,4352.05127,4557.94873,4375.897461,4530.641113,4492.179688,4361.666504,4534.230957,4490.512695,2770,0,5,2564,42579,,,,0,4,4,4,4,4,4,4,4,4,4,4,4,4,4,4,4,4,4,4,4,4,4,4,4,4,4,4,4,4,4,4,4,100,,,,,,,,,,,,,,,,,,,,,,,,,,,,,,,,,,,,,,,,,,,,,,,,,,,,,,,,,,,,,,,,,,,,,,,,,,,,,,,,,,,,,,,,,,,,,,,,,,,,,,,,,,,,,,,,,,,,,,,,,,,,,,,,,,,,,,,,,,,,,,,,,,,,,,,,,,,,,,,,,,,,,,,,,,,,,,,,,,,,,,,,,,,,,,,,,,,,,,,,,,,,,,
1764669163.925630,2336,0,4382.307617,4395.769043,4522.05127,4546.794922,4396.025879,4518.077148,4545.897461,4396.025879,4582.563965,4420.256348,4509.358887,4515.897461,4562.692383,4380.897461,4370.512695,4466.282227,4534.358887,4493.589844,4477.436035,4361.282227,4372.820313,4547.94873,4514.102539,4481.153809,4382.692383,4571.922852,4389.487305,4545.641113,4502.94873,4371.794922,4543.461426,4500.384766,2846,0,5,2565,42587,,,,0,4,4,4,4,4,4,4,4,4,4,4,4,4,4,4,4,4,4,4,4,4,4,4,4,4,4,4,4,4,4,4,4,100,,,,,,,,,,,,,,,,,,,,,,,,,,,,,,,,,,,,,,,,,,,,,,,,,,,,,,,,,,,,,,,,,,,,,,,,,,,,,,,,,,,,,,,,,,,,,,,,,,,,,,,,,,,,,,,,,,,,,,,,,,,,,,,,,,,,,,,,,,,,,,,,,,,,,,,,,,,,,,,,,,,,,,,,,,,,,,,,,,,,,,,,,,,,,,,,,,,,,,,,,,,,,,
1764669163.929536,2337,0,4394.871582,4410.512695,4525.769043,4553.589844,4414.615234,4532.820313,4559.102539,4403.717773,4597.436035,4429.102539,4515,4524.743652,4570.128418,4390.512695,4378.717773,4471.666504,4545.256348,4503.717773,4483.461426,4377.820313,4386.666504,4557.436035,4521.410156,4491.153809,4418.205078,4585.641113,4397.179688,4557.692383,4511.025879,4382.820313,4539.230957,4510.256348,2926,0,5,2565,42587,,,,0,4,4,4,4,4,4,4,4,4,4,4,4,4,4,4,4,4,4,4,4,4,4,4,4,4,4,4,4,4,4,4,4,100,,,,,,,,,,,,,,,,,,,,,,,,,,,,,,,,,,,16968,0,0.634684,-0.316284,-0.312805,0.631897,0.990355,-0.009767,0.02637,16.333334,39,-25,,,,,,,,,,,,,,,,,,,,,,,,,,,,,,,,,,,,,,,,,,,,,,,,,,,,,,,,,,,,,,,,,,,,,,,,,,,,,,,,,,,,,,,,,,,,,,,,,,,,,,,,,,,,,,,,,,,,,,,,,,,,,,,,,,,,,,,,,,,,,,,,,,,,,,,,,,,,,,,,
1764669163.933442,2338,0,4399.358887,4413.333496,4518.717773,4553.205078,4420.128418,4536.666504,4561.153809,4402.05127,4604.743652,4425.512695,4510.256348,4527.94873,4569.743652,4395.769043,4382.563965,4486.282227,4550.512695,4518.461426,4494.358887,4390.769043,4399.871582,4564.102539,4522.94873,4494.871582,4438.717773,4592.563965,4395.641113,4560.128418,4512.820313,4387.94873,4524.743652,4518.589844,2723,0,5,2566,42595,,,,0,4,4,4,4,4,4,4,4,4,4,4,4,4,4,4,4,4,4,4,4,4,4,4,4,4,4,4,4,4,4,4,4,100,,,,,,,,,,,,,,,,,,,,,,,,,,,,,,,,,,,,,,,,,,,,,,,,,,,,,,,,,,,,,,,,,,,,,,,,,,,,,,,,,,,,,,,,,,,,,,,,,,,,,,,,,,,,,,,,,,,,,,,,,,,,,,,,,,,,,,,,,,,,,,,,,,,,,,,,,,,,,,,,,,,,,,,,,,,,,,,,,,,,,,,,,,,,,,,,,,,,,,,,,,,,,,
1764669163.937348,2339,0,4394.230957,4404.230957,4502.94873,4548.205078,4411.922852,4529.102539,4552.563965,4394.871582,4601.153809,4414.230957,4497.94873,4524.615234,4562.820313,4395,4379.615234,4499.358887,4548.461426,4527.94873,4501.922852,4391.282227,4402.94873,4564.871582,4518.461426,4491.025879,4433.589844,4589.871582,4387.94873,4553.205078,4508.589844,4384.358887,4509.615234,4521.025879,2895,0,5,2566,42595,,,,0,4,4,4,4,4,4,4,4,4,4,4,4,4,4,4,4,4,4,4,4,4,4,4,4,4,4,4,4,4,4,4,4,100,,,,,,,,,,,,,,,,,,,,,,,,,,,,,,,,,,,,,,,,,,,,,,,,,,,,,,,,,,,,,,,,,,,,,,,,,,,,,,,,,,,,,,,,,,,,,,,,,,,,,,,,,,,,,,,,,,,,,,,,,,,,,,,,,,,,,,,,,,,,,,,,,,,,,,,,,,,,,,,,,,,,,,,,,,,,,,,,,,,,,,,,,,,,,,,,,,,,,,,,,,,,,,
1764669163.941254,2340,0,4384.358887,4390.384766,4488.205078,4543.205078,4396.282227,4517.563965,4540.256348,4389.102539,4589.743652,4403.077148,4486.282227,4518.077148,4555,4390.512695,4373.589844,4503.589844,4541.922852,4527.94873,4501.410156,4379.358887,4394.102539,4560.128418,4512.436035,4483.333496,4406.538574,4579.102539,4379.615234,4543.205078,4502.05127,4375.256348,4502.94873,4514.230957,2780,0,5,2567,42602,,,,0,4,4,4,4,4,4,4,4,4,4,4,4,4,4,4,4,4,4,4,4,4,4,4,4,4,4,4,4,4,4,4,4,100,,,,,,,,,,,,,,,,,,,,,,,,,,,,,,,,,,,,,,,,,,,,,,,,,,,,,,,,,,,,,,,,,,,,,,,,,,,,,,,,,,,,,,,,,,,,,,,,,,,,,,,,,,,,,,,,,,,,,,,,,,,,,,,,,,,,,,,,,,,,,,,,,,,,,,,,,,,,,,,,,,,,,,,,,,,,,,,,,,,,,,,,,,,,,,,,,,,,,,,,,,,,,,
1764669163.945160,2341,0,4377.820313,4381.538574,4484.487305,4541.410156,4381.922852,4511.794922,4533.846191,4389.615234,4577.94873,4399.358887,4482.563965,4513.846191,4553.205078,4387.307617,4370.769043,4499.871582,4537.307617,4522.820313,4495.512695,4364.487305,4380.897461,4555.384766,4510.641113,4478.461426,4374.358887,4566.025879,4375.384766,4538.205078,4497.94873,4368.461426,4507.436035,4498.077148,2868,0,5,2567,42602,,,,0,4,4,4,4,4,4,4,4,4,4,4,4,4,4,4,4,4,4,4,4,4,4,4,4,4,4,4,4,4,4,4,4,100,,,,,,,,,,,,,,,,,,,,,,,,,,,,,,,,,,,16969,0,0.634015,-0.316162,-0.312805,0.632629,0.975217,-0.028324,-0.009278,15.666667,39.5,-23.833334,,,,,,,,,,,,,,,,,,,,,,,,,,,,,,,,,,,,,,,,,,,,,,,,,,,,,,,,,,,,,,,,,,,,,,,,,,,,,,,,,,,,,,,,,,,,,,,,,,,,,,,,,,,,,,,,,,,,,,,,,,,,,,,,,,,,,,,,,,,,,,,,,,,,,,,,,,,,,,,,
1764669163.949066,2342,0,4380.256348,4383.333496,4492.820313,4543.461426,4376.282227,4516.922852,4538.205078,4396.538574,4572.436035,4404.615234,4488.461426,4515.769043,4560.641113,4388.974121,4375,4495.769043,4540.128418,4521.666504,4492.05127,4358.589844,4375,4556.922852,4516.666504,4481.922852,4356.794922,4557.820313,4376.922852,4542.179688,4498.974121,4370,4518.461426,4477.820313,2849,0,5,2568,42610,,,,0,4,4,4,4,4,4,4,4,4,4,4,4,4,4,4,4,4,4,4,4,4,4,4,4,4,4,4,4,4,4,4,4,100,,,,,,,,,,,,,,,,,,,,,,,,,,,,,,,,,,,,,,,,,,,,,,,,,,,,,,,,,,,,,,,,,,,,,,,,,,,,,,,,,,,,,,,,,,,,,,,,,,,,,,,,,,,,,,,,,,,,,,,,,,,,,,,,,,,,,,,,,,,,,,,,,,,,,,,,,,,,,,,,,,,,,,,,,,,,,,,,,,,,,,,,,,,,,,,,,,,,,,,,,,,,,,
1764669163.952972,2343,0,4390.897461,4393.974121,4504.487305,4547.436035,4381.282227,4529.615234,4551.025879,4405.384766,4575,4413.461426,4498.974121,4523.589844,4574.102539,4395.384766,4383.846191,4497.820313,4550.128418,4529.487305,4496.410156,4366.794922,4381.922852,4566.922852,4527.820313,4493.333496,4364.743652,4558.589844,4381.922852,4552.563965,4504.358887,4379.871582,4528.205078,4461.025879,3020,0,5,2568,42610,,,,0,4,4,4,4,4,4,4,4,4,4,4,4,4,4,4,4,4,4,4,4,4,4,4,4,4,4,4,4,4,4,4,4,100,,,,,,,,,,,,,,,,,,,,,,,,,,,,,,,,,,,,,,,,,,,,,,,,,,,,,,,,,,,,,,,,,,,,,,,,,,,,,,,,,,,,,,,,,,,,,,,,,,,,,,,,,,,,,,,,,,,,,,,,,,,,,,,,,,,,,,,,,,,,,,,,,,,,,,,,,,,,,,,,,,,,,,,,,,,,,,,,,,,,,,,,,,,,,,,,,,,,,,,,,,,,,,
1764669163.956878,2344,1,4399.316406,4400.769043,4503.205078,4548.546875,4394.230957,4534.401855,4558.760742,4406.153809,4582.521484,4411.709473,4501.367676,4529.572754,4579.743652,4399.786133,4387.905762,4506.794922,4557.05127,4539.914551,4505.769043,4380.641113,4391.666504,4578.03418,4532.734863,4504.316406,4392.179688,4567.350586,4385.470215,4558.418945,4508.162598,4387.521484,4525.427246,4466.153809,0,0,5,0,0,,,,0,4,4,4,4,4,4,4,4,4,4,4,4,4,4,4,4,4,4,4,4,4,4,4,4,4,4,4,4,4,4,4,4,100,,,,,,,,,,,,,,,,,,,,,,,,,,,,,,,,,,,,,,,,,,,,,,,,,,,,,,,,,,,,,,,,,,,,,,,,,,,,,,,,,,,,,,,,,,,,,,,,,,,,,,,,,,,,,,,,,,,,,,,,,,,,,,,,,,,,,,,,,,,,,,,,,,,,,,,,,,,,,,,,,,,,,,,,,,,,,,,,,,,,,,,,,,,,,,,,,,,,,,,,,,,,,,
1764669163.960785,2345,1,4407.734863,4407.563965,4501.922852,4549.658203,4407.179688,4539.187988,4566.495605,4406.922852,4590.042969,4409.957031,4503.760742,4535.555664,4585.384766,4404.187988,4391.96582,4515.769043,4563.974121,4550.341797,4515.128418,4394.487305,4401.410156,4589.145508,4537.649414,4515.299316,4419.615234,4576.111328,4389.01709,4564.273438,4511.96582,4395.170898,4522.649414,4471.282227,0,0,5,0,0,,,,0,4,4,4,4,4,4,4,4,4,4,4,4,4,4,4,4,4,4,4,4,4,4,4,4,4,4,4,4,4,4,4,4,100,,,,,,,,,,,,,,,,,,,,,,,,,,,,,,,,,,,,,,,,,,,,,,,,,,,,,,,,,,,,,,,,,,,,,,,,,,,,,,,,,,,,,,,,,,,,,,,,,,,,,,,,,,,,,,,,,,,,,,,,,,,,,,,,,,,,,,,,,,,,,,,,,,,,,,,,,,,,,,,,,,,,,,,,,,,,,,,,,,,,,,,,,,,,,,,,,,,,,,,,,,,,,,
1764669163.964691,2346,0,4416.153809,4414.358887,4500.641113,4550.769043,4420.128418,4543.974121,4574.230957,4407.692383,4597.563965,4408.205078,4506.153809,4541.538574,4591.025879,4408.589844,4396.025879,4524.743652,4570.897461,4560.769043,4524.487305,4408.333496,4411.153809,4600.256348,4542.563965,4526.282227,4447.05127,4584.871582,4392.563965,4570.128418,4515.769043,4402.820313,4519.871582,4476.410156,2452,0,5,2569,42626,,,,0,4,4,4,4,4,4,4,4,4,4,4,4,4,4,4,4,4,4,4,4,4,4,4,4,4,4,4,4,4,4,4,4,100,,,,,,,,,,,,,,,,,,,,,,,,,,,,,,,,,,,,,,,,,,,,,,,,,,,,,,,,,,,,,,,,,,,,,,,,,,,,,,,,,,,,,,,,,,,,,,,,,,,,,,,,,,,,,,,,,,,,,,,,,,,,,,,,,,,,,,,,,,,,,,,,,,,,,,,,,,,,,,,,,,,,,,,,,,,,,,,,,,,,,,,,,,,,,,,,,,,,,,,,,,,,,,
1764669163.968597,2347,0,4414.743652,4411.025879,4503.717773,4551.153809,4422.692383,4538.846191,4570.897461,4405.897461,4602.307617,4410.641113,4505.512695,4540.897461,4588.077148,4408.589844,4395.897461,4528.846191,4570.769043,4565.512695,4531.153809,4409.487305,4405.897461,4602.05127,4540.769043,4529.487305,4446.282227,4590.897461,4394.230957,4571.025879,4515.512695,4397.94873,4514.230957,4496.666504,2744,0,5,2569,42626,,,,0,4,4,4,4,4,4,4,4,4,4,4,4,4,4,4,4,4,4,4,4,4,4,4,4,4,4,4,4,4,4,4,4,100,,,,,,,,,,,,,,,,,,,,,,,,,,,,,,,,,,,,,,,,,,,,,,,,,,,,,,,,,,,,,,,,,,,,,,,,,,,,,,,,,,,,,,,,,,,,,,,,,,,,,,,,,,,,,,,,,,,,,,,,,,,,,,,,,,,,,,,,,,,,,,,,,,,,,,,,,,,,,,,,,,,,,,,,,,,,,,,,,,,,,,,,,,,,,,,,,,,,,,,,,,,,,,
1764669163.972503,2348,0,4412.307617,4407.692383,4513.974121,4553.077148,4415.641113,4535.897461,4567.436035,4406.794922,4605.256348,4424.743652,4508.974121,4539.487305,4586.794922,4409.615234,4397.94873,4530.512695,4572.179688,4572.94873,4540.897461,4408.717773,4401.538574,4601.282227,4541.538574,4529.487305,4428.461426,4593.717773,4396.025879,4573.461426,4515.256348,4391.153809,4512.307617,4510.256348,2506,0,5,2570,42634,,,,0,4,4,4,4,4,4,4,4,4,4,4,4,4,4,4,4,4,4,4,4,4,4,4,4,4,4,4,4,4,4,4,4,100,,,,,,,,,,,,,,,,,,,,,,,,,,,,,,,,,,,,,,,,,,,,,,,,,,,,,,,,,,,,,,,,,,,,,,,,,,,,,,,,,,,,,,,,,,,,,,,,,,,,,,,,,,,,,,,,,,,,,,,,,,,,,,,,,,,,,,,,,,,,,,,,,,,,,,,,,,,,,,,,,,,,,,,,,,,,,,,,,,,,,,,,,,,,,,,,,,,,,,,,,,,,,,
1764669163.976409,2349,0,4409.871582,4405.641113,4520.897461,4554.358887,4401.666504,4535,4564.871582,4408.846191,4605.897461,4443.077148,4513.333496,4537.692383,4587.307617,4411.025879,4400.769043,4530.512695,4574.871582,4581.282227,4551.025879,4409.358887,4403.205078,4598.589844,4544.871582,4525.641113,4404.230957,4592.436035,4397.307617,4576.025879,4515.128418,4386.153809,4513.974121,4510,2264,0,5,2570,42634,,,,0,4,4,4,4,4,4,4,4,4,4,4,4,4,4,4,4,4,4,4,4,4,4,4,4,4,4,4,4,4,4,4,4,100,,,,,,,,,,,,,,,,,,,,,,,,,,,,,,,,,,,16971,0,0.633555,-0.31488,-0.312805,0.633728,0.996215,-0.025394,-0.004395,16,38,-25.166666,,,,,,,,,,,,,,,,,,,,,,,,,,,,,,,,,,,,,,,,,,,,,,,,,,,,,,,,,,,,,,,,,,,,,,,,,,,,,,,,,,,,,,,,,,,,,,,,,,,,,,,,,,,,,,,,,,,,,,,,,,,,,,,,,,,,,,,,,,,,,,,,,,,,,,,,,,,,,,,,
1764669163.980315,2350,0,4406.410156,4403.589844,4513.461426,4552.307617,4386.922852,4532.563965,4561.025879,4408.077148,4602.94873,4450.769043,4513.205078,4534.358887,4585.641113,4410.256348,4400.128418,4528.077148,4574.230957,4582.05127,4552.563965,4409.102539,4407.307617,4592.692383,4546.410156,4517.05127,4382.94873,4585.641113,4397.436035,4575.256348,4513.589844,4382.820313,4517.436035,4497.05127,2758,0,5,2564,42641,,,,0,4,4,4,4,4,4,4,4,4,4,4,4,4,4,4,4,4,4,4,4,4,4,4,4,4,4,4,4,4,4,4,4,100,,,,,,,,,,,,,,,,,,,,,,,,,,,,,,,,,,,,,,,,,,,,,,,,,,,,,,,,,,,,,,,,,,,,,,,,,,,,,,,,,,,,,,,,,,,,,,,,,,,,,,,,,,,,,,,,,,,,,,,,,,,,,,,,,,,,,,,,,,,,,,,,,,,,,,,,,,,,,,,,,,,,,,,,,,,,,,,,,,,,,,,,,,,,,,,,,,,,,,,,,,,,,,
1764669163.984221,2351,0,4400.512695,4399.615234,4490.512695,4546.794922,4379.102539,4526.922852,4554.230957,4402.820313,4596.410156,4439.102539,4506.410156,4528.461426,4579.102539,4405.641113,4393.717773,4521.922852,4566.153809,4568.077148,4537.820313,4403.974121,4405.897461,4583.589844,4541.794922,4504.487305,4370,4575.128418,4396.538574,4569.358887,4509.487305,4378.846191,4521.794922,4481.666504,2475,0,5,2564,42641,,,,0,4,4,4,4,4,4,4,4,4,4,4,4,4,4,4,4,4,4,4,4,4,4,4,4,4,4,4,4,4,4,4,4,100,,,,,,,,,,,,,,,,,,,,,,,,,,,,,,,,,,,,,,,,,,,,,,,,,,,,,,,,,,,,,,,,,,,,,,,,,,,,,,,,,,,,,,,,,,,,,,,,,,,,,,,,,,,,,,,,,,,,,,,,,,,,,,,,,,,,,,,,,,,,,,,,,,,,,,,,,,,,,,,,,,,,,,,,,,,,,,,,,,,,,,,,,,,,,,,,,,,,,,,,,,,,,,
1764669163.988127,2352,0,4393.717773,4394.230957,4464.487305,4541.153809,4382.307617,4519.871582,4546.153809,4395.769043,4588.717773,4413.205078,4496.666504,4521.410156,4569.230957,4398.717773,4383.589844,4513.077148,4552.179688,4542.563965,4510,4393.077148,4395.384766,4573.974121,4531.538574,4491.922852,4365.641113,4565.384766,4395,4560.512695,4503.717773,4373.589844,4525.897461,4475,2921,0,5,2565,42649,,,,0,4,4,4,4,4,4,4,4,4,4,4,4,4,4,4,4,4,4,4,4,4,4,4,4,4,4,4,4,4,4,4,4,100,,,,,,,,,,,,,,,,,,,,,,,,,,,,,,,,,,,,,,,,,,,,,,,,,,,,,,,,,,,,,,,,,,,,,,,,,,,,,,,,,,,,,,,,,,,,,,,,,,,,,,,,,,,,,,,,,,,,,,,,,,,,,,,,,,,,,,,,,,,,,,,,,,,,,,,,,,,,,,,,,,,,,,,,,,,,,,,,,,,,,,,,,,,,,,,,,,,,,,,,,,,,,,
1764669163.992033,2353,0,4389.487305,4389.871582,4452.179688,4539.358887,4393.205078,4515.897461,4540.897461,4391.410156,4583.461426,4389.615234,4490.769043,4516.794922,4561.538574,4393.333496,4375.641113,4505.641113,4538.846191,4518.589844,4484.102539,4381.538574,4382.05127,4567.820313,4521.538574,4483.846191,4368.717773,4560.641113,4393.205078,4553.589844,4499.102539,4369.102539,4527.692383,4479.615234,2956,0,5,2565,42649,,,,0,4,4,4,4,4,4,4,4,4,4,4,4,4,4,4,4,4,4,4,4,4,4,4,4,4,4,4,4,4,4,4,4,100,,,,,,,,,,,,,,,,,,,,,,,,,,,,,,,,,,,16972,0,0.633459,-0.314148,-0.312622,0.634277,1.004029,-0.02637,-0.00293,16.5,39.166668,-23,,,,,,,,,,,,,,,,,,,,,,,,,,,,,,,,,,,,,,,,,,,,,,,,,,,,,,,,,,,,,,,,,,,,,,,,,,,,,,,,,,,,,,,,,,,,,,,,,,,,,,,,,,,,,,,,,,,,,,,,,,,,,,,,,,,,,,,,,,,,,,,,,,,,,,,,,,,,,,,,
1764669163.995939,2354,0,4390.256348,4389.102539,4461.282227,4541.282227,4403.461426,4517.05127,4541.282227,4392.563965,4583.077148,4383.333496,4492.94873,4517.563965,4560.384766,4392.05127,4374.487305,4503.974121,4533.846191,4510.384766,4476.282227,4376.922852,4376.666504,4566.922852,4517.94873,4482.94873,4379.230957,4561.666504,4390.384766,4551.410156,4498.333496,4368.461426,4525.128418,4487.563965,1809,0,5,2566,42657,,,,0,4,4,4,4,4,4,4,4,4,4,4,4,4,4,4,4,4,4,4,4,4,4,4,4,4,4,4,4,4,4,4,4,100,,,,,,,,,,,,,,,,,,,,,,,,,,,,,,,,,,,,,,,,,,,,,,,,,,,,,,,,,,,,,,,,,,,,,,,,,,,,,,,,,,,,,,,,,,,,,,,,,,,,,,,,,,,,,,,,,,,,,,,,,,,,,,,,,,,,,,,,,,,,,,,,,,,,,,,,,,,,,,,,,,,,,,,,,,,,,,,,,,,,,,,,,,,,,,,,,,,,,,,,,,,,,,
1764669163.999845,2355,0,4395.769043,4392.307617,4484.487305,4542.692383,4405.384766,4521.666504,4546.282227,4397.307617,4586.282227,4396.153809,4501.538574,4522.436035,4565.897461,4394.358887,4379.230957,4508.717773,4539.358887,4522.436035,4492.05127,4382.94873,4385.256348,4569.871582,4522.820313,4487.05127,4397.307617,4565.512695,4385.384766,4553.205078,4501.410156,4372.563965,4519.102539,4488.846191,2768,0,5,2566,42657,,,,0,4,4,4,4,4,4,4,4,4,4,4,4,4,4,4,4,4,4,4,4,4,4,4,4,4,4,4,4,4,4,4,4,100,,,,,,,,,,,,,,,,,,,,,,,,,,,,,,,,,,,,,,,,,,,,,,,,,,,,,,,,,,,,,,,,,,,,,,,,,,,,,,,,,,,,,,,,,,,,,,,,,,,,,,,,,,,,,,,,,,,,,,,,,,,,,,,,,,,,,,,,,,,,,,,,,,,,,,,,,,,,,,,,,,,,,,,,,,,,,,,,,,,,,,,,,,,,,,,,,,,,,,,,,,,,,,
1764669164.003751,2356,0,4402.05127,4397.307617,4505.897461,4538.717773,4398.974121,4525.769043,4551.666504,4401.410156,4589.615234,4416.922852,4509.871582,4526.922852,4573.589844,4397.820313,4384.358887,4516.153809,4550.384766,4544.743652,4520.256348,4395.256348,4403.205078,4573.077148,4532.05127,4492.436035,4420.384766,4567.94873,4378.077148,4555.641113,4505.897461,4379.487305,4513.589844,4481.025879,2621,0,5,2567,42665,,,,0,4,4,4,4,4,4,4,4,4,4,4,4,4,4,4,4,4,4,4,4,4,4,4,4,4,4,4,4,4,4,4,4,100,,,,,,,,,,,,,,,,,,,,,,,,,,,,,,,,,,,,,,,,,,,,,,,,,,,,,,,,,,,,,,,,,,,,,,,,,,,,,,,,,,,,,,,,,,,,,,,,,,,,,,,,,,,,,,,,,,,,,,,,,,,,,,,,,,,,,,,,,,,,,,,,,,,,,,,,,,,,,,,,,,,,,,,,,,,,,,,,,,,,,,,,,,,,,,,,,,,,,,,,,,,,,,
1764669164.007657,2357,0,4404.871582,4400.512695,4514.358887,4529.487305,4388.717773,4525.641113,4552.436035,4400.769043,4589.230957,4429.871582,4511.410156,4525.897461,4576.922852,4399.615234,4384.743652,4520.256348,4558.077148,4560.512695,4540.897461,4403.333496,4417.179688,4573.333496,4538.077148,4495,4438.846191,4567.179688,4370.256348,4555.384766,4508.461426,4384.615234,4512.05127,4472.05127,2843,0,5,2567,42665,,,,0,4,4,4,4,4,4,4,4,4,4,4,4,4,4,4,4,4,4,4,4,4,4,4,4,4,4,4,4,4,4,4,4,100,,,,,,,,,,,,,,,,,,,,,,,,,,,,,,,,,,,16973,0,0.63278,-0.313232,-0.312561,0.635437,1.010377,-0.013674,0.003418,16.833334,37.5,-24.333334,,,,,,,,,,,,,,,,,,,,,,,,,,,,,,,,,,,,,,,,,,,,,,,,,,,,,,,,,,,,,,,,,,,,,,,,,,,,,,,,,,,,,,,,,,,,,,,,,,,,,,,,,,,,,,,,,,,,,,,,,,,,,,,,,,,,,,,,,,,,,,,,,,,,,,,,,,,,,,,,
1764669164.011563,2358,0,4400.897461,4399.358887,4509.615234,4518.717773,4379.102539,4520.128418,4546.282227,4393.974121,4582.94873,4426.410156,4503.205078,4517.436035,4572.05127,4398.077148,4379.358887,4517.563965,4555,4557.692383,4539.102539,4398.461426,4415.256348,4568.461426,4535.128418,4492.307617,4440.256348,4562.94873,4363.974121,4551.153809,4506.666504,4383.846191,4513.077148,4471.410156,2955,0,5,2568,42673,,,,0,4,4,4,4,4,4,4,4,4,4,4,4,4,4,4,4,4,4,4,4,4,4,4,4,4,4,4,4,4,4,4,4,100,,,,,,,,,,,,,,,,,,,,,,,,,,,,,,,,,,,,,,,,,,,,,,,,,,,,,,,,,,,,,,,,,,,,,,,,,,,,,,,,,,,,,,,,,,,,,,,,,,,,,,,,,,,,,,,,,,,,,,,,,,,,,,,,,,,,,,,,,,,,,,,,,,,,,,,,,,,,,,,,,,,,,,,,,,,,,,,,,,,,,,,,,,,,,,,,,,,,,,,,,,,,,,
1764669164.015469,2359,0,4391.410156,4393.461426,4499.358887,4511.282227,4371.666504,4511.538574,4534.615234,4382.436035,4571.538574,4409.615234,4488.077148,4504.230957,4559.743652,4392.94873,4371.282227,4508.589844,4541.025879,4537.436035,4515.641113,4380.256348,4396.282227,4559.615234,4523.333496,4484.871582,4417.436035,4556.410156,4361.282227,4544.230957,4500.897461,4377.307617,4512.307617,4481.538574,2885,0,5,2568,42673,,,,0,4,4,4,4,4,4,4,4,4,4,4,4,4,4,4,4,4,4,4,4,4,4,4,4,4,4,4,4,4,4,4,4,100,,,,,,,,,,,,,,,,,,,,,,,,,,,,,,,,,,,,,,,,,,,,,,,,,,,,,,,,,,,,,,,,,,,,,,,,,,,,,,,,,,,,,,,,,,,,,,,,,,,,,,,,,,,,,,,,,,,,,,,,,,,,,,,,,,,,,,,,,,,,,,,,,,,,,,,,,,,,,,,,,,,,,,,,,,,,,,,,,,,,,,,,,,,,,,,,,,,,,,,,,,,,,,
1764669164.019375,2360,0,4381.410156,4386.410156,4490.769043,4510.384766,4367.563965,4505,4523.205078,4371.282227,4559.615234,4390.384766,4473.717773,4493.205078,4546.666504,4387.05127,4365.128418,4498.589844,4524.871582,4512.436035,4486.025879,4358.333496,4372.179688,4550.641113,4509.102539,4476.282227,4377.05127,4551.025879,4363.461426,4539.102539,4494.743652,4371.282227,4507.820313,4495,2733,0,5,2569,42681,,,,0,4,4,4,4,4,4,4,4,4,4,4,4,4,4,4,4,4,4,4,4,4,4,4,4,4,4,4,4,4,4,4,4,100,0.960938,41.666668,4,4,3,4,4,4,4,4,4,1,4,4,4,4,4,4,4,3,4,4,4,4,4,4,1,4,4,4,4,4,3,3,,,,,,,,,,,,,3.284366,0.955375,1.317473,2.190369,1.291263,3.009016,1.3192,1.924675,2.614748,1.563133,2.067529,1.847281,4.230914,3.500308,2.069152,1.803229,0.746838,1.648557,2.82204,1.482305,2.983668,2.177074,2.567458,2.760005,1.695921,3.397964,1.490783,1.455636,2.393653,1.293484,2.306396,0.800794,0.904002,2.512944,1.575777,1.884219,0.918157,1.450068,2.600365,1.69941,2.059332,0.598549,1.654215,2.476207,1.659009,1.977293,1.681416,3.765945,5.34296,2.500326,1.177094,0.686359,1.198966,1.788909,1.238102,1.721905,0.450932,1.320148,2.126309,1.317051,1.209061,0.618245,1.336256,1.83518,1.293874,0.330967,0.393867,0.734801,0.837762,0.845457,0.736906,0.845588,0.610005,1.633546,1.334732,1.04167,1.669294,0.699341,1.241825,1.321135,1.752181,1.17616,1.578649,2.275405,1.407415,1.472906,2.882977,1.053572,2.143483,1.709161,0.762061,2.415105,0.86978,1.620831,1.329576,1.266304,1.659205,1.482521,1.845192,1.166759,2.216105,2.431545,2.810079,2.586225,1.59548,1.45182,1.277055,1.53802,2.081556,1.474746,1.750817,0.966839,1.161045,1.904262,1.363453,2.641653,1.643908,2.279994,2.552011,1.37077,6.788867,2.090375,10.151999,5.748642,3.414428,2.922159,1.167131,2.182338,1.997889,1.446181,1.977801,1.237551,2.175624,2.831407,1.528478,2.596583,1.176434,1.841903,2.376784,1.571979,1.396252,0.61053,0.71005,1.111302,0.715787,1.706381,1.028427,1.775137,2.916929,1.639587,2.48892,1.46663,3.184784,2.77246,2.493676,2.61514,3.359345,4.377399,3.240993,1.936829
1764669164.023281,2361,0,4378.077148,4384.871582,4486.025879,4517.05127,4369.358887,4506.025879,4519.615234,4367.692383,4553.974121,4379.743652,4467.94873,4491.025879,4541.153809,4385.128418,4364.615234,4492.94873,4517.563965,4498.077148,4469.358887,4345.641113,4358.974121,4547.436035,4501.922852,4472.820313,4339.358887,4551.410156,4371.922852,4541.025879,4493.717773,4373.589844,4503.077148,4501.538574,2911,0,5,2569,42681,,,,0,4,4,4,4,4,4,4,4,4,4,4,4,4,4,4,4,4,4,4,4,4,4,4,4,4,4,4,4,4,4,4,4,100,,,,,,,,,,,,,,,,,,,,,,,,,,,,,,,,,,,16974,0,0.632443,-0.312866,-0.312866,0.635803,1.003541,-0.00879,-0.008302,17.166666,39,-22.833334,,,,,,,,,,,,,,,,,,,,,,,,,,,,,,,,,,,,,,,,,,,,,,,,,,,,,,,,,,,,,,,,,,,,,,,,,,,,,,,,,,,,,,,,,,,,,,,,,,,,,,,,,,,,,,,,,,,,,,,,,,,,,,,,,,,,,,,,,,,,,,,,,,,,,,,,,,,,,,,,
1764669164.027187,2362,0,4385,4392.563965,4484.358887,4528.974121,4378.846191,4515.897461,4527.692383,4375.256348,4559.102539,4382.05127,4474.102539,4499.871582,4547.692383,4389.615234,4370.128418,4493.461426,4524.871582,4502.307617,4474.487305,4349.102539,4365.256348,4553.589844,4506.666504,4478.717773,4326.153809,4559.615234,4385.641113,4552.05127,4500.384766,4387.436035,4504.102539,4496.025879,1833,0,5,2570,42688,,,,0,4,4,4,4,4,4,4,4,4,4,4,4,4,4,4,4,4,4,4,4,4,4,4,4,4,4,4,4,4,4,4,4,100,,,,,,,,,,,,,,,,,,,,,,,,,,,,,,,,,,,,,,,,,,,,,,,,,,,,,,,,,,,,,,,,,,,,,,,,,,,,,,,,,,,,,,,,,,,,,,,,,,,,,,,,,,,,,,,,,,,,,,,,,,,,,,,,,,,,,,,,,,,,,,,,,,,,,,,,,,,,,,,,,,,,,,,,,,,,,,,,,,,,,,,,,,,,,,,,,,,,,,,,,,,,,,
1764669164.031093,2363,0,4399.358887,4407.692383,4485.769043,4541.922852,4393.461426,4529.743652,4544.358887,4391.025879,4573.205078,4392.94873,4488.205078,4515.641113,4562.94873,4397.94873,4379.358887,4498.077148,4542.179688,4520.128418,4494.487305,4365,4385.641113,4567.436035,4520.769043,4492.820313,4346.410156,4573.205078,4400.897461,4568.589844,4512.436035,4407.436035,4513.461426,4483.333496,2462,0,5,2570,42688,,,,0,4,4,4,4,4,4,4,4,4,4,4,4,4,4,4,4,4,4,4,4,4,4,4,4,4,4,4,4,4,4,4,4,100,,,,,,,,,,,,,,,,,,,,,,,,,,,,,,,,,,,,,,,,,,,,,,,,,,,,,,,,,,,,,,,,,,,,,,,,,,,,,,,,,,,,,,,,,,,,,,,,,,,,,,,,,,,,,,,,,,,,,,,,,,,,,,,,,,,,,,,,,,,,,,,,,,,,,,,,,,,,,,,,,,,,,,,,,,,,,,,,,,,,,,,,,,,,,,,,,,,,,,,,,,,,,,
1764669164.034999,2364,0,4413.974121,4423.333496,4494.487305,4551.922852,4408.205078,4541.538574,4562.563965,4407.820313,4590.641113,4405,4503.461426,4531.282227,4578.589844,4405.384766,4388.974121,4504.871582,4560.128418,4540.256348,4515.384766,4383.589844,4407.820313,4583.717773,4536.666504,4509.487305,4390,4586.794922,4412.563965,4583.717773,4523.974121,4424.102539,4528.461426,4476.666504,2639,0,5,2571,42696,,,,0,4,4,4,4,4,4,4,4,4,4,4,4,4,4,4,4,4,4,4,4,4,4,4,4,4,4,4,4,4,4,4,4,100,,,,,,,,,,,,,,,,,,,,,,,,,,,,,,,,,,,,,,,,,,,,,,,,,,,,,,,,,,,,,,,,,,,,,,,,,,,,,,,,,,,,,,,,,,,,,,,,,,,,,,,,,,,,,,,,,,,,,,,,,,,,,,,,,,,,,,,,,,,,,,,,,,,,,,,,,,,,,,,,,,,,,,,,,,,,,,,,,,,,,,,,,,,,,,,,,,,,,,,,,,,,,,
1764669164.038905,2365,0,4422.94873,4432.94873,4513.461426,4558.461426,4418.205078,4547.563965,4575.769043,4418.589844,4605.256348,4413.846191,4514.743652,4541.282227,4588.205078,4408.974121,4396.794922,4512.94873,4572.179688,4553.846191,4526.922852,4396.666504,4421.794922,4596.794922,4547.436035,4522.179688,4435,4596.025879,4418.461426,4591.666504,4530.256348,4430.512695,4544.230957,4487.179688,2502,0,5,2571,42696,,,,0,4,4,4,4,4,4,4,4,4,4,4,4,4,4,4,4,4,4,4,4,4,4,4,4,4,4,4,4,4,4,4,4,100,,,,,,,,,,,,,,,,,,,,,,,,,,,,,,,,,,,16975,0,0.632194,-0.312317,-0.313049,0.63623,1.005494,-0.010255,-0.014162,15.666667,37.5,-22.166666,,,,,,,,,,,,,,,,,,,,,,,,,,,,,,,,,,,,,,,,,,,,,,,,,,,,,,,,,,,,,,,,,,,,,,,,,,,,,,,,,,,,,,,,,,,,,,,,,,,,,,,,,,,,,,,,,,,,,,,,,,,,,,,,,,,,,,,,,,,,,,,,,,,,,,,,,,,,,,,,
1764669164.042811,2366,0,4424.230957,4433.589844,4538.205078,4562.692383,4420.384766,4547.94873,4580.641113,4420.769043,4613.846191,4420.256348,4519.871582,4543.589844,4589.743652,4408.333496,4401.153809,4520.897461,4576.538574,4558.461426,4528.205078,4401.666504,4424.871582,4603.461426,4550.769043,4527.436035,4460.641113,4598.846191,4418.846191,4591.282227,4529.871582,4425.641113,4555.769043,4512.820313,2759,0,5,2572,42704,,,,0,4,4,4,4,4,4,4,4,4,4,4,4,4,4,4,4,4,4,4,4,4,4,4,4,4,4,4,4,4,4,4,4,100,,,,,,,,,,,,,,,,,,,,,,,,,,,,,,,,,,,,,,,,,,,,,,,,,,,,,,,,,,,,,,,,,,,,,,,,,,,,,,,,,,,,,,,,,,,,,,,,,,,,,,,,,,,,,,,,,,,,,,,,,,,,,,,,,,,,,,,,,,,,,,,,,,,,,,,,,,,,,,,,,,,,,,,,,,,,,,,,,,,,,,,,,,,,,,,,,,,,,,,,,,,,,,
1764669164.046717,2367,0,4418.974121,4426.410156,4555.384766,4564.102539,4414.487305,4543.974121,4576.538574,4415.256348,4614.743652,4425.128418,4518.077148,4538.717773,4584.358887,4404.487305,4400.128418,4524.358887,4574.743652,4555.769043,4524.230957,4400.641113,4420,4602.307617,4547.05127,4524.615234,4458.205078,4595.256348,4414.615234,4584.743652,4524.230957,4412.436035,4559.358887,4537.307617,2760,0,5,2572,42704,,,,0,4,4,4,4,4,4,4,4,4,4,4,4,4,4,4,4,4,4,4,4,4,4,4,4,4,4,4,4,4,4,4,4,100,,,,,,,,,,,,,,,,,,,,,,,,,,,,,,,,,,,,,,,,,,,,,,,,,,,,,,,,,,,,,,,,,,,,,,,,,,,,,,,,,,,,,,,,,,,,,,,,,,,,,,,,,,,,,,,,,,,,,,,,,,,,,,,,,,,,,,,,,,,,,,,,,,,,,,,,,,,,,,,,,,,,,,,,,,,,,,,,,,,,,,,,,,,,,,,,,,,,,,,,,,,,,,
1764669164.050623,2368,0,4409.487305,4415.641113,4551.538574,4560.128418,4402.820313,4536.538574,4565.256348,4404.487305,4607.307617,4425.897461,4509.743652,4528.974121,4575,4398.589844,4393.077148,4519.615234,4567.692383,4548.077148,4519.743652,4396.410156,4410.769043,4593.846191,4538.974121,4515.897461,4434.102539,4586.538574,4406.282227,4575.512695,4516.282227,4396.282227,4552.94873,4541.025879,2838,0,5,2573,42712,,,,0,4,4,4,4,4,4,4,4,4,4,4,4,4,4,4,4,4,4,4,4,4,4,4,4,4,4,4,4,4,4,4,4,100,,,,,,,,,,,,,,,,,,,,,,,,,,,,,,,,,,,,,,,,,,,,,,,,,,,,,,,,,,,,,,,,,,,,,,,,,,,,,,,,,,,,,,,,,,,,,,,,,,,,,,,,,,,,,,,,,,,,,,,,,,,,,,,,,,,,,,,,,,,,,,,,,,,,,,,,,,,,,,,,,,,,,,,,,,,,,,,,,,,,,,,,,,,,,,,,,,,,,,,,,,,,,,
1764669164.054529,2369,0,4399.487305,4406.410156,4525.256348,4550,4391.410156,4527.820313,4550.897461,4392.563965,4594.358887,4421.153809,4497.563965,4518.461426,4565.256348,4393.333496,4382.94873,4507.94873,4557.307617,4538.205078,4516.410156,4391.282227,4400.512695,4581.410156,4530.128418,4506.153809,4406.794922,4576.666504,4394.871582,4566.922852,4509.615234,4382.307617,4538.205078,4516.666504,2917,0,5,2573,42712,,,,0,4,4,4,4,4,4,4,4,4,4,4,4,4,4,4,4,4,4,4,4,4,4,4,4,4,4,4,4,4,4,4,4,100,,,,,,,,,,,,,,,,,,,,,,,,,,,,,,,,,,,16976,0,0.631914,-0.311707,-0.313354,0.636658,0.991332,-0.019045,-0.021975,17.166666,38.166668,-24.5,,,,,,,,,,,,,,,,,,,,,,,,,,,,,,,,,,,,,,,,,,,,,,,,,,,,,,,,,,,,,,,,,,,,,,,,,,,,,,,,,,,,,,,,,,,,,,,,,,,,,,,,,,,,,,,,,,,,,,,,,,,,,,,,,,,,,,,,,,,,,,,,,,,,,,,,,,,,,,,,
1764669164.058435,2370,0,4393.205078,4402.436035,4490.128418,4538.717773,4387.307617,4521.794922,4540,4384.358887,4582.307617,4414.487305,4488.205078,4511.794922,4559.871582,4391.282227,4375.641113,4496.666504,4547.436035,4530.769043,4514.615234,4387.307617,4392.179688,4571.153809,4524.743652,4500.641113,4395.897461,4570.641113,4382.94873,4561.794922,4506.922852,4374.871582,4521.282227,4476.666504,2713,0,5,2574,42720,,,,0,4,4,4,4,4,4,4,4,4,4,4,4,4,4,4,4,4,4,4,4,4,4,4,4,4,4,4,4,4,4,4,4,100,,,,,,,,,,,,,,,,,,,,,,,,,,,,,,,,,,,,,,,,,,,,,,,,,,,,,,,,,,,,,,,,,,,,,,,,,,,,,,,,,,,,,,,,,,,,,,,,,,,,,,,,,,,,,,,,,,,,,,,,,,,,,,,,,,,,,,,,,,,,,,,,,,,,,,,,,,,,,,,,,,,,,,,,,,,,,,,,,,,,,,,,,,,,,,,,,,,,,,,,,,,,,,
1764669164.062341,2371,0,4392.820313,4403.974121,4465.384766,4532.94873,4393.846191,4521.538574,4537.179688,4382.94873,4577.692383,4413.974121,4487.436035,4511.666504,4561.153809,4393.205078,4375.897461,4494.358887,4542.94873,4531.153809,4516.282227,4386.410156,4389.102539,4568.846191,4524.615234,4501.666504,4406.153809,4571.666504,4374.358887,4561.025879,4508.846191,4375.256348,4510,4444.871582,2892,0,5,2574,42720,,,,0,4,4,4,4,4,4,4,4,4,4,4,4,4,4,4,4,4,4,4,4,4,4,4,4,4,4,4,4,4,4,4,4,100,,,,,,,,,,,,,,,,,,,,,,,,,,,,,,,,,,,,,,,,,,,,,,,,,,,,,,,,,,,,,,,,,,,,,,,,,,,,,,,,,,,,,,,,,,,,,,,,,,,,,,,,,,,,,,,,,,,,,,,,,,,,,,,,,,,,,,,,,,,,,,,,,,,,,,,,,,,,,,,,,,,,,,,,,,,,,,,,,,,,,,,,,,,,,,,,,,,,,,,,,,,,,,
1764669164.066247,2372,0,4396.794922,4407.436035,4460.641113,4535.384766,4406.538574,4525.897461,4541.794922,4386.922852,4581.538574,4423.461426,4494.871582,4516.410156,4567.307617,4396.410156,4382.692383,4502.94873,4545.769043,4540.769043,4522.436035,4389.102539,4391.794922,4574.871582,4528.333496,4506.666504,4422.820313,4577.692383,4372.563965,4563.461426,4513.077148,4380.641113,4509.358887,4439.487305,2767,0,5,2574,42727,,,,0,4,4,4,4,4,4,4,4,4,4,4,4,4,4,4,4,4,4,4,4,4,4,4,4,4,4,4,4,4,4,4,4,100,,,,,,,,,,,,,,,,,,,,,,,,,,,,,,,,,,,,,,,,,,,,,,,,,,,,,,,,,,,,,,,,,,,,,,,,,,,,,,,,,,,,,,,,,,,,,,,,,,,,,,,,,,,,,,,,,,,,,,,,,,,,,,,,,,,,,,,,,,,,,,,,,,,,,,,,,,,,,,,,,,,,,,,,,,,,,,,,,,,,,,,,,,,,,,,,,,,,,,,,,,,,,,
1764669164.070153,2373,0,4400.128418,4408.333496,4470.384766,4540.641113,4415.128418,4530.128418,4548.077148,4392.05127,4588.205078,4436.410156,4502.94873,4521.153809,4572.563965,4396.794922,4390.512695,4515.897461,4552.563965,4554.615234,4532.179688,4394.230957,4397.179688,4583.846191,4531.794922,4510.128418,4423.589844,4582.436035,4377.94873,4566.282227,4515.641113,4386.153809,4517.692383,4459.230957,2865,0,5,2574,42727,,,,0,4,4,4,4,4,4,4,4,4,4,4,4,4,4,4,4,4,4,4,4,4,4,4,4,4,4,4,4,4,4,4,4,100,,,,,,,,,,,,,,,,,,,,,,,,,,,,,,,,,,,16977,0,0.631966,-0.310852,-0.313354,0.637024,0.991332,-0.019045,-0.021975,17.166666,37.833332,-23.333334,,,,,,,,,,,,,,,,,,,,,,,,,,,,,,,,,,,,,,,,,,,,,,,,,,,,,,,,,,,,,,,,,,,,,,,,,,,,,,,,,,,,,,,,,,,,,,,,,,,,,,,,,,,,,,,,,,,,,,,,,,,,,,,,,,,,,,,,,,,,,,,,,,,,,,,,,,,,,,,,
1764669164.074059,2374,0,4398.717773,4404.487305,4480,4541.025879,4411.794922,4529.871582,4550.769043,4395.384766,4591.282227,4440.512695,4505,4521.153809,4572.436035,4392.307617,4393.333496,4523.205078,4557.436035,4564.743652,4541.153809,4398.717773,4400.384766,4588.717773,4531.666504,4508.333496,4400.384766,4580.384766,4387.05127,4567.179688,4514.743652,4388.461426,4527.820313,4485,2842,0,5,2575,42735,,,,0,4,4,4,4,4,4,4,4,4,4,4,4,4,4,4,4,4,4,4,4,4,4,4,4,4,4,4,4,4,4,4,4,100,,,,,,,,,,,,,,,,,,,,,,,,,,,,,,,,,,,,,,,,,,,,,,,,,,,,,,,,,,,,,,,,,,,,,,,,,,,,,,,,,,,,,,,,,,,,,,,,,,,,,,,,,,,,,,,,,,,,,,,,,,,,,,,,,,,,,,,,,,,,,,,,,,,,,,,,,,,,,,,,,,,,,,,,,,,,,,,,,,,,,,,,,,,,,,,,,,,,,,,,,,,,,,
1764669164.077965,2375,0,4393.333496,4398.333496,4480.128418,4533.205078,4398.717773,4525.769043,4549.230957,4398.077148,4589.102539,4428.846191,4500.769043,4516.666504,4567.820313,4385.641113,4390.256348,4520.641113,4557.179688,4565.384766,4544.358887,4400.897461,4399.358887,4587.05127,4529.358887,4502.692383,4367.563965,4572.307617,4395,4566.410156,4511.794922,4388.717773,4533.205078,4496.538574,3007,0,5,2575,42735,,,,0,4,4,4,4,4,4,4,4,4,4,4,4,4,4,4,4,4,4,4,4,4,4,4,4,4,4,4,4,4,4,4,4,100,,,,,,,,,,,,,,,,,,,,,,,,,,,,,,,,,,,,,,,,,,,,,,,,,,,,,,,,,,,,,,,,,,,,,,,,,,,,,,,,,,,,,,,,,,,,,,,,,,,,,,,,,,,,,,,,,,,,,,,,,,,,,,,,,,,,,,,,,,,,,,,,,,,,,,,,,,,,,,,,,,,,,,,,,,,,,,,,,,,,,,,,,,,,,,,,,,,,,,,,,,,,,,
1764669164.081871,2376,0,4388.846191,4394.871582,4474.615234,4521.922852,4385.512695,4521.538574,4547.692383,4402.692383,4585.384766,4406.410156,4496.153809,4512.563965,4563.974121,4381.922852,4386.153809,4513.461426,4553.717773,4557.307617,4538.717773,4400.641113,4395.769043,4582.692383,4528.846191,4498.333496,4349.871582,4564.615234,4398.077148,4566.025879,4509.743652,4390.384766,4531.794922,4489.871582,2924,0,5,2576,42743,,,,0,4,4,4,4,4,4,4,4,4,4,4,4,4,4,4,4,4,4,4,4,4,4,4,4,4,4,4,4,4,4,4,4,100,,,,,,,,,,,,,,,,,,,,,,,,,,,,,,,,,,,,,,,,,,,,,,,,,,,,,,,,,,,,,,,,,,,,,,,,,,,,,,,,,,,,,,,,,,,,,,,,,,,,,,,,,,,,,,,,,,,,,,,,,,,,,,,,,,,,,,,,,,,,,,,,,,,,,,,,,,,,,,,,,,,,,,,,,,,,,,,,,,,,,,,,,,,,,,,,,,,,,,,,,,,,,,
1764669164.085777,2377,0,4388.974121,4396.282227,4475.897461,4514.871582,4379.743652,4520.384766,4548.717773,4408.333496,4583.846191,4386.025879,4496.666504,4513.589844,4565.641113,4384.358887,4386.794922,4510.769043,4551.794922,4546.153809,4524.871582,4399.102539,4392.820313,4581.538574,4532.436035,4499.358887,4360.128418,4563.333496,4396.025879,4567.179688,4510.128418,4393.333496,4527.179688,4480.641113,2797,0,5,2576,42743,,,,0,4,4,4,4,4,4,4,4,4,4,4,4,4,4,4,4,4,4,4,4,4,4,4,4,4,4,4,4,4,4,4,4,100,,,,,,,,,,,,,,,,,,,,,,,,,,,,,,,,,,,16978,0,0.632126,-0.309204,-0.313171,0.637756,1.008912,-0.013674,0.005372,16.333334,37,-24.5,,,,,,,,,,,,,,,,,,,,,,,,,,,,,,,,,,,,,,,,,,,,,,,,,,,,,,,,,,,,,,,,,,,,,,,,,,,,,,,,,,,,,,,,,,,,,,,,,,,,,,,,,,,,,,,,,,,,,,,,,,,,,,,,,,,,,,,,,,,,,,,,,,,,,,,,,,,,,,,,
1764669164.089683,2378,0,4392.94873,4399.743652,4491.922852,4515.384766,4379.871582,4521.794922,4551.025879,4410,4583.589844,4378.205078,4502.307617,4519.102539,4572.05127,4391.282227,4393.333496,4516.794922,4553.333496,4537.307617,4507.692383,4396.282227,4391.922852,4585.128418,4537.692383,4504.230957,4388.717773,4568.589844,4391.025879,4568.333496,4511.410156,4394.102539,4523.846191,4486.794922,2449,0,5,2570,42751,,,,0,4,4,4,4,4,4,4,4,4,4,4,4,4,4,4,4,4,4,4,4,4,4,4,4,4,4,4,4,4,4,4,4,100,,,,,,,,,,,,,,,,,,,,,,,,,,,,,,,,,,,,,,,,,,,,,,,,,,,,,,,,,,,,,,,,,,,,,,,,,,,,,,,,,,,,,,,,,,,,,,,,,,,,,,,,,,,,,,,,,,,,,,,,,,,,,,,,,,,,,,,,,,,,,,,,,,,,,,,,,,,,,,,,,,,,,,,,,,,,,,,,,,,,,,,,,,,,,,,,,,,,,,,,,,,,,,
1764669164.093589,2379,0,4395.769043,4400.128418,4517.179688,4520.641113,4378.205078,4522.05127,4550.256348,4403.589844,4580.384766,4382.436035,4508.077148,4523.846191,4578.077148,4397.179688,4400.769043,4525.769043,4556.025879,4532.307617,4493.461426,4391.922852,4391.666504,4589.743652,4540,4507.820313,4412.436035,4575.512695,4386.794922,4567.05127,4510.769043,4389.743652,4524.487305,4509.487305,2741,0,5,2570,42751,,,,0,4,4,4,4,4,4,4,4,4,4,4,4,4,4,4,4,4,4,4,4,4,4,4,4,4,4,4,4,4,4,4,4,100,,,,,,,,,,,,,,,,,,,,,,,,,,,,,,,,,,,,,,,,,,,,,,,,,,,,,,,,,,,,,,,,,,,,,,,,,,,,,,,,,,,,,,,,,,,,,,,,,,,,,,,,,,,,,,,,,,,,,,,,,,,,,,,,,,,,,,,,,,,,,,,,,,,,,,,,,,,,,,,,,,,,,,,,,,,,,,,,,,,,,,,,,,,,,,,,,,,,,,,,,,,,,,
1764669164.097495,2380,0,4394.358887,4396.025879,4535.128418,4525.641113,4370.641113,4519.230957,4544.871582,4390.641113,4572.179688,4388.974121,4508.846191,4523.846191,4579.230957,4397.820313,4401.794922,4528.077148,4556.025879,4529.102539,4487.436035,4386.794922,4390.128418,4590.256348,4537.307617,4506.410156,4413.461426,4579.102539,4386.025879,4563.461426,4507.820313,4383.077148,4528.333496,4530.128418,2498,0,5,2566,42759,,,,0,4,4,4,4,4,4,4,4,4,4,4,4,4,4,4,4,4,4,4,4,4,4,4,4,4,4,4,4,4,4,4,4,100,,,,,,,,,,,,,,,,,,,,,,,,,,,,,,,,,,,,,,,,,,,,,,,,,,,,,,,,,,,,,,,,,,,,,,,,,,,,,,,,,,,,,,,,,,,,,,,,,,,,,,,,,,,,,,,,,,,,,,,,,,,,,,,,,,,,,,,,,,,,,,,,,,,,,,,,,,,,,,,,,,,,,,,,,,,,,,,,,,,,,,,,,,,,,,,,,,,,,,,,,,,,,,
1764669164.101401,2381,0,4390,4392.436035,4532.307617,4528.205078,4361.410156,4515.128418,4538.974121,4378.846191,4562.436035,4388.717773,4504.487305,4520.769043,4575.384766,4392.94873,4394.358887,4519.743652,4553.077148,4526.025879,4491.025879,4382.692383,4386.922852,4585,4532.436035,4501.794922,4394.358887,4578.589844,4389.230957,4560.769043,4505.256348,4381.794922,4532.179688,4526.794922,2260,0,5,2566,42759,,,,0,4,4,4,4,4,4,4,4,4,4,4,4,4,4,4,4,4,4,4,4,4,4,4,4,4,4,4,4,4,4,4,4,100,,,,,,,,,,,,,,,,,,,,,,,,,,,,,,,,,,,16979,0,0.631902,-0.308716,-0.31311,0.638245,1.008912,-0.013674,0.005372,16.333334,37,-24.5,,,,,,,,,,,,,,,,,,,,,,,,,,,,,,,,,,,,,,,,,,,,,,,,,,,,,,,,,,,,,,,,,,,,,,,,,,,,,,,,,,,,,,,,,,,,,,,,,,,,,,,,,,,,,,,,,,,,,,,,,,,,,,,,,,,,,,,,,,,,,,,,,,,,,,,,,,,,,,,,
1764669164.105307,2382,0,4387.94873,4395.769043,4508.717773,4529.615234,4360.512695,4514.743652,4538.333496,4375.769043,4558.077148,4382.179688,4500.128418,4519.871582,4570.641113,4386.666504,4383.589844,4507.05127,4550.384766,4524.102539,4500.512695,4381.794922,4384.102539,4576.153809,4530.384766,4498.333496,4374.358887,4576.538574,4394.487305,4562.692383,4506.410156,4391.922852,4533.333496,4495.256348,2758,0,5,2563,42766,,,,0,4,4,4,4,4,4,4,4,4,4,4,4,4,4,4,4,4,4,4,4,4,4,4,4,4,4,4,4,4,4,4,4,100,,,,,,,,,,,,,,,,,,,,,,,,,,,,,,,,,,,,,,,,,,,,,,,,,,,,,,,,,,,,,,,,,,,,,,,,,,,,,,,,,,,,,,,,,,,,,,,,,,,,,,,,,,,,,,,,,,,,,,,,,,,,,,,,,,,,,,,,,,,,,,,,,,,,,,,,,,,,,,,,,,,,,,,,,,,,,,,,,,,,,,,,,,,,,,,,,,,,,,,,,,,,,,
1764669164.109213,2383,0,4391.922852,4407.179688,4479.230957,4532.179688,4373.974121,4521.153809,4545.128418,4382.307617,4562.94873,4377.94873,4500.769043,4524.230957,4569.487305,4384.102539,4377.179688,4500.769043,4551.666504,4524.871582,4509.743652,4384.230957,4384.102539,4567.94873,4533.589844,4498.461426,4373.205078,4576.538574,4399.487305,4569.358887,4511.538574,4410.897461,4532.05127,4456.025879,2472,0,5,2563,42766,,,,0,4,4,4,4,4,4,4,4,4,4,4,4,4,4,4,4,4,4,4,4,4,4,4,4,4,4,4,4,4,4,4,4,100,,,,,,,,,,,,,,,,,,,,,,,,,,,,,,,,,,,,,,,,,,,,,,,,,,,,,,,,,,,,,,,,,,,,,,,,,,,,,,,,,,,,,,,,,,,,,,,,,,,,,,,,,,,,,,,,,,,,,,,,,,,,,,,,,,,,,,,,,,,,,,,,,,,,,,,,,,,,,,,,,,,,,,,,,,,,,,,,,,,,,,,,,,,,,,,,,,,,,,,,,,,,,,
1764669164.113119,2384,0,4401.794922,4421.282227,4463.461426,4537.05127,4396.922852,4532.563965,4555.256348,4392.94873,4575,4384.743652,4507.307617,4532.05127,4573.461426,4387.307617,4378.974121,4506.282227,4557.820313,4529.358887,4515,4389.102539,4388.846191,4565.128418,4540.641113,4501.666504,4395.641113,4580.384766,4403.333496,4577.820313,4518.077148,4427.94873,4532.820313,4440.128418,2917,0,5,2560,42774,,,,0,4,4,4,4,4,4,4,4,4,4,4,4,4,4,4,4,4,4,4,4,4,4,4,4,4,4,4,4,4,4,4,4,100,,,,,,,,,,,,,,,,,,,,,,,,,,,,,,,,,,,,,,,,,,,,,,,,,,,,,,,,,,,,,,,,,,,,,,,,,,,,,,,,,,,,,,,,,,,,,,,,,,,,,,,,,,,,,,,,,,,,,,,,,,,,,,,,,,,,,,,,,,,,,,,,,,,,,,,,,,,,,,,,,,,,,,,,,,,,,,,,,,,,,,,,,,,,,,,,,,,,,,,,,,,,,,
1764669164.117025,2385,0,4413.077148,4430.384766,4473.205078,4544.102539,4416.538574,4543.461426,4562.692383,4400.897461,4587.436035,4403.846191,4515.769043,4538.077148,4581.153809,4394.358887,4386.153809,4519.230957,4566.282227,4537.436035,4517.820313,4395.384766,4398.846191,4570.512695,4547.94873,4505.769043,4428.077148,4586.666504,4407.307617,4584.487305,4522.820313,4431.794922,4540.128418,4465.384766,2925,0,5,2560,42774,,,,0,4,4,4,4,4,4,4,4,4,4,4,4,4,4,4,4,4,4,4,4,4,4,4,4,4,4,4,4,4,4,4,4,100,,,,,,,,,,,,,,,,,,,,,,,,,,,,,,,,,,,16980,0,0.631712,-0.30835,-0.313232,0.63855,0.997192,-0.018557,-0.003907,17.166666,38.166668,-23.666666,,,,,,,,,,,,,,,,,,,,,,,,,,,,,,,,,,,,,,,,,,,,,,,,,,,,,,,,,,,,,,,,,,,,,,,,,,,,,,,,,,,,,,,,,,,,,,,,,,,,,,,,,,,,,,,,,,,,,,,,,,,,,,,,,,,,,,,,,,,,,,,,,,,,,,,,,,,,,,,,
1764669164.120931,2386,0,4420.128418,4429.487305,4503.461426,4551.153809,4421.794922,4548.717773,4563.589844,4402.94873,4592.94873,4426.410156,4520.128418,4538.333496,4588.461426,4400.384766,4393.205078,4530.256348,4573.333496,4548.205078,4522.179688,4402.692383,4411.922852,4583.461426,4552.563965,4510,4450.769043,4591.922852,4412.563965,4587.820313,4523.717773,4418.589844,4553.205078,4520.897461,1808,0,5,2560,42782,,,,0,4,4,4,4,4,4,4,4,4,4,4,4,4,4,4,4,4,4,4,4,4,4,4,4,4,4,4,4,4,4,4,4,100,,,,,,,,,,,,,,,,,,,,,,,,,,,,,,,,,,,,,,,,,,,,,,,,,,,,,,,,,,,,,,,,,,,,,,,,,,,,,,,,,,,,,,,,,,,,,,,,,,,,,,,,,,,,,,,,,,,,,,,,,,,,,,,,,,,,,,,,,,,,,,,,,,,,,,,,,,,,,,,,,,,,,,,,,,,,,,,,,,,,,,,,,,,,,,,,,,,,,,,,,,,,,,
1764669164.124837,2387,0,4419.743652,4419.615234,4536.794922,4555.641113,4412.05127,4546.282227,4559.487305,4400.384766,4589.102539,4439.102539,4516.922852,4532.94873,4591.410156,4401.922852,4395.641113,4533.589844,4576.410156,4560,4530.384766,4409.743652,4423.717773,4598.717773,4553.077148,4513.717773,4453.205078,4592.820313,4417.05127,4587.94873,4520.897461,4395.128418,4563.461426,4573.846191,2771,0,5,2560,42782,,,,0,4,4,4,4,4,4,4,4,4,4,4,4,4,4,4,4,4,4,4,4,4,4,4,4,4,4,4,4,4,4,4,4,100,,,,,,,,,,,,,,,,,,,,,,,,,,,,,,,,,,,,,,,,,,,,,,,,,,,,,,,,,,,,,,,,,,,,,,,,,,,,,,,,,,,,,,,,,,,,,,,,,,,,,,,,,,,,,,,,,,,,,,,,,,,,,,,,,,,,,,,,,,,,,,,,,,,,,,,,,,,,,,,,,,,,,,,,,,,,,,,,,,,,,,,,,,,,,,,,,,,,,,,,,,,,,,
1764669164.128743,2388,0,4413.077148,4406.025879,4555,4555,4395.641113,4538.461426,4553.846191,4396.666504,4580.256348,4433.205078,4508.077148,4525.512695,4588.589844,4399.358887,4393.846191,4530.897461,4575.384766,4570.384766,4539.615234,4414.102539,4429.743652,4608.589844,4549.615234,4516.666504,4442.563965,4588.461426,4417.563965,4585,4516.025879,4374.230957,4562.307617,4593.974121,2618,0,5,2561,42790,,,,0,4,4,4,4,4,4,4,4,4,4,4,4,4,4,4,4,4,4,4,4,4,4,4,4,4,4,4,4,4,4,4,4,100,,,,,,,,,,,,,,,,,,,,,,,,,,,,,,,,,,,,,,,,,,,,,,,,,,,,,,,,,,,,,,,,,,,,,,,,,,,,,,,,,,,,,,,,,,,,,,,,,,,,,,,,,,,,,,,,,,,,,,,,,,,,,,,,,,,,,,,,,,,,,,,,,,,,,,,,,,,,,,,,,,,,,,,,,,,,,,,,,,,,,,,,,,,,,,,,,,,,,,,,,,,,,,
1764669164.132649,2389,0,4404.358887,4395,4551.025879,4549.487305,4382.94873,4529.487305,4550.256348,4393.717773,4575,4412.436035,4498.717773,4519.871582,4582.179688,4396.153809,4391.282227,4527.436035,4571.410156,4575.897461,4543.461426,4413.077148,4428.205078,4608.333496,4543.846191,4518.333496,4435.512695,4581.538574,4411.666504,4579.230957,4510.897461,4366.922852,4549.102539,4576.410156,2843,0,5,2561,42790,,,,0,4,4,4,4,4,4,4,4,4,4,4,4,4,4,4,4,4,4,4,4,4,4,4,4,4,4,4,4,4,4,4,4,100,,,,,,,,,,,,,,,,,,,,,,,,,,,,,,,,,,,16981,0,0.631673,-0.3078,-0.313354,0.638794,0.995727,-0.02344,-0.02637,17.666666,38.333332,-26,,,,,,,,,,,,,,,,,,,,,,,,,,,,,,,,,,,,,,,,,,,,,,,,,,,,,,,,,,,,,,,,,,,,,,,,,,,,,,,,,,,,,,,,,,,,,,,,,,,,,,,,,,,,,,,,,,,,,,,,,,,,,,,,,,,,,,,,,,,,,,,,,,,,,,,,,,,,,,,,
1764669164.136555,2390,0,4398.077148,4390.897461,4532.179688,4541.538574,4378.461426,4522.820313,4548.717773,4391.666504,4578.717773,4390.897461,4494.102539,4517.179688,4575.897461,4395.256348,4390.512695,4525.769043,4566.410156,4573.077148,4537.436035,4405.641113,4421.282227,4599.230957,4537.820313,4518.333496,4440.256348,4576.025879,4400.897461,4571.153809,4507.436035,4374.230957,4533.077148,4541.538574,2961,0,5,2562,42798,,,,0,4,4,4,4,4,4,4,4,4,4,4,4,4,4,4,4,4,4,4,4,4,4,4,4,4,4,4,4,4,4,4,4,100,,,,,,,,,,,,,,,,,,,,,,,,,,,,,,,,,,,,,,,,,,,,,,,,,,,,,,,,,,,,,,,,,,,,,,,,,,,,,,,,,,,,,,,,,,,,,,,,,,,,,,,,,,,,,,,,,,,,,,,,,,,,,,,,,,,,,,,,,,,,,,,,,,,,,,,,,,,,,,,,,,,,,,,,,,,,,,,,,,,,,,,,,,,,,,,,,,,,,,,,,,,,,,
1764669164.140461,2391,0,4396.025879,4393.846191,4513.846191,4535.128418,4379.615234,4519.743652,4547.94873,4389.871582,4589.871582,4382.820313,4495.641113,4515.769043,4572.820313,4396.153809,4391.153809,4523.846191,4561.538574,4561.538574,4523.077148,4395,4413.077148,4587.820313,4532.563965,4515.897461,4446.538574,4575.256348,4390.641113,4563.205078,4506.153809,4387.692383,4525.384766,4515.769043,2887,0,5,2562,42798,,,,0,4,4,4,4,4,4,4,4,4,4,4,4,4,4,4,4,4,4,4,4,4,4,4,4,4,4,4,4,4,4,4,4,100,,,,,,,,,,,,,,,,,,,,,,,,,,,,,,,,,,,,,,,,,,,,,,,,,,,,,,,,,,,,,,,,,,,,,,,,,,,,,,,,,,,,,,,,,,,,,,,,,,,,,,,,,,,,,,,,,,,,,,,,,,,,,,,,,,,,,,,,,,,,,,,,,,,,,,,,,,,,,,,,,,,,,,,,,,,,,,,,,,,,,,,,,,,,,,,,,,,,,,,,,,,,,,
1764669164.144367,2392,0,4397.05127,4401.153809,4508.333496,4532.820313,4381.410156,4519.615234,4546.666504,4387.94873,4600.256348,4391.282227,4501.025879,4513.333496,4573.846191,4396.153809,4390.897461,4518.205078,4556.922852,4545,4507.94873,4386.410156,4406.794922,4580.128418,4528.846191,4511.282227,4435.897461,4578.974121,4387.307617,4558.717773,4506.794922,4397.05127,4529.487305,4510.897461,2744,0,5,2563,42806,,,,0,4,4,4,4,4,4,4,4,4,4,4,4,4,4,4,4,4,4,4,4,4,4,4,4,4,4,4,4,4,4,4,4,100,,,,,,,,,,,,,,,,,,,,,,,,,,,,,,,,,,,,,,,,,,,,,,,3.350886,0.861524,1.512901,2.139478,1.692782,3.149215,1.20435,1.970922,2.633497,2.006768,2.371075,1.955467,3.780555,3.601681,2.647825,2.295483,0.886743,1.98722,2.658797,1.85336,3.347132,2.075773,2.57932,2.463306,2.163385,3.535049,1.391129,1.684228,2.294005,1.666923,2.387676,0.794091,0.949249,2.452987,2.012942,1.991932,0.909191,1.546095,2.692839,2.134357,2.030525,0.699916,1.876391,2.367988,2.08186,2.115699,2.109922,3.933228,4.943545,3.009872,1.275275,0.593714,1.082175,1.709818,1.582118,2.018452,0.368885,1.262227,2.020401,1.676583,1.607795,0.597876,1.280833,1.782711,1.633389,0.400641,0.396693,0.816178,0.88631,1.061427,0.838409,0.774725,0.806492,1.813367,1.597994,1.224978,1.758405,0.893632,1.619699,1.619157,2.212679,1.310469,1.656437,2.292218,1.756205,1.65464,3.080013,1.096004,2.590248,1.94854,0.803563,2.651752,0.831058,1.958341,1.438291,1.480682,1.447295,1.579166,1.949828,1.393584,2.599629,2.474356,3.011836,2.65003,1.910314,1.588569,1.351007,1.611167,2.052401,1.767448,1.80558,1.079022,1.377491,1.945819,1.71911,2.79473,1.543273,2.600704,2.533251,1.683559,6.458239,1.786459,8.250309,5.921779,3.927042,2.663105,1.213821,2.448326,1.933685,1.793931,1.95141,1.464461,2.616177,2.902913,1.925832,2.438412,1.160433,2.213895,2.378875,1.98378,1.39549,0.621427,0.838247,1.123783,0.916279,1.841664,1.076703,2.061913,2.733395,2.083576,2.413381,1.47095,3.447173,2.992979,3.088728,2.599331,3.445888,3.787016,3.17164,2.335929
1764669164.148273,2393,0,4398.589844,4407.563965,4517.179688,4534.358887,4380.769043,4521.282227,4545.256348,4386.538574,4602.692383,4408.333496,4505.897461,4508.974121,4577.179688,4392.563965,4388.205078,4508.717773,4553.077148,4531.538574,4501.538574,4384.358887,4404.230957,4577.563965,4526.538574,4506.153809,4402.563965,4583.846191,4392.436035,4559.487305,4508.846191,4397.692383,4538.717773,4518.077148,2921,0,5,2563,42806,,,,0,4,4,4,4,4,4,4,4,4,4,4,4,4,4,4,4,4,4,4,4,4,4,4,4,4,4,4,4,4,4,4,4,100,,,,,,,,,,,,,,,,,,,,,,,,,,,,,,,,,,,16982,0,0.631663,-0.307129,-0.31366,0.638977,1.006471,-0.015139,-0.041021,16.666666,37.333332,-23.666666,,,,,,,,,,,,,,,,,,,,,,,,,,,,,,,,,,,,,,,,,,,,,,,,,,,,,,,,,,,,,,,,,,,,,,,,,,,,,,,,,,,,,,,,,,,,,,,,,,,,,,,,,,,,,,,,,,,,,,,,,,,,,,,,,,,,,,,,,,,,,,,,,,,,,,,,,,,,,,,,
1764669164.152179,2394,0,4398.333496,4408.974121,4531.025879,4537.563965,4378.077148,4523.077148,4544.102539,4385.769043,4595.384766,4421.538574,4507.436035,4503.333496,4580.128418,4385.384766,4383.589844,4499.743652,4550.897461,4528.205078,4507.820313,4389.102539,4404.487305,4578.205078,4525.897461,4503.333496,4363.589844,4585.641113,4401.410156,4564.230957,4510.897461,4392.307617,4542.692383,4520.897461,1845,0,5,2564,42813,,,,0,4,4,4,4,4,4,4,4,4,4,4,4,4,4,4,4,4,4,4,4,4,4,4,4,4,4,4,4,4,4,4,4,100,,,,,,,,,,,,,,,,,,,,,,,,,,,,,,,,,,,,,,,,,,,,,,,,,,,,,,,,,,,,,,,,,,,,,,,,,,,,,,,,,,,,,,,,,,,,,,,,,,,,,,,,,,,,,,,,,,,,,,,,,,,,,,,,,,,,,,,,,,,,,,,,,,,,,,,,,,,,,,,,,,,,,,,,,,,,,,,,,,,,,,,,,,,,,,,,,,,,,,,,,,,,,,
1764669164.156085,2395,0,4395.512695,4404.871582,4537.94873,4539.102539,4376.794922,4524.230957,4543.589844,4385.256348,4582.94873,4424.487305,4506.153809,4499.615234,4579.871582,4378.077148,4379.358887,4497.307617,4551.025879,4535.769043,4522.05127,4396.282227,4406.153809,4579.102539,4526.666504,4503.717773,4345.512695,4583.205078,4406.538574,4569.102539,4511.794922,4387.179688,4537.436035,4511.282227,2474,0,5,2564,42813,,,,0,4,4,4,4,4,4,4,4,4,4,4,4,4,4,4,4,4,4,4,4,4,4,4,4,4,4,4,4,4,4,4,4,100,,,,,,,,,,,,,,,,,,,,,,,,,,,,,,,,,,,,,,,,,,,,,,,,,,,,,,,,,,,,,,,,,,,,,,,,,,,,,,,,,,,,,,,,,,,,,,,,,,,,,,,,,,,,,,,,,,,,,,,,,,,,,,,,,,,,,,,,,,,,,,,,,,,,,,,,,,,,,,,,,,,,,,,,,,,,,,,,,,,,,,,,,,,,,,,,,,,,,,,,,,,,,,
1764669164.159991,2396,0,4392.05127,4398.846191,4532.563965,4537.94873,4379.871582,4524.743652,4544.358887,4385.897461,4571.922852,4418.974121,4503.974121,4500.384766,4576.282227,4375.256348,4378.461426,4503.461426,4552.563965,4547.179688,4533.077148,4400.384766,4407.436035,4578.589844,4528.205078,4506.410156,4360.897461,4579.487305,4404.102539,4570.897461,4511.538574,4387.692383,4528.205078,4496.025879,2654,0,5,2565,42821,,,,0,4,4,4,4,4,4,4,4,4,4,4,4,4,4,4,4,4,4,4,4,4,4,4,4,4,4,4,4,4,4,4,4,100,,,,,,,,,,,,,,,,,,,,,,,,,,,,,,,,,,,,,,,,,,,,,,,,,,,,,,,,,,,,,,,,,,,,,,,,,,,,,,,,,,,,,,,,,,,,,,,,,,,,,,,,,,,,,,,,,,,,,,,,,,,,,,,,,,,,,,,,,,,,,,,,,,,,,,,,,,,,,,,,,,,,,,,,,,,,,,,,,,,,,,,,,,,,,,,,,,,,,,,,,,,,,,
1764669164.163897,2397,0,4390,4396.153809,4519.102539,4535.769043,4387.179688,4525.256348,4547.436035,4389.358887,4566.922852,4411.538574,4503.333496,4505.384766,4571.410156,4379.358887,4381.794922,4514.358887,4553.846191,4553.077148,4532.307617,4398.333496,4407.692383,4576.666504,4529.358887,4508.333496,4397.563965,4578.846191,4396.538574,4569.615234,4511.025879,4394.743652,4524.358887,4488.205078,2514,0,5,2565,42821,,,,0,4,4,4,4,4,4,4,4,4,4,4,4,4,4,4,4,4,4,4,4,4,4,4,4,4,4,4,4,4,4,4,4,100,,,,,,,,,,,,,,,,,,,,,,,,,,,,,,,,,,,16983,0,0.631561,-0.306519,-0.313965,0.639221,1.009889,-0.021487,-0.020022,17.5,38.5,-24.166666,,,,,,,,,,,,,,,,,,,,,,,,,,,,,,,,,,,,,,,,,,,,,,,,,,,,,,,,,,,,,,,,,,,,,,,,,,,,,,,,,,,,,,,,,,,,,,,,,,,,,,,,,,,,,,,,,,,,,,,,,,,,,,,,,,,,,,,,,,,,,,,,,,,,,,,,,,,,,,,,
1764669164.167803,2398,0,4390.897461,4399.230957,4507.179688,4535.897461,4395.256348,4526.922852,4552.179688,4395.897461,4568.846191,4407.307617,4505.128418,4511.410156,4568.461426,4387.692383,4387.436035,4522.436035,4553.077148,4548.717773,4519.487305,4391.666504,4407.05127,4574.102539,4529.358887,4507.179688,4429.871582,4583.205078,4390.512695,4567.692383,4511.538574,4405,4531.538574,4494.615234,2772,0,5,2566,42829,,,,0,4,4,4,4,4,4,4,4,4,4,4,4,4,4,4,4,4,4,4,4,4,4,4,4,4,4,4,4,4,4,4,4,100,,,,,,,,,,,,,,,,,,,,,,,,,,,,,,,,,,,,,,,,,,,,,,,,,,,,,,,,,,,,,,,,,,,,,,,,,,,,,,,,,,,,,,,,,,,,,,,,,,,,,,,,,,,,,,,,,,,,,,,,,,,,,,,,,,,,,,,,,,,,,,,,,,,,,,,,,,,,,,,,,,,,,,,,,,,,,,,,,,,,,,,,,,,,,,,,,,,,,,,,,,,,,,
1764669164.171709,2399,0,4393.974121,4405.512695,4503.077148,4539.358887,4399.358887,4528.974121,4555.769043,4402.05127,4575.641113,4406.025879,4507.692383,4514.487305,4568.846191,4393.974121,4391.025879,4521.666504,4550,4536.922852,4502.563965,4384.615234,4404.743652,4571.666504,4527.94873,4502.563965,4439.102539,4589.871582,4390.384766,4566.794922,4512.94873,4412.820313,4547.436035,4508.974121,2773,0,5,2566,42829,,,,0,4,4,4,4,4,4,4,4,4,4,4,4,4,4,4,4,4,4,4,4,4,4,4,4,4,4,4,4,4,4,4,4,100,,,,,,,,,,,,,,,,,,,,,,,,,,,,,,,,,,,,,,,,,,,,,,,,,,,,,,,,,,,,,,,,,,,,,,,,,,,,,,,,,,,,,,,,,,,,,,,,,,,,,,,,,,,,,,,,,,,,,,,,,,,,,,,,,,,,,,,,,,,,,,,,,,,,,,,,,,,,,,,,,,,,,,,,,,,,,,,,,,,,,,,,,,,,,,,,,,,,,,,,,,,,,,
1764669164.175615,2400,0,4395.769043,4409.102539,4505.641113,4543.077148,4396.410156,4528.589844,4553.846191,4401.922852,4582.563965,4403.333496,4507.436035,4512.179688,4570.128418,4392.94873,4388.205078,4511.666504,4545.256348,4524.487305,4490.512695,4380.384766,4399.871582,4569.102539,4525,4495.897461,4426.025879,4593.461426,4394.871582,4566.410156,4513.205078,4413.846191,4561.922852,4518.717773,2858,0,5,2566,42837,,,,0,4,4,4,4,4,4,4,4,4,4,4,4,4,4,4,4,4,4,4,4,4,4,4,4,4,4,4,4,4,4,4,4,100,,,,,,,,,,,,,,,,,,,,,,,,,,,,,,,,,,,,,,,,,,,,,,,,,,,,,,,,,,,,,,,,,,,,,,,,,,,,,,,,,,,,,,,,,,,,,,,,,,,,,,,,,,,,,,,,,,,,,,,,,,,,,,,,,,,,,,,,,,,,,,,,,,,,,,,,,,,,,,,,,,,,,,,,,,,,,,,,,,,,,,,,,,,,,,,,,,,,,,,,,,,,,,
1764669164.179521,2401,0,4392.94873,4404.487305,4508.333496,4540.641113,4387.05127,4523.077148,4544.487305,4391.282227,4584.358887,4395.897461,4501.666504,4504.871582,4567.94873,4385.128418,4377.563965,4497.820313,4539.871582,4516.410156,4487.05127,4378.077148,4392.692383,4566.025879,4520.897461,4490,4407.820313,4589.102539,4397.563965,4563.717773,4510.256348,4407.179688,4563.974121,4516.025879,2944,0,5,2566,42837,,,,0,4,4,4,4,4,4,4,4,4,4,4,4,4,4,4,4,4,4,4,4,4,4,4,4,4,4,4,4,4,4,4,4,100,,,,,,,,,,,,,,,,,,,,,,,,,,,,,,,,,,,16984,0,0.631369,-0.306152,-0.314087,0.639526,0.986449,-0.01465,-0.009767,16.5,38,-23.833334,,,,,,,,,,,,,,,,,,,,,,,,,,,,,,,,,,,,,,,,,,,,,,,,,,,,,,,,,,,,,,,,,,,,,,,,,,,,,,,,,,,,,,,,,,,,,,,,,,,,,,,,,,,,,,,,,,,,,,,,,,,,,,,,,,,,,,,,,,,,,,,,,,,,,,,,,,,,,,,,
1764669164.183427,2402,0,4385.512695,4392.05127,4504.487305,4529.102539,4376.025879,4513.589844,4530.512695,4373.077148,4578.333496,4384.487305,4490.641113,4496.538574,4560.384766,4376.025879,4362.692383,4488.333496,4534.871582,4513.717773,4489.487305,4375,4385.128418,4563.333496,4516.794922,4487.05127,4402.436035,4577.563965,4393.589844,4557.307617,4504.743652,4395.641113,4549.615234,4501.922852,2735,0,5,2567,42845,,,,0,4,4,4,4,4,4,4,4,4,4,4,4,4,4,4,4,4,4,4,4,4,4,4,4,4,4,4,4,4,4,4,4,100,,,,,,,,,,,,,,,,,,,,,,,,,,,,,,,,,,,,,,,,,,,,,,,,,,,,,,,,,,,,,,,,,,,,,,,,,,,,,,,,,,,,,,,,,,,,,,,,,,,,,,,,,,,,,,,,,,,,,,,,,,,,,,,,,,,,,,,,,,,,,,,,,,,,,,,,,,,,,,,,,,,,,,,,,,,,,,,,,,,,,,,,,,,,,,,,,,,,,,,,,,,,,,
1764669164.187333,2403,0,4378.333496,4378.333496,4492.692383,4513.589844,4370.769043,4505,4518.846191,4356.282227,4566.666504,4373.974121,4479.487305,4492.94873,4551.153809,4373.077148,4350.384766,4488.717773,4532.179688,4514.871582,4494.615234,4370.512695,4380.769043,4563.589844,4515.769043,4488.461426,4413.846191,4565.128418,4383.717773,4550.256348,4499.871582,4384.743652,4525,4483.461426,2909,0,5,2567,42845,,,,0,4,4,4,4,4,4,4,4,4,4,4,4,4,4,4,4,4,4,4,4,4,4,4,4,4,4,4,4,4,4,4,4,100,,,,,,,,,,,,,,,,,,,,,,,,,,,,,,,,,,,,,,,,,,,,,,,,,,,,,,,,,,,,,,,,,,,,,,,,,,,,,,,,,,,,,,,,,,,,,,,,,,,,,,,,,,,,,,,,,,,,,,,,,,,,,,,,,,,,,,,,,,,,,,,,,,,,,,,,,,,,,,,,,,,,,,,,,,,,,,,,,,,,,,,,,,,,,,,,,,,,,,,,,,,,,,
1764669164.191239,2404,0,4378.333496,4372.307617,4477.692383,4504.871582,4375.512695,4503.717773,4516.922852,4351.282227,4556.025879,4370.256348,4475.256348,4498.974121,4548.461426,4380.256348,4348.333496,4499.230957,4535.641113,4520.769043,4502.05127,4368.589844,4382.436035,4569.871582,4520.769043,4495.128418,4427.94873,4559.487305,4375.384766,4548.589844,4500,4379.487305,4503.461426,4470.512695,2793,0,5,2562,42852,,,,0,4,4,4,4,4,4,4,4,4,4,4,4,4,4,4,4,4,4,4,4,4,4,4,4,4,4,4,4,4,4,4,4,100,,,,,,,,,,,,,,,,,,,,,,,,,,,,,,,,,,,,,,,,,,,,,,,,,,,,,,,,,,,,,,,,,,,,,,,,,,,,,,,,,,,,,,,,,,,,,,,,,,,,,,,,,,,,,,,,,,,,,,,,,,,,,,,,,,,,,,,,,,,,,,,,,,,,,,,,,,,,,,,,,,,,,,,,,,,,,,,,,,,,,,,,,,,,,,,,,,,,,,,,,,,,,,
1764669164.195145,2405,0,4388.846191,4379.102539,4468.333496,4510.897461,4388.589844,4512.436035,4527.436035,4361.666504,4552.94873,4376.538574,4482.820313,4514.615234,4558.717773,4396.153809,4360.897461,4515.256348,4547.05127,4532.820313,4512.94873,4374.102539,4390.384766,4581.410156,4532.436035,4505.128418,4425.512695,4564.358887,4377.05127,4556.538574,4506.922852,4382.820313,4496.410156,4470.641113,2883,0,5,2562,42852,,,,0,4,4,4,4,4,4,4,4,4,4,4,4,4,4,4,4,4,4,4,4,4,4,4,4,4,4,4,4,4,4,4,4,100,,,,,,,,,,,,,,,,,,,,,,,,,,,,,,,,,,,16985,0,0.631242,-0.305786,-0.314697,0.639526,0.993285,-0.012697,-0.027835,16.333334,38.5,-24.166666,,,,,,,,,,,,,,,,,,,,,,,,,,,,,,,,,,,,,,,,,,,,,,,,,,,,,,,,,,,,,,,,,,,,,,,,,,,,,,,,,,,,,,,,,,,,,,,,,,,,,,,,,,,,,,,,,,,,,,,,,,,,,,,,,,,,,,,,,,,,,,,,,,,,,,,,,,,,,,,,
1764669164.199051,2406,0,4406.025879,4395.769043,4471.538574,4528.589844,4402.692383,4527.563965,4545.769043,4381.666504,4560.512695,4390.384766,4500.512695,4533.589844,4580.128418,4414.102539,4383.974121,4529.358887,4563.846191,4548.333496,4524.487305,4386.282227,4400.384766,4593.077148,4546.538574,4514.358887,4399.743652,4575.512695,4390.384766,4571.666504,4517.563965,4393.205078,4505.769043,4483.461426,2865,0,5,2563,42860,,,,0,4,4,4,4,4,4,4,4,4,4,4,4,4,4,4,4,4,4,4,4,4,4,4,4,4,4,4,4,4,4,4,4,100,,,,,,,,,,,,,,,,,,,,,,,,,,,,,,,,,,,,,,,,,,,,,,,,,,,,,,,,,,,,,,,,,,,,,,,,,,,,,,,,,,,,,,,,,,,,,,,,,,,,,,,,,,,,,,,,,,,,,,,,,,,,,,,,,,,,,,,,,,,,,,,,,,,,,,,,,,,,,,,,,,,,,,,,,,,,,,,,,,,,,,,,,,,,,,,,,,,,,,,,,,,,,,
1764669164.202957,2407,0,4421.025879,4412.436035,4486.153809,4544.487305,4409.871582,4540.897461,4561.922852,4399.230957,4574.615234,4404.871582,4519.615234,4547.307617,4601.794922,4425.769043,4405.512695,4534.871582,4577.05127,4559.102539,4530.128418,4397.692383,4406.538574,4597.563965,4556.538574,4517.692383,4364.358887,4585.384766,4406.922852,4585.512695,4526.153809,4404.743652,4522.94873,4499.230957,3028,0,5,2563,42860,,,,0,4,4,4,4,4,4,4,4,4,4,4,4,4,4,4,4,4,4,4,4,4,4,4,4,4,4,4,4,4,4,4,4,100,,,,,,,,,,,,,,,,,,,,,,,,,,,,,,,,,,,,,,,,,,,,,,,,,,,,,,,,,,,,,,,,,,,,,,,,,,,,,,,,,,,,,,,,,,,,,,,,,,,,,,,,,,,,,,,,,,,,,,,,,,,,,,,,,,,,,,,,,,,,,,,,,,,,,,,,,,,,,,,,,,,,,,,,,,,,,,,,,,,,,,,,,,,,,,,,,,,,,,,,,,,,,,
1764669164.206863,2408,0,4426.153809,4420.256348,4503.589844,4545.641113,4406.794922,4545.384766,4567.436035,4405,4587.436035,4413.461426,4529.871582,4550.897461,4611.153809,4425.384766,4412.692383,4529.230957,4578.974121,4557.94873,4525.897461,4400.128418,4406.666504,4592.692383,4557.94873,4513.974121,4346.025879,4588.077148,4414.743652,4589.487305,4528.077148,4410.769043,4536.153809,4504.743652,2942,0,5,2564,42868,,,,0,4,4,4,4,4,4,4,4,4,4,4,4,4,4,4,4,4,4,4,4,4,4,4,4,4,4,4,4,4,4,4,4,100,,,,,,,,,,,,,,,,,,,,,,,,,,,,,,,,,,,,,,,,,,,,,,,,,,,,,,,,,,,,,,,,,,,,,,,,,,,,,,,,,,,,,,,,,,,,,,,,,,,,,,,,,,,,,,,,,,,,,,,,,,,,,,,,,,,,,,,,,,,,,,,,,,,,,,,,,,,,,,,,,,,,,,,,,,,,,,,,,,,,,,,,,,,,,,,,,,,,,,,,,,,,,,
1764669164.210769,2409,0,4420.641113,4417.563965,4513.717773,4531.025879,4397.436035,4540.769043,4561.410156,4398.333496,4591.666504,4415.512695,4526.794922,4546.153809,4603.846191,4414.871582,4402.179688,4518.077148,4570.512695,4547.05127,4516.922852,4393.461426,4404.230957,4583.717773,4552.820313,4507.436035,4362.820313,4584.102539,4407.820313,4582.94873,4523.846191,4407.94873,4539.743652,4494.230957,2817,0,5,2564,42868,,,,0,4,4,4,4,4,4,4,4,4,4,4,4,4,4,4,4,4,4,4,4,4,4,4,4,4,4,4,4,4,4,4,4,100,,,,,,,,,,,,,,,,,,,,,,,,,,,,,,,,,,,16986,0,0.631244,-0.305725,-0.315125,0.639343,1.015749,-0.004395,-0.035161,17.166666,37.833332,-22.5,,,,,,,,,,,,,,,,,,,,,,,,,,,,,,,,,,,,,,,,,,,,,,,,,,,,,,,,,,,,,,,,,,,,,,,,,,,,,,,,,,,,,,,,,,,,,,,,,,,,,,,,,,,,,,,,,,,,,,,,,,,,,,,,,,,,,,,,,,,,,,,,,,,,,,,,,,,,,,,,
1764669164.214675,2410,0,4410.128418,4409.487305,4512.179688,4511.794922,4389.871582,4532.563965,4550.512695,4386.922852,4585.769043,4415,4515,4539.871582,4587.436035,4402.307617,4383.461426,4511.410156,4559.871582,4537.307617,4512.692383,4385,4404.615234,4578.717773,4546.794922,4504.230957,4407.94873,4577.820313,4390.897461,4572.179688,4517.436035,4398.589844,4535.384766,4473.717773,2457,0,5,2565,42876,,,,0,4,4,4,4,4,4,4,4,4,4,4,4,4,4,4,4,4,4,4,4,4,4,4,4,4,4,4,4,4,4,4,4,100,,,,,,,,,,,,,,,,,,,,,,,,,,,,,,,,,,,,,,,,,,,,,,,,,,,,,,,,,,,,,,,,,,,,,,,,,,,,,,,,,,,,,,,,,,,,,,,,,,,,,,,,,,,,,,,,,,,,,,,,,,,,,,,,,,,,,,,,,,,,,,,,,,,,,,,,,,,,,,,,,,,,,,,,,,,,,,,,,,,,,,,,,,,,,,,,,,,,,,,,,,,,,,
1764669164.218581,2411,0,4402.307617,4402.436035,4502.05127,4502.05127,4389.871582,4527.563965,4542.692383,4379.487305,4574.102539,4414.743652,4503.461426,4537.692383,4574.743652,4395.769043,4370.769043,4516.282227,4555.256348,4538.589844,4518.333496,4382.179688,4409.358887,4581.153809,4543.846191,4506.153809,4453.461426,4572.820313,4374.615234,4565,4512.820313,4388.205078,4528.077148,4456.794922,2753,0,5,2565,42876,,,,0,4,4,4,4,4,4,4,4,4,4,4,4,4,4,4,4,4,4,4,4,4,4,4,4,4,4,4,4,4,4,4,4,100,,,,,,,,,,,,,,,,,,,,,,,,,,,,,,,,,,,,,,,,,,,,,,,,,,,,,,,,,,,,,,,,,,,,,,,,,,,,,,,,,,,,,,,,,,,,,,,,,,,,,,,,,,,,,,,,,,,,,,,,,,,,,,,,,,,,,,,,,,,,,,,,,,,,,,,,,,,,,,,,,,,,,,,,,,,,,,,,,,,,,,,,,,,,,,,,,,,,,,,,,,,,,,
1764669164.222487,2412,0,4400.256348,4399.487305,4491.282227,4507.820313,4395.512695,4527.820313,4541.794922,4379.743652,4564.358887,4413.077148,4499.230957,4539.743652,4573.974121,4397.179688,4372.05127,4529.487305,4557.820313,4550.384766,4529.102539,4385.769043,4414.102539,4587.179688,4543.589844,4509.230957,4471.794922,4570.256348,4367.94873,4564.230957,4511.282227,4382.179688,4521.153809,4455.641113,2514,0,5,2566,42884,,,,0,4,4,4,4,4,4,4,4,4,4,4,4,4,4,4,4,4,4,4,4,4,4,4,4,4,4,4,4,4,4,4,4,100,,,,,,,,,,,,,,,,,,,,,,,,,,,,,,,,,,,,,,,,,,,,,,,,,,,,,,,,,,,,,,,,,,,,,,,,,,,,,,,,,,,,,,,,,,,,,,,,,,,,,,,,,,,,,,,,,,,,,,,,,,,,,,,,,,,,,,,,,,,,,,,,,,,,,,,,,,,,,,,,,,,,,,,,,,,,,,,,,,,,,,,,,,,,,,,,,,,,,,,,,,,,,,
1764669164.226393,2413,0,4402.94873,4400.384766,4487.179688,4525.128418,4401.282227,4531.153809,4546.282227,4386.282227,4562.179688,4408.974121,4503.589844,4541.794922,4583.717773,4402.820313,4383.974121,4541.025879,4562.563965,4561.922852,4534.615234,4390.128418,4413.717773,4590.128418,4543.461426,4508.205078,4455.769043,4569.487305,4372.820313,4567.05127,4512.179688,4383.589844,4516.666504,4473.205078,2268,0,5,2566,42884,,,,0,4,4,4,4,4,4,4,4,4,4,4,4,4,4,4,4,4,4,4,4,4,4,4,4,4,4,4,4,4,4,4,4,100,,,,,,,,,,,,,,,,,,,,,,,,,,,,,,,,,,,16987,0,0.631185,-0.305786,-0.315308,0.639282,1.015749,-0.004395,-0.035161,20.166666,38.833332,-25.166666,,,,,,,,,,,,,,,,,,,,,,,,,,,,,,,,,,,,,,,,,,,,,,,,,,,,,,,,,,,,,,,,,,,,,,,,,,,,,,,,,,,,,,,,,,,,,,,,,,,,,,,,,,,,,,,,,,,,,,,,,,,,,,,,,,,,,,,,,,,,,,,,,,,,,,,,,,,,,,,,
1764669164.230299,2414,0,4406.922852,4403.846191,4492.692383,4543.717773,4403.589844,4534.358887,4553.333496,4395.769043,4568.077148,4405.769043,4512.563965,4541.025879,4595.384766,4407.179688,4396.666504,4542.05127,4564.102539,4562.436035,4528.205078,4390.769043,4406.794922,4587.05127,4541.922852,4502.94873,4421.538574,4569.743652,4385,4569.743652,4514.102539,4391.410156,4516.282227,4501.538574,2774,0,5,2567,42891,,,,0,4,4,4,4,4,4,4,4,4,4,4,4,4,4,4,4,4,4,4,4,4,4,4,4,4,4,4,4,4,4,4,4,100,,,,,,,,,,,,,,,,,,,,,,,,,,,,,,,,,,,,,,,,,,,,,,,,,,,,,,,,,,,,,,,,,,,,,,,,,,,,,,,,,,,,,,,,,,,,,,,,,,,,,,,,,,,,,,,,,,,,,,,,,,,,,,,,,,,,,,,,,,,,,,,,,,,,,,,,,,,,,,,,,,,,,,,,,,,,,,,,,,,,,,,,,,,,,,,,,,,,,,,,,,,,,,
1764669164.234205,2415,0,4409.743652,4408.333496,4505.256348,4554.743652,4403.974121,4535.641113,4560.128418,4404.487305,4577.563965,4409.102539,4520.256348,4537.94873,4600.256348,4407.307617,4401.282227,4531.794922,4560.769043,4550.128418,4513.077148,4387.692383,4397.05127,4580.256348,4538.846191,4497.692383,4392.05127,4571.282227,4397.307617,4570.256348,4516.666504,4401.538574,4521.282227,4527.820313,2487,0,5,2567,42891,,,,0,4,4,4,4,4,4,4,4,4,4,4,4,4,4,4,4,4,4,4,4,4,4,4,4,4,4,4,4,4,4,4,4,100,,,,,,,,,,,,,,,,,,,,,,,,,,,,,,,,,,,,,,,,,,,,,,,,,,,,,,,,,,,,,,,,,,,,,,,,,,,,,,,,,,,,,,,,,,,,,,,,,,,,,,,,,,,,,,,,,,,,,,,,,,,,,,,,,,,,,,,,,,,,,,,,,,,,,,,,,,,,,,,,,,,,,,,,,,,,,,,,,,,,,,,,,,,,,,,,,,,,,,,,,,,,,,
1764669164.238111,2416,0,4410.128418,4410.897461,4518.205078,4554.487305,4404.743652,4534.871582,4563.974121,4408.077148,4583.846191,4419.358887,4521.538574,4534.230957,4594.615234,4403.077148,4394.871582,4516.282227,4554.487305,4532.94873,4498.974121,4384.230957,4389.358887,4573.717773,4534.743652,4496.666504,4381.410156,4573.077148,4403.974121,4568.077148,4518.461426,4408.846191,4529.743652,4541.025879,2937,0,5,2568,42899,,,,0,4,4,4,4,4,4,4,4,4,4,4,4,4,4,4,4,4,4,4,4,4,4,4,4,4,4,4,4,4,4,4,4,100,,,,,,,,,,,,,,,,,,,,,,,,,,,,,,,,,,,,,,,,,,,,,,,,,,,,,,,,,,,,,,,,,,,,,,,,,,,,,,,,,,,,,,,,,,,,,,,,,,,,,,,,,,,,,,,,,,,,,,,,,,,,,,,,,,,,,,,,,,,,,,,,,,,,,,,,,,,,,,,,,,,,,,,,,,,,,,,,,,,,,,,,,,,,,,,,,,,,,,,,,,,,,,
1764669164.242017,2417,0,4407.179688,4407.692383,4524.743652,4545,4404.487305,4531.410156,4561.922852,4402.692383,4582.820313,4427.820313,4514.487305,4530.128418,4580.641113,4395.769043,4381.410156,4502.94873,4547.436035,4521.153809,4493.846191,4383.205078,4386.410156,4568.846191,4529.615234,4498.974121,4388.974121,4572.436035,4402.179688,4563.461426,4517.692383,4408.461426,4536.666504,4538.077148,2940,0,5,2568,42899,,,,0,4,4,4,4,4,4,4,4,4,4,4,4,4,4,4,4,4,4,4,4,4,4,4,4,4,4,4,4,4,4,4,4,100,,,,,,,,,,,,,,,,,,,,,,,,,,,,,,,,,,,16988,0,0.631063,-0.305847,-0.315369,0.639343,0.99475,-0.016115,-0.02051,15.166667,38.333332,-24.666666,,,,,,,,,,,,,,,,,,,,,,,,,,,,,,,,,,,,,,,,,,,,,,,,,,,,,,,,,,,,,,,,,,,,,,,,,,,,,,,,,,,,,,,,,,,,,,,,,,,,,,,,,,,,,,,,,,,,,,,,,,,,,,,,,,,,,,,,,,,,,,,,,,,,,,,,,,,,,,,,
1764669164.245923,2418,0,4400.384766,4397.563965,4522.307617,4531.794922,4400.256348,4524.743652,4552.820313,4388.846191,4575.769043,4424.102539,4501.282227,4524.358887,4565,4388.333496,4368.205078,4495.256348,4540.897461,4519.358887,4498.589844,4384.358887,4387.563965,4565.384766,4523.461426,4500,4405,4567.820313,4392.820313,4556.153809,4513.205078,4399.615234,4537.436035,4522.179688,1820,0,5,2569,42907,,,,0,4,4,4,4,4,4,4,4,4,4,4,4,4,4,4,4,4,4,4,4,4,4,4,4,4,4,4,4,4,4,4,4,100,,,,,,,,,,,,,,,,,,,,,,,,,,,,,,,,,,,,,,,,,,,,,,,,,,,,,,,,,,,,,,,,,,,,,,,,,,,,,,,,,,,,,,,,,,,,,,,,,,,,,,,,,,,,,,,,,,,,,,,,,,,,,,,,,,,,,,,,,,,,,,,,,,,,,,,,,,,,,,,,,,,,,,,,,,,,,,,,,,,,,,,,,,,,,,,,,,,,,,,,,,,,,,
1764669164.249829,2419,0,4391.410156,4385.128418,4514.615234,4521.153809,4392.692383,4516.282227,4539.871582,4373.077148,4567.563965,4405.897461,4487.563965,4517.563965,4555.256348,4383.846191,4361.794922,4492.692383,4535.769043,4524.615234,4507.307617,4385.769043,4391.153809,4562.94873,4517.436035,4496.666504,4418.333496,4561.410156,4380.769043,4548.333496,4506.666504,4387.820313,4531.538574,4500.641113,2800,0,5,2569,42907,,,,0,4,4,4,4,4,4,4,4,4,4,4,4,4,4,4,4,4,4,4,4,4,4,4,4,4,4,4,4,4,4,4,4,100,,,,,,,,,,,,,,,,,,,,,,,,,,,,,,,,,,,,,,,,,,,,,,,,,,,,,,,,,,,,,,,,,,,,,,,,,,,,,,,,,,,,,,,,,,,,,,,,,,,,,,,,,,,,,,,,,,,,,,,,,,,,,,,,,,,,,,,,,,,,,,,,,,,,,,,,,,,,,,,,,,,,,,,,,,,,,,,,,,,,,,,,,,,,,,,,,,,,,,,,,,,,,,
1764669164.253735,2420,0,4384.102539,4377.820313,4508.589844,4517.307617,4387.307617,4509.871582,4530.641113,4364.743652,4563.333496,4383.846191,4480.256348,4512.563965,4555.897461,4384.487305,4364.358887,4492.94873,4533.333496,4530.641113,4513.205078,4385.897461,4395.897461,4562.94873,4514.615234,4491.282227,4421.666504,4558.333496,4372.563965,4543.846191,4502.05127,4381.410156,4523.461426,4481.922852,2640,0,5,2570,42915,,,,0,4,4,4,4,4,4,4,4,4,4,4,4,4,4,4,4,4,4,4,4,4,4,4,4,4,4,4,4,4,4,4,4,100,,,,,,,,,,,,,,,,,,,,,,,,,,,,,,,,,,,,,,,,,,,,,,,,,,,,,,,,,,,,,,,,,,,,,,,,,,,,,,,,,,,,,,,,,,,,,,,,,,,,,,,,,,,,,,,,,,,,,,,,,,,,,,,,,,,,,,,,,,,,,,,,,,,,,,,,,,,,,,,,,,,,,,,,,,,,,,,,,,,,,,,,,,,,,,,,,,,,,,,,,,,,,,
1764669164.257641,2421,0,4382.692383,4380.897461,4508.846191,4522.179688,4388.589844,4509.487305,4531.410156,4369.487305,4565.256348,4373.205078,4482.563965,4512.94873,4565.384766,4390.128418,4373.077148,4494.871582,4535.512695,4532.692383,4513.205078,4385.384766,4401.025879,4567.563965,4517.179688,4489.743652,4414.743652,4563.205078,4372.563965,4546.538574,4502.563965,4385.897461,4519.358887,4473.333496,2865,0,5,2570,42915,,,,0,4,4,4,4,4,4,4,4,4,4,4,4,4,4,4,4,4,4,4,4,4,4,4,4,4,4,4,4,4,4,4,4,100,,,,,,,,,,,,,,,,,,,,,,,,,,,,,,,,,,,16989,0,0.630973,-0.305969,-0.31543,0.639343,1.000122,-0.008302,-0.018557,17.833334,37.833332,-23.666666,,,,,,,,,,,,,,,,,,,,,,,,,,,,,,,,,,,,,,,,,,,,,,,,,,,,,,,,,,,,,,,,,,,,,,,,,,,,,,,,,,,,,,,,,,,,,,,,,,,,,,,,,,,,,,,,,,,,,,,,,,,,,,,,,,,,,,,,,,,,,,,,,,,,,,,,,,,,,,,,
1764669164.261547,2422,0,4387.820313,4392.436035,4514.230957,4534.230957,4395.512695,4515.512695,4541.666504,4384.230957,4572.179688,4380,4491.666504,4519.358887,4577.692383,4397.307617,4382.436035,4498.589844,4542.05127,4531.794922,4510.897461,4386.153809,4405.769043,4576.282227,4524.871582,4496.410156,4404.358887,4576.025879,4380.384766,4556.410156,4508.077148,4398.846191,4523.333496,4477.05127,2979,0,5,2571,42923,,,,0,4,4,4,4,4,4,4,4,4,4,4,4,4,4,4,4,4,4,4,4,4,4,4,4,4,4,4,4,4,4,4,4,100,,,,,,,,,,,,,,,,,,,,,,,,,,,,,,,,,,,,,,,,,,,,,,,,,,,,,,,,,,,,,,,,,,,,,,,,,,,,,,,,,,,,,,,,,,,,,,,,,,,,,,,,,,,,,,,,,,,,,,,,,,,,,,,,,,,,,,,,,,,,,,,,,,,,,,,,,,,,,,,,,,,,,,,,,,,,,,,,,,,,,,,,,,,,,,,,,,,,,,,,,,,,,,
1764669164.265453,2423,0,4396.410156,4405.512695,4518.461426,4547.820313,4402.179688,4524.230957,4554.615234,4399.487305,4581.025879,4396.922852,4501.538574,4528.974121,4586.410156,4402.179688,4388.077148,4504.487305,4550.769043,4532.563965,4512.307617,4390.384766,4408.974121,4585.897461,4534.102539,4509.487305,4400.128418,4590.897461,4391.282227,4569.102539,4515.256348,4411.538574,4533.589844,4489.358887,2896,0,5,2571,42923,,,,0,4,4,4,4,4,4,4,4,4,4,4,4,4,4,4,4,4,4,4,4,4,4,4,4,4,4,4,4,4,4,4,4,100,,,,,,,,,,,,,,,,,,,,,,,,,,,,,,,,,,,,,,,,,,,,,,,,,,,,,,,,,,,,,,,,,,,,,,,,,,,,,,,,,,,,,,,,,,,,,,,,,,,,,,,,,,,,,,,,,,,,,,,,,,,,,,,,,,,,,,,,,,,,,,,,,,,,,,,,,,,,,,,,,,,,,,,,,,,,,,,,,,,,,,,,,,,,,,,,,,,,,,,,,,,,,,
1764669164.269359,2424,0,4402.179688,4412.05127,4515,4554.358887,4402.692383,4529.871582,4561.666504,4406.153809,4588.077148,4410.384766,4506.153809,4536.153809,4588.205078,4402.820313,4388.333496,4511.153809,4557.692383,4537.820313,4520.128418,4397.436035,4409.615234,4591.538574,4538.974121,4522.05127,4404.871582,4599.615234,4398.974121,4577.05127,4519.487305,4414.615234,4543.205078,4502.436035,2753,0,5,2572,42931,,,,0,4,4,4,4,4,4,4,4,4,4,4,4,4,4,4,4,4,4,4,4,4,4,4,4,4,4,4,4,4,4,4,4,100,,,,,,,,,,,,,,,,,,,,,,,,,,,,,,,,,,,,,,,,,,,,,,,3.301661,0.800589,1.762366,2.144383,2.09057,3.070135,1.087766,2.094582,2.636407,2.443534,2.588229,2.044034,3.477546,3.656902,3.26277,2.710845,1.012604,2.393564,2.577947,2.256186,3.561518,1.944537,2.583009,2.310581,2.633811,3.472084,1.315223,1.905082,2.277556,2.055773,2.350087,0.803446,1.092556,2.487682,2.438739,2.028181,0.873668,1.69798,2.88138,2.581793,2.02143,0.785549,2.064192,2.242298,2.521721,2.122954,2.588642,4.216249,4.488708,3.517034,1.300967,0.523943,1.051128,1.593926,1.90513,2.348566,0.389432,1.336135,1.970312,2.017272,2.002288,0.578958,1.3822,1.786721,1.939207,0.4842,0.38424,0.951055,0.980315,1.265121,0.93109,0.713596,1.285107,1.981151,1.874208,1.404021,1.847171,1.650761,2.013458,1.932244,2.607925,1.447659,1.935369,2.352969,2.113607,1.827949,3.383343,1.777394,3.138358,2.257539,0.77835,3.029904,1.221947,2.397428,1.629429,1.684788,1.397729,1.901267,2.065513,1.68675,2.809278,2.66289,3.296791,2.759022,2.246975,1.670131,1.444469,1.829879,2.063344,2.054874,1.784254,1.168517,1.722424,2.055308,2.046161,2.767202,1.474173,3.020852,2.543023,1.992231,5.709208,1.631979,7.244707,6.435346,4.803693,2.493281,1.260983,2.723121,1.912771,2.136089,1.821291,1.639392,3.052876,2.960135,2.302292,2.191293,1.182986,2.666925,2.388836,2.370849,1.352904,0.635276,0.96704,1.136272,1.109903,2.009484,1.200472,2.365817,2.535111,2.497565,2.238502,1.475474,3.611169,3.283073,3.66866,2.536489,3.270802,3.16701,3.124811,2.878035
1764669164.273265,2425,0,4400.641113,4408.205078,4503.077148,4547.307617,4396.282227,4528.974121,4558.717773,4400.769043,4589.615234,4412.820313,4503.589844,4535.897461,4583.589844,4400.128418,4384.230957,4515.641113,4558.846191,4544.743652,4529.358887,4402.94873,4407.307617,4590.384766,4535.384766,4526.153809,4413.461426,4596.922852,4399.358887,4574.743652,4518.077148,4405.256348,4544.358887,4508.589844,2930,0,5,2572,42931,,,,0,4,4,4,4,4,4,4,4,4,4,4,4,4,4,4,4,4,4,4,4,4,4,4,4,4,4,4,4,4,4,4,4,100,,,,,,,,,,,,,,,,,,,,,,,,,,,,,,,,,,,16990,0,0.630947,-0.306091,-0.315735,0.63916,0.99475,-0.006348,-0.028324,16,38,-25.166666,,,,,,,,,,,,,,,,,,,,,,,,,,,,,,,,,,,,,,,,,,,,,,,,,,,,,,,,,,,,,,,,,,,,,,,,,,,,,,,,,,,,,,,,,,,,,,,,,,,,,,,,,,,,,,,,,,,,,,,,,,,,,,,,,,,,,,,,,,,,,,,,,,,,,,,,,,,,,,,,
1764669164.277171,2426,0,4391.922852,4397.179688,4488.589844,4527.94873,4388.461426,4522.436035,4547.94873,4387.307617,4584.615234,4407.05127,4495.512695,4527.563965,4576.153809,4396.410156,4378.717773,4515.384766,4552.820313,4547.179688,4531.666504,4401.538574,4401.538574,4582.820313,4524.358887,4519.358887,4417.307617,4584.615234,4393.461426,4563.205078,4511.922852,4389.487305,4535,4505.384766,1855,0,5,2573,42938,,,,0,4,4,4,4,4,4,4,4,4,4,4,4,4,4,4,4,4,4,4,4,4,4,4,4,4,4,4,4,4,4,4,4,100,,,,,,,,,,,,,,,,,,,,,,,,,,,,,,,,,,,,,,,,,,,,,,,,,,,,,,,,,,,,,,,,,,,,,,,,,,,,,,,,,,,,,,,,,,,,,,,,,,,,,,,,,,,,,,,,,,,,,,,,,,,,,,,,,,,,,,,,,,,,,,,,,,,,,,,,,,,,,,,,,,,,,,,,,,,,,,,,,,,,,,,,,,,,,,,,,,,,,,,,,,,,,,
1764669164.281077,2427,0,4381.153809,4386.538574,4480.512695,4507.692383,4386.538574,4515.512695,4536.666504,4375,4575.256348,4400.512695,4487.05127,4516.025879,4569.743652,4394.615234,4375.641113,4511.282227,4542.820313,4543.333496,4524.230957,4392.820313,4394.230957,4573.333496,4512.436035,4506.282227,4412.179688,4570.384766,4386.410156,4550,4505.384766,4377.94873,4521.282227,4496.410156,2486,0,5,2573,42938,,,,0,4,4,4,4,4,4,4,4,4,4,4,4,4,4,4,4,4,4,4,4,4,4,4,4,4,4,4,4,4,4,4,4,100,,,,,,,,,,,,,,,,,,,,,,,,,,,,,,,,,,,,,,,,,,,,,,,,,,,,,,,,,,,,,,,,,,,,,,,,,,,,,,,,,,,,,,,,,,,,,,,,,,,,,,,,,,,,,,,,,,,,,,,,,,,,,,,,,,,,,,,,,,,,,,,,,,,,,,,,,,,,,,,,,,,,,,,,,,,,,,,,,,,,,,,,,,,,,,,,,,,,,,,,,,,,,,
1764669164.284983,2428,0,4375.769043,4384.102539,4485,4500.384766,4393.974121,4514.358887,4532.563965,4371.794922,4567.179688,4397.563965,4482.94873,4508.461426,4567.563965,4396.922852,4378.333496,4508.589844,4536.538574,4538.846191,4513.974121,4383.974121,4390,4567.94873,4507.94873,4496.282227,4399.487305,4562.94873,4384.871582,4544.358887,4503.077148,4379.743652,4513.461426,4488.974121,2657,0,5,2572,42946,,,,0,4,4,4,4,4,4,4,4,4,4,4,4,4,4,4,4,4,4,4,4,4,4,4,4,4,4,4,4,4,4,4,4,100,,,,,,,,,,,,,,,,,,,,,,,,,,,,,,,,,,,,,,,,,,,,,,,,,,,,,,,,,,,,,,,,,,,,,,,,,,,,,,,,,,,,,,,,,,,,,,,,,,,,,,,,,,,,,,,,,,,,,,,,,,,,,,,,,,,,,,,,,,,,,,,,,,,,,,,,,,,,,,,,,,,,,,,,,,,,,,,,,,,,,,,,,,,,,,,,,,,,,,,,,,,,,,
1764669164.288889,2429,0,4379.743652,4392.436035,4501.153809,4512.05127,4408.333496,4521.282227,4539.230957,4380.256348,4566.153809,4398.077148,4486.025879,4509.358887,4570.897461,4403.461426,4387.820313,4513.077148,4539.615234,4542.692383,4512.179688,4384.230957,4393.717773,4570.769043,4514.871582,4495.769043,4384.358887,4565.769043,4391.538574,4551.153809,4507.307617,4394.743652,4518.077148,4488.333496,2519,0,5,2572,42946,,,,0,4,4,4,4,4,4,4,4,4,4,4,4,4,4,4,4,4,4,4,4,4,4,4,4,4,4,4,4,4,4,4,4,100,,,,,,,,,,,,,,,,,,,,,,,,,,,,,,,,,,,16991,0,0.63113,-0.305969,-0.315857,0.638977,1.005005,-0.004395,-0.022952,16.333334,37.333332,-24.5,,,,,,,,,,,,,,,,,,,,,,,,,,,,,,,,,,,,,,,,,,,,,,,,,,,,,,,,,,,,,,,,,,,,,,,,,,,,,,,,,,,,,,,,,,,,,,,,,,,,,,,,,,,,,,,,,,,,,,,,,,,,,,,,,,,,,,,,,,,,,,,,,,,,,,,,,,,,,,,,
1764669164.292795,2430,0,4390.512695,4406.922852,4521.282227,4536.282227,4421.922852,4532.307617,4552.436035,4395.256348,4573.589844,4399.615234,4494.615234,4517.436035,4578.461426,4411.794922,4399.871582,4525.384766,4550.897461,4556.794922,4522.692383,4396.153809,4405.641113,4579.487305,4528.717773,4503.461426,4373.846191,4575.512695,4402.307617,4566.282227,4515.641113,4413.589844,4531.794922,4493.333496,2779,0,5,2568,42954,,,,0,4,4,4,4,4,4,4,4,4,4,4,4,4,4,4,4,4,4,4,4,4,4,4,4,4,4,4,4,4,4,4,4,100,,,,,,,,,,,,,,,,,,,,,,,,,,,,,,,,,,,,,,,,,,,,,,,,,,,,,,,,,,,,,,,,,,,,,,,,,,,,,,,,,,,,,,,,,,,,,,,,,,,,,,,,,,,,,,,,,,,,,,,,,,,,,,,,,,,,,,,,,,,,,,,,,,,,,,,,,,,,,,,,,,,,,,,,,,,,,,,,,,,,,,,,,,,,,,,,,,,,,,,,,,,,,,
1764669164.296701,2431,0,4399.871582,4418.461426,4535.128418,4557.563965,4425.641113,4539.615234,4562.94873,4407.05127,4584.230957,4400.384766,4502.563965,4525.641113,4585.384766,4416.538574,4406.282227,4538.077148,4561.794922,4572.307617,4538.333496,4411.538574,4419.358887,4586.538574,4539.487305,4511.410156,4375.384766,4583.846191,4407.820313,4578.717773,4522.05127,4423.717773,4543.846191,4498.077148,2778,0,5,2568,42954,,,,0,4,4,4,4,4,4,4,4,4,4,4,4,4,4,4,4,4,4,4,4,4,4,4,4,4,4,4,4,4,4,4,4,100,,,,,,,,,,,,,,,,,,,,,,,,,,,,,,,,,,,,,,,,,,,,,,,,,,,,,,,,,,,,,,,,,,,,,,,,,,,,,,,,,,,,,,,,,,,,,,,,,,,,,,,,,,,,,,,,,,,,,,,,,,,,,,,,,,,,,,,,,,,,,,,,,,,,,,,,,,,,,,,,,,,,,,,,,,,,,,,,,,,,,,,,,,,,,,,,,,,,,,,,,,,,,,
1764669164.300608,2432,0,4399.487305,4419.230957,4536.282227,4562.179688,4414.487305,4536.794922,4562.179688,4406.666504,4589.871582,4400.256348,4503.461426,4526.025879,4586.666504,4413.974121,4401.025879,4541.153809,4562.94873,4576.282227,4545.512695,4417.692383,4425.512695,4584.743652,4537.94873,4511.153809,4393.589844,4584.358887,4400.897461,4578.077148,4521.153809,4418.333496,4545.128418,4497.563965,2865,0,5,2569,42962,,,,0,4,4,4,4,4,4,4,4,4,4,4,4,4,4,4,4,4,4,4,4,4,4,4,4,4,4,4,4,4,4,4,4,100,,,,,,,,,,,,,,,,,,,,,,,,,,,,,,,,,,,,,,,,,,,,,,,,,,,,,,,,,,,,,,,,,,,,,,,,,,,,,,,,,,,,,,,,,,,,,,,,,,,,,,,,,,,,,,,,,,,,,,,,,,,,,,,,,,,,,,,,,,,,,,,,,,,,,,,,,,,,,,,,,,,,,,,,,,,,,,,,,,,,,,,,,,,,,,,,,,,,,,,,,,,,,,
1764669164.304514,2433,0,4387.94873,4408.717773,4527.179688,4547.563965,4392.307617,4523.717773,4549.358887,4393.205078,4585.256348,4399.487305,4496.025879,4515.641113,4580.256348,4404.615234,4385.769043,4530.128418,4552.307617,4562.820313,4535.897461,4407.94873,4418.205078,4572.94873,4523.974121,4500.384766,4422.820313,4576.666504,4382.820313,4562.307617,4512.563965,4401.538574,4535.256348,4493.205078,2972,0,5,2569,42962,,,,0,4,4,4,4,4,4,4,4,4,4,4,4,4,4,4,4,4,4,4,4,4,4,4,4,4,4,4,4,4,4,4,4,100,,,,,,,,,,,,,,,,,,,,,,,,,,,,,,,,,,,16992,0,0.631194,-0.305969,-0.316101,0.638794,0.999634,-0.012209,-0.035161,16.5,38.833332,-24.333334,,,,,,,,,,,,,,,,,,,,,,,,,,,,,,,,,,,,,,,,,,,,,,,,,,,,,,,,,,,,,,,,,,,,,,,,,,,,,,,,,,,,,,,,,,,,,,,,,,,,,,,,,,,,,,,,,,,,,,,,,,,,,,,,,,,,,,,,,,,,,,,,,,,,,,,,,,,,,,,,
1764669164.308420,2434,0,4371.538574,4392.820313,4516.538574,4523.461426,4370.512695,4506.666504,4531.922852,4373.717773,4573.077148,4398.205078,4485.128418,4499.743652,4569.487305,4392.94873,4369.487305,4509.487305,4536.025879,4537.436035,4512.05127,4386.282227,4399.358887,4557.436035,4505.641113,4484.487305,4444.743652,4566.025879,4363.205078,4540,4501.025879,4383.717773,4520.641113,4490.897461,2741,0,5,2570,42970,,,,0,4,4,4,4,4,4,4,4,4,4,4,4,4,4,4,4,4,4,4,4,4,4,4,4,4,4,4,4,4,4,4,4,100,,,,,,,,,,,,,,,,,,,,,,,,,,,,,,,,,,,,,,,,,,,,,,,,,,,,,,,,,,,,,,,,,,,,,,,,,,,,,,,,,,,,,,,,,,,,,,,,,,,,,,,,,,,,,,,,,,,,,,,,,,,,,,,,,,,,,,,,,,,,,,,,,,,,,,,,,,,,,,,,,,,,,,,,,,,,,,,,,,,,,,,,,,,,,,,,,,,,,,,,,,,,,,
1764669164.312326,2435,0,4359.487305,4379.615234,4510.769043,4504.102539,4359.743652,4494.358887,4519.743652,4358.717773,4560.897461,4395.769043,4477.692383,4487.179688,4559.358887,4383.846191,4360.128418,4489.358887,4522.692383,4512.820313,4485.641113,4364.487305,4377.692383,4546.538574,4493.717773,4471.410156,4439.230957,4558.461426,4353.717773,4523.717773,4492.563965,4373.333496,4508.974121,4495.384766,2917,0,5,2570,42970,,,,0,4,4,4,4,4,4,4,4,4,4,4,4,4,4,4,4,4,4,4,4,4,4,4,4,4,4,4,4,4,4,4,4,100,,,,,,,,,,,,,,,,,,,,,,,,,,,,,,,,,,,,,,,,,,,,,,,,,,,,,,,,,,,,,,,,,,,,,,,,,,,,,,,,,,,,,,,,,,,,,,,,,,,,,,,,,,,,,,,,,,,,,,,,,,,,,,,,,,,,,,,,,,,,,,,,,,,,,,,,,,,,,,,,,,,,,,,,,,,,,,,,,,,,,,,,,,,,,,,,,,,,,,,,,,,,,,
1764669164.316232,2436,0,4357.179688,4375,4510.128418,4499.102539,4363.205078,4492.05127,4518.589844,4355.256348,4556.153809,4391.666504,4477.307617,4484.487305,4554.230957,4379.358887,4359.871582,4479.102539,4518.589844,4500.769043,4471.153809,4353.974121,4364.102539,4545.384766,4494.358887,4467.436035,4401.794922,4556.282227,4359.743652,4522.307617,4491.153809,4372.05127,4503.589844,4504.871582,2804,0,5,2568,42977,,,,0,4,4,4,4,4,4,4,4,4,4,4,4,4,4,4,4,4,4,4,4,4,4,4,4,4,4,4,4,4,4,4,4,100,,,,,,,,,,,,,,,,,,,,,,,,,,,,,,,,,,,,,,,,,,,,,,,,,,,,,,,,,,,,,,,,,,,,,,,,,,,,,,,,,,,,,,,,,,,,,,,,,,,,,,,,,,,,,,,,,,,,,,,,,,,,,,,,,,,,,,,,,,,,,,,,,,,,,,,,,,,,,,,,,,,,,,,,,,,,,,,,,,,,,,,,,,,,,,,,,,,,,,,,,,,,,,
1764669164.320138,2437,0,4364.871582,4380.128418,4510.256348,4508.589844,4374.871582,4499.615234,4527.436035,4364.358887,4561.410156,4388.974121,4482.692383,4492.179688,4555.641113,4380,4366.025879,4483.205078,4524.615234,4506.538574,4476.282227,4359.743652,4366.282227,4553.974121,4506.666504,4473.974121,4352.692383,4559.358887,4377.436035,4535.641113,4496.794922,4376.666504,4503.974121,4512.436035,2897,0,5,2568,42977,,,,0,4,4,4,4,4,4,4,4,4,4,4,4,4,4,4,4,4,4,4,4,4,4,4,4,4,4,4,4,4,4,4,4,100,,,,,,,,,,,,,,,,,,,,,,,,,,,,,,,,,,,16993,0,0.631225,-0.305969,-0.316162,0.638733,1.001587,-0.007813,-0.030765,18.166666,39.5,-26.333334,,,,,,,,,,,,,,,,,,,,,,,,,,,,,,,,,,,,,,,,,,,,,,,,,,,,,,,,,,,,,,,,,,,,,,,,,,,,,,,,,,,,,,,,,,,,,,,,,,,,,,,,,,,,,,,,,,,,,,,,,,,,,,,,,,,,,,,,,,,,,,,,,,,,,,,,,,,,,,,,
1764669164.324044,2438,0,4378.205078,4393.077148,4508.077148,4525.128418,4386.922852,4512.94873,4541.153809,4381.282227,4573.077148,4392.692383,4490.512695,4506.153809,4563.717773,4385.256348,4374.871582,4499.487305,4538.205078,4526.666504,4497.820313,4377.563965,4383.205078,4568.589844,4523.846191,4487.563965,4325.897461,4566.025879,4396.538574,4556.794922,4506.666504,4384.487305,4508.846191,4511.153809,2871,0,5,2564,42985,,,,0,4,4,4,4,4,4,4,4,4,4,4,4,4,4,4,4,4,4,4,4,4,4,4,4,4,4,4,4,4,4,4,4,100,,,,,,,,,,,,,,,,,,,,,,,,,,,,,,,,,,,,,,,,,,,,,,,,,,,,,,,,,,,,,,,,,,,,,,,,,,,,,,,,,,,,,,,,,,,,,,,,,,,,,,,,,,,,,,,,,,,,,,,,,,,,,,,,,,,,,,,,,,,,,,,,,,,,,,,,,,,,,,,,,,,,,,,,,,,,,,,,,,,,,,,,,,,,,,,,,,,,,,,,,,,,,,
