Timestamp,EEG.Counter,EEG.Interpolated,EEG.Cz,EEG.Fz,EEG.Fp1,EEG.F7,EEG.F3,EEG.FC1,EEG.C3,EEG.FC5,EEG.FT9,EEG.T7,EEG.CP5,EEG.CP1,EEG.P3,EEG.P7,EEG.PO9,EEG.O1,EEG.Pz,EEG.Oz,EEG.O2,EEG.PO10,EEG.P8,EEG.P4,EEG.CP2,EEG.CP6,EEG.T8,EEG.FT10,EEG.FC6,EEG.C4,EEG.FC2,EEG.F4,EEG.F8,EEG.Fp2,EEG.RawCq,EEG.Battery,EEG.BatteryPercent,EEG.FwBufferSize,EEG.FwClockTime,MarkerIndex,MarkerType,MarkerValueInt,EEG.MarkerHardware,CQ.Cz,CQ.Fz,CQ.Fp1,CQ.F7,CQ.F3,CQ.FC1,CQ.C3,CQ.FC5,CQ.FT9,CQ.T7,CQ.CP5,CQ.CP1,CQ.P3,CQ.P7,CQ.PO9,CQ.O1,CQ.Pz,CQ.Oz,CQ.O2,CQ.PO10,CQ.P8,CQ.P4,CQ.CP2,CQ.CP6,CQ.T8,CQ.FT10,CQ.FC6,CQ.C4,CQ.FC2,CQ.F4,CQ.F8,CQ.Fp2,CQ.Overall,EQ.SampleRateQuality,EQ.OVERALL,EQ.Cz,EQ.Fz,EQ.Fp1,EQ.F7,EQ.F3,EQ.FC1,EQ.C3,EQ.FC5,EQ.FT9,EQ.T7,EQ.CP5,EQ.CP1,EQ.P3,EQ.P7,EQ.PO9,EQ.O1,EQ.Pz,EQ.Oz,EQ.O2,EQ.PO10,EQ.P8,EQ.P4,EQ.CP2,EQ.CP6,EQ.T8,EQ.FT10,EQ.FC6,EQ.C4,EQ.FC2,EQ.F4,EQ.F8,EQ.Fp2,MOT.CounterMems,MOT.InterpolatedMems,MOT.Q0,MOT.Q1,MOT.Q2,MOT.Q3,MOT.AccX,MOT.AccY,MOT.AccZ,MOT.MagX,MOT.MagY,MOT.MagZ,POW.Cz.Theta,POW.Cz.Alpha,POW.Cz.BetaL,POW.Cz.BetaH,POW.Cz.Gamma,POW.Fz.Theta,POW.Fz.Alpha,POW.Fz.BetaL,POW.Fz.BetaH,POW.Fz.Gamma,POW.Fp1.Theta,POW.Fp1.Alpha,POW.Fp1.BetaL,POW.Fp1.BetaH,POW.Fp1.Gamma,POW.F7.Theta,POW.F7.Alpha,POW.F7.BetaL,POW.F7.BetaH,POW.F7.Gamma,POW.F3.Theta,POW.F3.Alpha,POW.F3.BetaL,POW.F3.BetaH,POW.F3.Gamma,POW.FC1.Theta,POW.FC1.Alpha,POW.FC1.BetaL,POW.FC1.BetaH,POW.FC1.Gamma,POW.C3.Theta,POW.C3.Alpha,POW.C3.BetaL,POW.C3.BetaH,POW.C3.Gamma,POW.FC5.Theta,POW.FC5.Alpha,POW.FC5.BetaL,POW.FC5.BetaH,POW.FC5.Gamma,POW.FT9.Theta,POW.FT9.Alpha,POW.FT9.BetaL,POW.FT9.BetaH,POW.FT9.Gamma,POW.T7.Theta,POW.T7.Alpha,POW.T7.BetaL,POW.T7.BetaH,POW.T7.Gamma,POW.CP5.Theta,POW.CP5.Alpha,POW.CP5.BetaL,POW.CP5.BetaH,POW.CP5.Gamma,POW.CP1.Theta,POW.CP1.Alpha,POW.CP1.BetaL,POW.CP1.BetaH,POW.CP1.Gamma,POW.P3.Theta,POW.P3.Alpha,POW.P3.BetaL,POW.P3.BetaH,POW.P3.Gamma,POW.P7.Theta,POW.P7.Alpha,POW.P7.BetaL,POW.P7.BetaH,POW.P7.Gamma,POW.PO9.Theta,POW.PO9.Alpha,POW.PO9.BetaL,POW.PO9.BetaH,POW.PO9.Gamma,POW.O1.Theta,POW.O1.Alpha,POW.O1.BetaL,POW.O1.BetaH,POW.O1.Gamma,POW.Pz.Theta,POW.Pz.Alpha,POW.Pz.BetaL,POW.Pz.BetaH,POW.Pz.Gamma,POW.Oz.Theta,POW.Oz.Alpha,POW.Oz.BetaL,POW.Oz.BetaH,POW.Oz.Gamma,POW.O2.Theta,POW.O2.Alpha,POW.O2.BetaL,POW.O2.BetaH,POW.O2.Gamma,POW.PO10.Theta,POW.PO10.Alpha,POW.PO10.BetaL,POW.PO10.BetaH,POW.PO10.Gamma,POW.P8.Theta,POW.P8.Alpha,POW.P8.BetaL,POW.P8.BetaH,POW.P8.Gamma,POW.P4.Theta,POW.P4.Alpha,POW.P4.BetaL,POW.P4.BetaH,POW.P4.Gamma,POW.CP2.Theta,POW.CP2.Alpha,POW.CP2.BetaL,POW.CP2.BetaH,POW.CP2.Gamma,POW.CP6.Theta,POW.CP6.Alpha,POW.CP6.BetaL,POW.CP6.BetaH,POW.CP6.Gamma,POW.T8.Theta,POW.T8.Alpha,POW.T8.BetaL,POW.T8.BetaH,POW.T8.Gamma,POW.FT10.Theta,POW.FT10.Alpha,POW.FT10.BetaL,POW.FT10.BetaH,POW.FT10.Gamma,POW.FC6.Theta,POW.FC6.Alpha,POW.FC6.BetaL,POW.FC6.BetaH,POW.FC6.Gamma,POW.C4.Theta,POW.C4.Alpha,POW.C4.BetaL,POW.C4.BetaH,POW.C4.Gamma,POW.FC2.Theta,POW.FC2.Alpha,POW.FC2.BetaL,POW.FC2.BetaH,POW.FC2.Gamma,POW.F4.Theta,POW.F4.Alpha,POW.F4.BetaL,POW.F4.BetaH,POW.F4.Gamma,POW.F8.Theta,POW.F8.Alpha,POW.F8.BetaL,POW.F8.BetaH,POW.F8.Gamma,POW.Fp2.Theta,POW.Fp2.Alpha,POW.Fp2.BetaL,POW.Fp2.BetaH,POW.Fp2.Gamma
1763976072.664291,37690.0,0.0,4288.077148,4296.410156,4541.666504,4458.333496,4336.282227,4448.589844,4459.358887,4271.282227,4490.641113,4370.641113,4454.871582,4408.846191,4453.974121,4159.358887,4185.384766,4283.461426,4420.0,4347.436035,4328.589844,4253.333496,4171.538574,4476.794922,4418.461426,4426.410156,4318.205078,4448.846191,4269.871582,4463.333496,4428.205078,4307.820313,4427.563965,4502.307617,2771.0,0.0,10.0,256.0,23561.0,5.0,1.0,7.0,0.0,4.0,4.0,4.0,4.0,4.0,4.0,4.0,4.0,4.0,4.0,4.0,4.0,4.0,4.0,4.0,4.0,4.0,4.0,4.0,4.0,4.0,4.0,4.0,4.0,4.0,4.0,4.0,4.0,4.0,4.0,4.0,4.0,100.0,,,,,,,,,,,,,,,,,,,,,,,,,,,,,,,,,,,,,,,,,,,,,,,,,,,,,,,,,,,,,,,,,,,,,,,,,,,,,,,,,,,,,,,,,,,,,,,,,,,,,,,,,,,,,,,,,,,,,,,,,,,,,,,,,,,,,,,,,,,,,,,,,,,,,,,,,,,,,,,,,,,,,,,,,,,,,,,,,,,,,,,,,,,,,,,,,,,,,,,,,,,,,,
1763976072.668197,37691.0,0.0,4353.461426,4364.743652,4609.230957,4527.179688,4396.410156,4503.333496,4529.871582,4339.487305,4547.820313,4403.589844,4512.179688,4471.410156,4515.384766,4237.692383,4248.717773,4351.153809,4474.487305,4393.205078,4348.717773,4320.256348,4218.333496,4511.666504,4483.717773,4497.692383,4357.94873,4521.922852,4369.743652,4538.717773,4493.846191,4382.820313,4516.538574,4573.974121,3004.0,0.0,10.0,256.0,23561.0,,,,0.0,4.0,4.0,4.0,4.0,4.0,4.0,4.0,4.0,4.0,4.0,4.0,4.0,4.0,4.0,4.0,4.0,4.0,4.0,4.0,4.0,4.0,4.0,4.0,4.0,4.0,4.0,4.0,4.0,4.0,4.0,4.0,4.0,100.0,,,,,,,,,,,,,,,,,,,,,,,,,,,,,,,,,,,,,,,,,,,,,,,,,,,,,,,,,,,,,,,,,,,,,,,,,,,,,,,,,,,,,,,,,,,,,,,,,,,,,,,,,,,,,,,,,,,,,,,,,,,,,,,,,,,,,,,,,,,,,,,,,,,,,,,,,,,,,,,,,,,,,,,,,,,,,,,,,,,,,,,,,,,,,,,,,,,,,,,,,,,,,,
1763976072.672103,37692.0,0.0,4401.794922,4417.820313,4660.128418,4592.05127,4443.205078,4543.333496,4575.384766,4423.205078,4618.461426,4416.025879,4539.230957,4518.461426,4559.102539,4317.436035,4319.871582,4413.974121,4520.0,4447.94873,4394.615234,4381.410156,4323.461426,4538.974121,4527.179688,4519.615234,4380.0,4577.692383,4438.589844,4583.717773,4538.846191,4438.205078,4580.897461,4634.615234,1461.0,0.0,10.0,256.0,23569.0,,,,0.0,4.0,4.0,4.0,4.0,4.0,4.0,4.0,4.0,4.0,4.0,4.0,4.0,4.0,4.0,4.0,4.0,4.0,4.0,4.0,4.0,4.0,4.0,4.0,4.0,4.0,4.0,4.0,4.0,4.0,4.0,4.0,4.0,100.0,,,,,,,,,,,,,,,,,,,,,,,,,,,,,,,,,,,,,,,,,,,,,,,,,,,,,,,,,,,,,,,,,,,,,,,,,,,,,,,,,,,,,,,,,,,,,,,,,,,,,,,,,,,,,,,,,,,,,,,,,,,,,,,,,,,,,,,,,,,,,,,,,,,,,,,,,,,,,,,,,,,,,,,,,,,,,,,,,,,,,,,,,,,,,,,,,,,,,,,,,,,,,,
1763976072.676009,37693.0,0.0,4412.563965,4434.230957,4673.846191,4623.846191,4458.846191,4552.820313,4578.974121,4479.871582,4662.94873,4393.589844,4523.333496,4529.871582,4564.102539,4359.358887,4363.205078,4442.179688,4535.128418,4483.589844,4439.230957,4407.820313,4415.128418,4545.641113,4533.077148,4490.384766,4375.641113,4594.230957,4449.230957,4585.384766,4546.922852,4452.563965,4596.153809,4657.563965,2641.0,0.0,10.0,256.0,23569.0,,,,0.0,4.0,4.0,4.0,4.0,4.0,4.0,4.0,4.0,4.0,4.0,4.0,4.0,4.0,4.0,4.0,4.0,4.0,4.0,4.0,4.0,4.0,4.0,4.0,4.0,4.0,4.0,4.0,4.0,4.0,4.0,4.0,4.0,100.0,,,,,,,,,,,,,,,,,,,,,,,,,,,,,,,,,,,9423.0,0.0,0.242569,0.772095,0.487488,0.327698,0.932731,-0.384813,-0.087901,36.666668,-21.0,32.5,,,,,,,,,,,,,,,,,,,,,,,,,,,,,,,,,,,,,,,,,,,,,,,,,,,,,,,,,,,,,,,,,,,,,,,,,,,,,,,,,,,,,,,,,,,,,,,,,,,,,,,,,,,,,,,,,,,,,,,,,,,,,,,,,,,,,,,,,,,,,,,,,,,,,,,,,,,,,,,,
1763976072.679815,37694.0,0.0,4398.974121,4426.282227,4665.641113,4625.897461,4453.717773,4543.333496,4560.641113,4495.256348,4670.128418,4355.897461,4485.384766,4518.717773,4547.05127,4369.871582,4376.153809,4443.717773,4529.743652,4498.974121,4472.179688,4406.025879,4454.230957,4539.743652,4519.743652,4451.410156,4361.666504,4582.692383,4419.615234,4565.384766,4534.743652,4440.769043,4577.820313,4652.436035,3037.0,0.0,10.0,256.0,23577.0,,,,0.0,4.0,4.0,4.0,4.0,4.0,4.0,4.0,4.0,4.0,4.0,4.0,4.0,4.0,4.0,4.0,4.0,4.0,4.0,4.0,4.0,4.0,4.0,4.0,4.0,4.0,4.0,4.0,4.0,4.0,4.0,4.0,4.0,100.0,,,,,,,,,,,,,,,,,,,,,,,,,,,,,,,,,,,,,,,,,,,,,,,,,,,,,,,,,,,,,,,,,,,,,,,,,,,,,,,,,,,,,,,,,,,,,,,,,,,,,,,,,,,,,,,,,,,,,,,,,,,,,,,,,,,,,,,,,,,,,,,,,,,,,,,,,,,,,,,,,,,,,,,,,,,,,,,,,,,,,,,,,,,,,,,,,,,,,,,,,,,,,,
1763976072.683721,37695.0,0.0,4391.025879,4422.436035,4665.897461,4623.717773,4451.666504,4539.487305,4555.0,4486.025879,4660.384766,4340.128418,4463.974121,4513.589844,4541.922852,4376.282227,4379.102539,4446.922852,4529.102539,4509.487305,4497.307617,4401.922852,4448.974121,4538.974121,4517.436035,4449.743652,4366.666504,4573.461426,4392.307617,4556.410156,4531.794922,4434.102539,4561.794922,4648.461426,2906.0,0.0,10.0,256.0,23577.0,,,,0.0,4.0,4.0,4.0,4.0,4.0,4.0,4.0,4.0,4.0,4.0,4.0,4.0,4.0,4.0,4.0,4.0,4.0,4.0,4.0,4.0,4.0,4.0,4.0,4.0,4.0,4.0,4.0,4.0,4.0,4.0,4.0,4.0,100.0,,,,,,,,,,,,,,,,,,,,,,,,,,,,,,,,,,,,,,,,,,,,,,,,,,,,,,,,,,,,,,,,,,,,,,,,,,,,,,,,,,,,,,,,,,,,,,,,,,,,,,,,,,,,,,,,,,,,,,,,,,,,,,,,,,,,,,,,,,,,,,,,,,,,,,,,,,,,,,,,,,,,,,,,,,,,,,,,,,,,,,,,,,,,,,,,,,,,,,,,,,,,,,
1763976072.687527,37696.0,0.0,4403.717773,4435.897461,4684.871582,4632.692383,4463.077148,4552.436035,4577.820313,4474.230957,4657.05127,4366.666504,4482.820313,4528.077148,4564.230957,4386.794922,4383.846191,4464.230957,4545.769043,4522.179688,4514.871582,4406.025879,4424.102539,4551.153809,4536.666504,4497.436035,4402.94873,4583.974121,4395.512695,4571.666504,4548.846191,4446.666504,4568.077148,4660.769043,2854.0,0.0,10.0,256.0,23584.0,,,,0.0,4.0,4.0,4.0,4.0,4.0,4.0,4.0,4.0,4.0,4.0,4.0,4.0,4.0,4.0,4.0,4.0,4.0,4.0,4.0,4.0,4.0,4.0,4.0,4.0,4.0,4.0,4.0,4.0,4.0,4.0,4.0,4.0,100.0,,,,,,,,,,,,,,,,,,,,,,,,,,,,,,,,,,,,,,,,,,,,,,,,,,,,,,,,,,,,,,,,,,,,,,,,,,,,,,,,,,,,,,,,,,,,,,,,,,,,,,,,,,,,,,,,,,,,,,,,,,,,,,,,,,,,,,,,,,,,,,,,,,,,,,,,,,,,,,,,,,,,,,,,,,,,,,,,,,,,,,,,,,,,,,,,,,,,,,,,,,,,,,
1763976072.691433,37697.0,0.0,4416.922852,4444.358887,4696.025879,4633.589844,4468.717773,4563.846191,4602.563965,4456.922852,4654.487305,4413.461426,4519.743652,4540.641113,4588.333496,4381.410156,4376.922852,4475.769043,4559.615234,4520.384766,4511.410156,4396.922852,4391.666504,4561.153809,4550.384766,4547.820313,4442.692383,4594.871582,4412.436035,4586.794922,4560.897461,4456.153809,4576.538574,4667.94873,2953.0,0.0,10.0,256.0,23584.0,,,,0.0,4.0,4.0,4.0,4.0,4.0,4.0,4.0,4.0,4.0,4.0,4.0,4.0,4.0,4.0,4.0,4.0,4.0,4.0,4.0,4.0,4.0,4.0,4.0,4.0,4.0,4.0,4.0,4.0,4.0,4.0,4.0,4.0,100.0,,,,,,,,,,,,,,,,,,,,,,,,,,,,,,,,,,,9424.0,0.0,0.242324,0.773682,0.485046,0.327759,0.971798,-0.431205,-0.087901,35.833332,-22.166666,33.666668,,,,,,,,,,,,,,,,,,,,,,,,,,,,,,,,,,,,,,,,,,,,,,,,,,,,,,,,,,,,,,,,,,,,,,,,,,,,,,,,,,,,,,,,,,,,,,,,,,,,,,,,,,,,,,,,,,,,,,,,,,,,,,,,,,,,,,,,,,,,,,,,,,,,,,,,,,,,,,,,
1763976072.695438,37698.0,0.0,4387.820313,4406.922852,4655.897461,4587.05127,4433.846191,4537.563965,4575.641113,4407.307617,4618.589844,4425.512695,4511.538574,4508.205078,4562.05127,4340.641113,4335.384766,4451.538574,4531.410156,4480.256348,4469.871582,4344.102539,4354.358887,4540.769043,4511.922852,4522.692383,4428.461426,4562.179688,4390.512695,4554.871582,4525.128418,4419.487305,4542.05127,4628.846191,2294.0,0.0,10.0,512.0,23592.0,,,,0.0,4.0,4.0,4.0,4.0,4.0,4.0,4.0,4.0,4.0,4.0,4.0,4.0,4.0,4.0,4.0,4.0,4.0,4.0,4.0,4.0,4.0,4.0,4.0,4.0,4.0,4.0,4.0,4.0,4.0,4.0,4.0,4.0,100.0,,,,,,,,,,,,,,,,,,,,,,,,,,,,,,,,,,,,,,,,,,,,,,,,,,,,,,,,,,,,,,,,,,,,,,,,,,,,,,,,,,,,,,,,,,,,,,,,,,,,,,,,,,,,,,,,,,,,,,,,,,,,,,,,,,,,,,,,,,,,,,,,,,,,,,,,,,,,,,,,,,,,,,,,,,,,,,,,,,,,,,,,,,,,,,,,,,,,,,,,,,,,,,
1763976072.699344,37699.0,0.0,4297.692383,4311.025879,4553.974121,4483.077148,4349.358887,4460.256348,4470.897461,4314.230957,4529.871582,4362.436035,4415.384766,4413.333496,4460.0,4277.307617,4259.487305,4389.743652,4445.769043,4402.820313,4392.05127,4247.94873,4318.077148,4480.0,4406.666504,4388.974121,4327.436035,4468.461426,4298.205078,4456.153809,4428.077148,4322.563965,4446.922852,4531.538574,2969.0,0.0,10.0,512.0,23592.0,,,,0.0,4.0,4.0,4.0,4.0,4.0,4.0,4.0,4.0,4.0,4.0,4.0,4.0,4.0,4.0,4.0,4.0,4.0,4.0,4.0,4.0,4.0,4.0,4.0,4.0,4.0,4.0,4.0,4.0,4.0,4.0,4.0,4.0,100.0,,,,,,,,,,,,,,,,,,,,,,,,,,,,,,,,,,,,,,,,,,,,,,,,,,,,,,,,,,,,,,,,,,,,,,,,,,,,,,,,,,,,,,,,,,,,,,,,,,,,,,,,,,,,,,,,,,,,,,,,,,,,,,,,,,,,,,,,,,,,,,,,,,,,,,,,,,,,,,,,,,,,,,,,,,,,,,,,,,,,,,,,,,,,,,,,,,,,,,,,,,,,,,
1763976072.70325,37700.0,0.0,4188.846191,4204.358887,4442.820313,4373.717773,4258.846191,4370.769043,4337.179688,4217.307617,4426.538574,4247.94873,4272.94873,4300.897461,4329.487305,4233.717773,4187.179688,4328.974121,4343.333496,4327.436035,4309.743652,4157.179688,4292.05127,4409.871582,4288.461426,4217.563965,4182.307617,4360.897461,4178.589844,4338.846191,4319.102539,4214.358887,4340.0,4425.641113,3039.0,0.0,10.0,768.0,23600.0,,,,0.0,4.0,4.0,4.0,4.0,4.0,4.0,4.0,4.0,4.0,4.0,4.0,4.0,4.0,4.0,4.0,4.0,4.0,4.0,4.0,4.0,4.0,4.0,4.0,4.0,4.0,4.0,4.0,4.0,4.0,4.0,4.0,4.0,100.0,,,,,,,,,,,,,,,,,,,,,,,,,,,,,,,,,,,,,,,,,,,,,,,,,,,,,,,,,,,,,,,,,,,,,,,,,,,,,,,,,,,,,,,,,,,,,,,,,,,,,,,,,,,,,,,,,,,,,,,,,,,,,,,,,,,,,,,,,,,,,,,,,,,,,,,,,,,,,,,,,,,,,,,,,,,,,,,,,,,,,,,,,,,,,,,,,,,,,,,,,,,,,,
1763976072.707156,37701.0,0.0,4143.333496,4166.666504,4405.256348,4341.025879,4231.666504,4338.205078,4275.512695,4187.05127,4385.769043,4162.692383,4197.05127,4254.615234,4268.589844,4243.974121,4167.820313,4316.153809,4299.743652,4306.025879,4267.94873,4134.871582,4279.358887,4384.871582,4247.820313,4143.589844,4094.871826,4322.563965,4126.538574,4292.692383,4280.769043,4177.563965,4306.666504,4391.922852,2371.0,0.0,10.0,768.0,23600.0,,,,0.0,4.0,4.0,4.0,4.0,4.0,4.0,4.0,4.0,4.0,4.0,4.0,4.0,4.0,4.0,4.0,4.0,4.0,4.0,4.0,4.0,4.0,4.0,4.0,4.0,4.0,4.0,4.0,4.0,4.0,4.0,4.0,4.0,100.0,,,,,,,,,,,,,,,,,,,,,,,,,,,,,,,,,,,9425.0,0.0,0.241989,0.774475,0.48407,0.327576,0.973263,-0.455134,-0.071786,36.333332,-21.833334,32.833332,,,,,,,,,,,,,,,,,,,,,,,,,,,,,,,,,,,,,,,,,,,,,,,,,,,,,,,,,,,,,,,,,,,,,,,,,,,,,,,,,,,,,,,,,,,,,,,,,,,,,,,,,,,,,,,,,,,,,,,,,,,,,,,,,,,,,,,,,,,,,,,,,,,,,,,,,,,,,,,,
1763976072.711062,37702.0,0.0,4209.102539,4237.05127,4479.230957,4420.256348,4298.717773,4398.461426,4350.256348,4257.563965,4451.410156,4176.666504,4270.128418,4323.333496,4340.769043,4301.153809,4216.538574,4362.05127,4358.846191,4356.666504,4291.025879,4202.307617,4273.846191,4433.846191,4330.384766,4245.641113,4140.897461,4393.974121,4200.128418,4368.846191,4354.102539,4251.794922,4386.794922,4466.922852,3021.0,0.0,10.0,1024.0,23608.0,,,,0.0,4.0,4.0,4.0,4.0,4.0,4.0,4.0,4.0,4.0,4.0,4.0,4.0,4.0,4.0,4.0,4.0,4.0,4.0,4.0,4.0,4.0,4.0,4.0,4.0,4.0,4.0,4.0,4.0,4.0,4.0,4.0,4.0,100.0,,,,,,,,,,,,,,,,,,,,,,,,,,,,,,,,,,,,,,,,,,,,,,,,,,,,,,,,,,,,,,,,,,,,,,,,,,,,,,,,,,,,,,,,,,,,,,,,,,,,,,,,,,,,,,,,,,,,,,,,,,,,,,,,,,,,,,,,,,,,,,,,,,,,,,,,,,,,,,,,,,,,,,,,,,,,,,,,,,,,,,,,,,,,,,,,,,,,,,,,,,,,,,
1763976072.714969,37703.0,0.0,4347.307617,4368.846191,4614.230957,4558.461426,4416.025879,4513.589844,4520.256348,4384.358887,4584.102539,4284.615234,4457.94873,4466.922852,4507.05127,4358.974121,4295.641113,4429.487305,4485.512695,4444.102539,4362.05127,4313.205078,4269.102539,4527.179688,4485.256348,4462.307617,4298.077148,4526.153809,4353.974121,4521.282227,4490.641113,4387.179688,4526.538574,4599.102539,2961.0,0.0,10.0,1024.0,23608.0,,,,0.0,4.0,4.0,4.0,4.0,4.0,4.0,4.0,4.0,4.0,4.0,4.0,4.0,4.0,4.0,4.0,4.0,4.0,4.0,4.0,4.0,4.0,4.0,4.0,4.0,4.0,4.0,4.0,4.0,4.0,4.0,4.0,4.0,100.0,,,,,,,,,,,,,,,,,,,,,,,,,,,,,,,,,,,,,,,,,,,,,,,,,,,,,,,,,,,,,,,,,,,,,,,,,,,,,,,,,,,,,,,,,,,,,,,,,,,,,,,,,,,,,,,,,,,,,,,,,,,,,,,,,,,,,,,,,,,,,,,,,,,,,,,,,,,,,,,,,,,,,,,,,,,,,,,,,,,,,,,,,,,,,,,,,,,,,,,,,,,,,,
1763976072.718875,37704.0,0.0,4457.820313,4463.205078,4709.102539,4654.743652,4497.05127,4598.846191,4663.974121,4475.256348,4687.563965,4407.692383,4628.205078,4582.692383,4649.743652,4371.282227,4344.743652,4464.871582,4588.589844,4506.282227,4431.922852,4388.205078,4265.512695,4596.410156,4599.615234,4633.974121,4457.307617,4618.846191,4471.025879,4636.922852,4588.077148,4480.897461,4618.205078,4686.538574,2681.0,0.0,10.0,1280.0,23616.0,,,,0.0,4.0,4.0,4.0,4.0,4.0,4.0,4.0,4.0,4.0,4.0,4.0,4.0,4.0,4.0,4.0,4.0,4.0,4.0,4.0,4.0,4.0,4.0,4.0,4.0,4.0,4.0,4.0,4.0,4.0,4.0,4.0,4.0,100.0,1.0,0.0,0.0,0.0,0.0,0.0,0.0,0.0,0.0,0.0,0.0,0.0,0.0,0.0,0.0,0.0,0.0,0.0,0.0,0.0,0.0,0.0,0.0,1.0,0.0,0.0,0.0,0.0,0.0,0.0,0.0,0.0,0.0,0.0,,,,,,,,,,,,,11.101624,5.690533,25.522963,29.883318,29.626877,17.559542,7.853336,30.013645,29.441919,26.435926,21.616405,10.536515,32.805576,31.643208,27.068455,22.223873,9.73642,34.803413,32.185204,32.761967,10.895572,5.595236,20.265993,22.696554,20.012054,9.917434,4.025309,17.684551,19.823032,20.702572,15.180588,5.934963,29.538912,40.711182,49.037098,18.520782,9.161795,38.430096,43.618069,43.954926,18.482265,8.424148,31.943005,30.65988,34.563465,18.206738,6.888624,21.407001,56.987171,71.049438,13.23662,4.044664,35.877686,65.720901,112.09108,11.016296,4.175077,23.956306,31.718884,32.861851,9.900923,3.963027,26.19017,44.977997,53.44836,2.465851,9.09963,6.586864,13.042316,47.712425,10.801888,8.322365,15.736142,14.617603,11.927958,7.11234,14.982381,18.291815,14.971162,26.341244,7.476875,3.697731,19.018278,26.06815,22.999334,4.753345,7.658845,18.974033,18.955761,18.063004,6.447014,8.543554,26.325874,20.143158,29.274481,25.380281,28.643423,31.683153,22.477749,18.851393,10.573156,16.280386,29.162174,21.415491,76.341263,7.422883,2.337881,8.971434,11.97696,11.46373,13.040649,6.06867,29.472618,37.512016,34.819138,19.222326,10.56131,45.417934,62.835938,72.664337,24.608522,14.531317,49.42091,57.510674,62.845272,21.179312,19.287899,40.28915,35.579536,28.323963,20.575275,13.087606,47.071049,47.289852,48.992695,15.379631,8.518981,36.950825,44.404793,51.009865,17.525772,7.133194,29.252842,33.173405,31.153315,20.380991,10.877369,35.988811,34.515541,28.655067,22.822689,14.22168,42.288273,38.672474,31.904556,22.101336,11.900061,32.77248,33.104889,25.299561
1763976072.722781,37705.0,0.0,4462.692383,4452.05127,4696.025879,4644.358887,4484.871582,4594.230957,4679.487305,4467.563965,4688.461426,4458.461426,4660.384766,4589.358887,4667.820313,4329.358887,4331.153809,4444.487305,4595.128418,4503.205078,4456.025879,4378.333496,4266.153809,4590.897461,4592.436035,4638.333496,4510.512695,4606.666504,4464.230957,4630.641113,4575.512695,4464.358887,4594.615234,4662.307617,2883.0,0.0,10.0,1280.0,23616.0,,,,0.0,4.0,4.0,4.0,4.0,4.0,4.0,4.0,4.0,4.0,4.0,4.0,4.0,4.0,4.0,4.0,4.0,4.0,4.0,4.0,4.0,4.0,4.0,4.0,4.0,4.0,4.0,4.0,4.0,4.0,4.0,4.0,4.0,100.0,,,,,,,,,,,,,,,,,,,,,,,,,,,,,,,,,,,9426.0,0.0,0.240557,0.775391,0.483276,0.327637,0.973263,-0.455134,-0.071786,38.0,-22.166666,32.0,,,,,,,,,,,,,,,,,,,,,,,,,,,,,,,,,,,,,,,,,,,,,,,,,,,,,,,,,,,,,,,,,,,,,,,,,,,,,,,,,,,,,,,,,,,,,,,,,,,,,,,,,,,,,,,,,,,,,,,,,,,,,,,,,,,,,,,,,,,,,,,,,,,,,,,,,,,,,,,,
1763976072.726687,37706.0,0.0,4368.205078,4351.922852,4593.589844,4547.94873,4397.179688,4512.05127,4565.641113,4378.589844,4593.974121,4407.692383,4542.820313,4492.05127,4557.820313,4265.384766,4273.077148,4389.487305,4508.333496,4445.512695,4424.871582,4299.230957,4268.461426,4519.743652,4479.230957,4489.230957,4431.410156,4510.128418,4351.025879,4517.05127,4472.05127,4359.358887,4484.487305,4549.358887,2610.0,0.0,10.0,1536.0,23623.0,,,,0.0,4.0,4.0,4.0,4.0,4.0,4.0,4.0,4.0,4.0,4.0,4.0,4.0,4.0,4.0,4.0,4.0,4.0,4.0,4.0,4.0,4.0,4.0,4.0,4.0,4.0,4.0,4.0,4.0,4.0,4.0,4.0,4.0,100.0,,,,,,,,,,,,,,,,,,,,,,,,,,,,,,,,,,,,,,,,,,,,,,,,,,,,,,,,,,,,,,,,,,,,,,,,,,,,,,,,,,,,,,,,,,,,,,,,,,,,,,,,,,,,,,,,,,,,,,,,,,,,,,,,,,,,,,,,,,,,,,,,,,,,,,,,,,,,,,,,,,,,,,,,,,,,,,,,,,,,,,,,,,,,,,,,,,,,,,,,,,,,,,
1763976072.730593,37707.0,0.0,4250.897461,4241.666504,4483.333496,4443.077148,4304.102539,4418.717773,4412.692383,4282.563965,4477.436035,4298.333496,4370.512695,4368.461426,4407.563965,4221.025879,4216.410156,4341.794922,4396.666504,4377.820313,4366.282227,4209.743652,4262.692383,4438.589844,4349.487305,4311.153809,4283.077148,4404.615234,4226.922852,4390.384766,4360.897461,4250.769043,4377.436035,4435.0,2940.0,0.0,10.0,1536.0,23623.0,,,,0.0,4.0,4.0,4.0,4.0,4.0,4.0,4.0,4.0,4.0,4.0,4.0,4.0,4.0,4.0,4.0,4.0,4.0,4.0,4.0,4.0,4.0,4.0,4.0,4.0,4.0,4.0,4.0,4.0,4.0,4.0,4.0,4.0,100.0,,,,,,,,,,,,,,,,,,,,,,,,,,,,,,,,,,,,,,,,,,,,,,,,,,,,,,,,,,,,,,,,,,,,,,,,,,,,,,,,,,,,,,,,,,,,,,,,,,,,,,,,,,,,,,,,,,,,,,,,,,,,,,,,,,,,,,,,,,,,,,,,,,,,,,,,,,,,,,,,,,,,,,,,,,,,,,,,,,,,,,,,,,,,,,,,,,,,,,,,,,,,,,
1763976072.734499,37708.0,0.0,4187.563965,4191.025879,4435.512695,4394.102539,4265.128418,4374.615234,4320.512695,4242.436035,4413.846191,4204.615234,4258.077148,4297.820313,4316.538574,4212.179688,4190.384766,4326.538574,4331.410156,4338.717773,4317.307617,4160.897461,4242.05127,4399.358887,4286.538574,4223.974121,4158.205078,4350.512695,4175.256348,4337.05127,4314.102539,4208.077148,4339.743652,4391.794922,2994.0,0.0,10.0,1792.0,23631.0,,,,0.0,4.0,4.0,4.0,4.0,4.0,4.0,4.0,4.0,4.0,4.0,4.0,4.0,4.0,4.0,4.0,4.0,4.0,4.0,4.0,4.0,4.0,4.0,4.0,4.0,4.0,4.0,4.0,4.0,4.0,4.0,4.0,4.0,100.0,,,,,,,,,,,,,,,,,,,,,,,,,,,,,,,,,,,,,,,,,,,,,,,,,,,,,,,,,,,,,,,,,,,,,,,,,,,,,,,,,,,,,,,,,,,,,,,,,,,,,,,,,,,,,,,,,,,,,,,,,,,,,,,,,,,,,,,,,,,,,,,,,,,,,,,,,,,,,,,,,,,,,,,,,,,,,,,,,,,,,,,,,,,,,,,,,,,,,,,,,,,,,,
1763976072.738405,37709.0,0.0,4197.307617,4209.358887,4457.563965,4406.410156,4286.282227,4389.615234,4322.94873,4262.307617,4424.871582,4176.922852,4253.205078,4302.563965,4320.0,4220.897461,4190.128418,4335.897461,4333.077148,4334.102539,4297.307617,4162.436035,4212.05127,4412.307617,4305.641113,4253.077148,4113.077148,4352.94873,4202.436035,4368.974121,4338.974121,4235.0,4367.692383,4423.846191,2483.0,0.0,10.0,1792.0,23631.0,,,,0.0,4.0,4.0,4.0,4.0,4.0,4.0,4.0,4.0,4.0,4.0,4.0,4.0,4.0,4.0,4.0,4.0,4.0,4.0,4.0,4.0,4.0,4.0,4.0,4.0,4.0,4.0,4.0,4.0,4.0,4.0,4.0,4.0,100.0,,,,,,,,,,,,,,,,,,,,,,,,,,,,,,,,,,,9427.0,0.0,0.239312,0.776001,0.482666,0.328003,0.96252,-0.476621,-0.050299,37.166668,-23.0,32.0,,,,,,,,,,,,,,,,,,,,,,,,,,,,,,,,,,,,,,,,,,,,,,,,,,,,,,,,,,,,,,,,,,,,,,,,,,,,,,,,,,,,,,,,,,,,,,,,,,,,,,,,,,,,,,,,,,,,,,,,,,,,,,,,,,,,,,,,,,,,,,,,,,,,,,,,,,,,,,,,
1763976072.742311,37710.0,0.0,4243.461426,4255.512695,4503.717773,4440.641113,4329.743652,4429.487305,4381.538574,4300.256348,4477.307617,4212.179688,4318.717773,4347.563965,4379.487305,4223.717773,4195.256348,4347.307617,4371.922852,4346.410156,4304.102539,4189.487305,4189.615234,4450.128418,4361.410156,4336.025879,4146.153809,4380.128418,4253.717773,4431.922852,4390.128418,4284.615234,4411.025879,4480.128418,2742.0,0.0,10.0,2048.0,23639.0,,,,0.0,4.0,4.0,4.0,4.0,4.0,4.0,4.0,4.0,4.0,4.0,4.0,4.0,4.0,4.0,4.0,4.0,4.0,4.0,4.0,4.0,4.0,4.0,4.0,4.0,4.0,4.0,4.0,4.0,4.0,4.0,4.0,4.0,100.0,,,,,,,,,,,,,,,,,,,,,,,,,,,,,,,,,,,,,,,,,,,,,,,,,,,,,,,,,,,,,,,,,,,,,,,,,,,,,,,,,,,,,,,,,,,,,,,,,,,,,,,,,,,,,,,,,,,,,,,,,,,,,,,,,,,,,,,,,,,,,,,,,,,,,,,,,,,,,,,,,,,,,,,,,,,,,,,,,,,,,,,,,,,,,,,,,,,,,,,,,,,,,,
1763976072.746217,37711.0,0.0,4279.615234,4286.282227,4529.358887,4460.512695,4357.179688,4456.153809,4435.384766,4317.94873,4524.102539,4266.922852,4382.94873,4385.641113,4433.205078,4222.94873,4198.846191,4351.153809,4407.179688,4361.153809,4328.589844,4213.974121,4190.384766,4479.871582,4401.538574,4396.666504,4218.589844,4405.512695,4278.333496,4467.563965,4421.153809,4313.333496,4430.897461,4511.538574,2956.0,0.0,10.0,2048.0,23639.0,,,,0.0,4.0,4.0,4.0,4.0,4.0,4.0,4.0,4.0,4.0,4.0,4.0,4.0,4.0,4.0,4.0,4.0,4.0,4.0,4.0,4.0,4.0,4.0,4.0,4.0,4.0,4.0,4.0,4.0,4.0,4.0,4.0,4.0,100.0,,,,,,,,,,,,,,,,,,,,,,,,,,,,,,,,,,,,,,,,,,,,,,,,,,,,,,,,,,,,,,,,,,,,,,,,,,,,,,,,,,,,,,,,,,,,,,,,,,,,,,,,,,,,,,,,,,,,,,,,,,,,,,,,,,,,,,,,,,,,,,,,,,,,,,,,,,,,,,,,,,,,,,,,,,,,,,,,,,,,,,,,,,,,,,,,,,,,,,,,,,,,,,
1763976072.750123,37712.0,0.0,4290.0,4291.538574,4528.461426,4464.230957,4359.230957,4459.487305,4453.846191,4313.205078,4543.333496,4298.461426,4402.436035,4398.077148,4450.0,4243.846191,4212.94873,4359.871582,4423.333496,4379.615234,4364.487305,4227.820313,4220.128418,4488.205078,4409.358887,4405.0,4286.666504,4426.922852,4272.820313,4462.05127,4423.333496,4315.512695,4428.846191,4510.512695,2997.0,0.0,10.0,2304.0,23647.0,,,,0.0,4.0,4.0,4.0,4.0,4.0,4.0,4.0,4.0,4.0,4.0,4.0,4.0,4.0,4.0,4.0,4.0,4.0,4.0,4.0,4.0,4.0,4.0,4.0,4.0,4.0,4.0,4.0,4.0,4.0,4.0,4.0,4.0,100.0,,,,,,,,,,,,,,,,,,,,,,,,,,,,,,,,,,,,,,,,,,,,,,,,,,,,,,,,,,,,,,,,,,,,,,,,,,,,,,,,,,,,,,,,,,,,,,,,,,,,,,,,,,,,,,,,,,,,,,,,,,,,,,,,,,,,,,,,,,,,,,,,,,,,,,,,,,,,,,,,,,,,,,,,,,,,,,,,,,,,,,,,,,,,,,,,,,,,,,,,,,,,,,
1763976072.754029,37713.0,0.0,4289.615234,4290.897461,4526.538574,4473.589844,4353.589844,4455.384766,4448.205078,4310.512695,4544.358887,4299.230957,4386.410156,4398.461426,4442.436035,4298.205078,4247.820313,4388.077148,4431.410156,4409.487305,4405.512695,4241.922852,4274.487305,4483.846191,4404.102539,4379.615234,4320.512695,4452.820313,4268.589844,4443.461426,4418.974121,4314.487305,4431.282227,4503.461426,2957.0,0.0,10.0,2304.0,23647.0,,,,0.0,4.0,4.0,4.0,4.0,4.0,4.0,4.0,4.0,4.0,4.0,4.0,4.0,4.0,4.0,4.0,4.0,4.0,4.0,4.0,4.0,4.0,4.0,4.0,4.0,4.0,4.0,4.0,4.0,4.0,4.0,4.0,4.0,100.0,,,,,,,,,,,,,,,,,,,,,,,,,,,,,,,,,,,9428.0,0.0,0.238009,0.776245,0.482544,0.328552,0.947381,-0.506409,-0.02051,37.166668,-23.0,32.0,,,,,,,,,,,,,,,,,,,,,,,,,,,,,,,,,,,,,,,,,,,,,,,,,,,,,,,,,,,,,,,,,,,,,,,,,,,,,,,,,,,,,,,,,,,,,,,,,,,,,,,,,,,,,,,,,,,,,,,,,,,,,,,,,,,,,,,,,,,,,,,,,,,,,,,,,,,,,,,,
1763976072.757935,37714.0,0.0,4300.512695,4305.769043,4547.436035,4503.846191,4361.025879,4463.077148,4448.077148,4330.641113,4548.077148,4296.282227,4376.282227,4409.358887,4441.922852,4359.487305,4293.846191,4430.897461,4447.820313,4448.205078,4441.153809,4266.922852,4336.666504,4481.794922,4411.922852,4356.538574,4313.333496,4483.461426,4292.820313,4445.256348,4431.282227,4330.641113,4456.410156,4517.05127,2842.0,0.0,10.0,1792.0,23655.0,,,,0.0,4.0,4.0,4.0,4.0,4.0,4.0,4.0,4.0,4.0,4.0,4.0,4.0,4.0,4.0,4.0,4.0,4.0,4.0,4.0,4.0,4.0,4.0,4.0,4.0,4.0,4.0,4.0,4.0,4.0,4.0,4.0,4.0,100.0,,,,,,,,,,,,,,,,,,,,,,,,,,,,,,,,,,,,,,,,,,,,,,,,,,,,,,,,,,,,,,,,,,,,,,,,,,,,,,,,,,,,,,,,,,,,,,,,,,,,,,,,,,,,,,,,,,,,,,,,,,,,,,,,,,,,,,,,,,,,,,,,,,,,,,,,,,,,,,,,,,,,,,,,,,,,,,,,,,,,,,,,,,,,,,,,,,,,,,,,,,,,,,
1763976072.761841,37715.0,0.0,4329.615234,4338.974121,4588.974121,4547.307617,4387.05127,4487.179688,4471.922852,4372.692383,4565.512695,4319.487305,4406.538574,4439.487305,4469.102539,4380.769043,4326.025879,4463.717773,4476.282227,4480.128418,4458.846191,4298.846191,4377.563965,4491.153809,4441.410156,4363.974121,4284.871582,4509.358887,4343.589844,4477.563965,4463.589844,4363.205078,4498.205078,4552.820313,3037.0,0.0,10.0,1792.0,23655.0,,,,0.0,4.0,4.0,4.0,4.0,4.0,4.0,4.0,4.0,4.0,4.0,4.0,4.0,4.0,4.0,4.0,4.0,4.0,4.0,4.0,4.0,4.0,4.0,4.0,4.0,4.0,4.0,4.0,4.0,4.0,4.0,4.0,4.0,100.0,,,,,,,,,,,,,,,,,,,,,,,,,,,,,,,,,,,,,,,,,,,,,,,,,,,,,,,,,,,,,,,,,,,,,,,,,,,,,,,,,,,,,,,,,,,,,,,,,,,,,,,,,,,,,,,,,,,,,,,,,,,,,,,,,,,,,,,,,,,,,,,,,,,,,,,,,,,,,,,,,,,,,,,,,,,,,,,,,,,,,,,,,,,,,,,,,,,,,,,,,,,,,,
1763976072.765747,37716.0,0.0,4364.487305,4374.230957,4624.743652,4578.974121,4418.461426,4515.512695,4513.077148,4416.282227,4589.358887,4368.589844,4475.384766,4477.820313,4517.820313,4337.436035,4323.717773,4461.794922,4505.641113,4486.794922,4450.512695,4320.128418,4364.871582,4509.102539,4480.0,4408.846191,4271.153809,4520.897461,4393.333496,4523.333496,4498.974121,4393.333496,4533.461426,4588.333496,3019.0,0.0,10.0,1024.0,23662.0,,,,0.0,4.0,4.0,4.0,4.0,4.0,4.0,4.0,4.0,4.0,4.0,4.0,4.0,4.0,4.0,4.0,4.0,4.0,4.0,4.0,4.0,4.0,4.0,4.0,4.0,4.0,4.0,4.0,4.0,4.0,4.0,4.0,4.0,100.0,,,,,,,,,,,,,,,,,,,,,,,,,,,,,,,,,,,,,,,,,,,,,,,,,,,,,,,,,,,,,,,,,,,,,,,,,,,,,,,,,,,,,,,,,,,,,,,,,,,,,,,,,,,,,,,,,,,,,,,,,,,,,,,,,,,,,,,,,,,,,,,,,,,,,,,,,,,,,,,,,,,,,,,,,,,,,,,,,,,,,,,,,,,,,,,,,,,,,,,,,,,,,,
1763976072.769653,37717.0,0.0,4381.922852,4387.436035,4624.487305,4574.230957,4432.05127,4527.820313,4543.717773,4433.205078,4598.589844,4407.563965,4541.025879,4500.512695,4557.05127,4251.410156,4286.538574,4421.282227,4516.922852,4460.0,4417.179688,4311.794922,4290.0,4523.077148,4502.05127,4469.102539,4296.282227,4514.102539,4406.922852,4552.307617,4513.205078,4398.589844,4536.922852,4594.230957,2934.0,0.0,10.0,1024.0,23662.0,,,,0.0,4.0,4.0,4.0,4.0,4.0,4.0,4.0,4.0,4.0,4.0,4.0,4.0,4.0,4.0,4.0,4.0,4.0,4.0,4.0,4.0,4.0,4.0,4.0,4.0,4.0,4.0,4.0,4.0,4.0,4.0,4.0,4.0,100.0,,,,,,,,,,,,,,,,,,,,,,,,,,,,,,,,,,,9429.0,0.0,0.236142,0.775818,0.483398,0.329651,0.963985,-0.479551,-0.016115,36.5,-20.833334,31.333334,,,,,,,,,,,,,,,,,,,,,,,,,,,,,,,,,,,,,,,,,,,,,,,,,,,,,,,,,,,,,,,,,,,,,,,,,,,,,,,,,,,,,,,,,,,,,,,,,,,,,,,,,,,,,,,,,,,,,,,,,,,,,,,,,,,,,,,,,,,,,,,,,,,,,,,,,,,,,,,,
1763976072.773559,37718.0,0.0,4363.461426,4363.589844,4577.563965,4526.666504,4411.153809,4510.256348,4535.0,4403.461426,4576.025879,4396.794922,4549.230957,4486.153809,4552.05127,4177.563965,4235.0,4362.563965,4496.538574,4409.102539,4369.871582,4269.102539,4185.897461,4518.974121,4486.666504,4501.794922,4348.077148,4490.0,4366.922852,4540.256348,4491.025879,4367.94873,4498.589844,4556.410156,2983.0,0.0,10.0,1280.0,23670.0,,,,0.0,4.0,4.0,4.0,4.0,4.0,4.0,4.0,4.0,4.0,4.0,4.0,4.0,4.0,4.0,4.0,4.0,4.0,4.0,4.0,4.0,4.0,4.0,4.0,4.0,4.0,4.0,4.0,4.0,4.0,4.0,4.0,4.0,100.0,,,,,,,,,,,,,,,,,,,,,,,,,,,,,,,,,,,,,,,,,,,,,,,,,,,,,,,,,,,,,,,,,,,,,,,,,,,,,,,,,,,,,,,,,,,,,,,,,,,,,,,,,,,,,,,,,,,,,,,,,,,,,,,,,,,,,,,,,,,,,,,,,,,,,,,,,,,,,,,,,,,,,,,,,,,,,,,,,,,,,,,,,,,,,,,,,,,,,,,,,,,,,,
1763976072.777465,37719.0,0.0,4312.179688,4310.256348,4505.897461,4458.205078,4361.794922,4467.179688,4482.05127,4332.94873,4525.256348,4331.794922,4480.128418,4434.871582,4494.230957,4163.333496,4196.666504,4316.794922,4448.205078,4357.05127,4328.333496,4209.487305,4112.563965,4493.333496,4434.487305,4473.846191,4384.615234,4456.153809,4290.0,4487.820313,4438.974121,4312.307617,4435.256348,4490.641113,2930.0,0.0,10.0,1280.0,23670.0,,,,0.0,4.0,4.0,4.0,4.0,4.0,4.0,4.0,4.0,4.0,4.0,4.0,4.0,4.0,4.0,4.0,4.0,4.0,4.0,4.0,4.0,4.0,4.0,4.0,4.0,4.0,4.0,4.0,4.0,4.0,4.0,4.0,4.0,100.0,,,,,,,,,,,,,,,,,,,,,,,,,,,,,,,,,,,,,,,,,,,,,,,,,,,,,,,,,,,,,,,,,,,,,,,,,,,,,,,,,,,,,,,,,,,,,,,,,,,,,,,,,,,,,,,,,,,,,,,,,,,,,,,,,,,,,,,,,,,,,,,,,,,,,,,,,,,,,,,,,,,,,,,,,,,,,,,,,,,,,,,,,,,,,,,,,,,,,,,,,,,,,,
1763976072.781371,37720.0,0.0,4254.230957,4256.282227,4451.282227,4407.436035,4311.666504,4421.538574,4413.717773,4256.153809,4472.436035,4252.436035,4370.384766,4372.692383,4413.205078,4216.282227,4189.358887,4304.615234,4394.743652,4328.589844,4312.820313,4164.358887,4116.922852,4457.563965,4371.666504,4391.153809,4368.205078,4424.358887,4219.230957,4421.922852,4383.589844,4260.0,4381.794922,4434.743652,2907.0,0.0,10.0,256.0,23678.0,,,,0.0,4.0,4.0,4.0,4.0,4.0,4.0,4.0,4.0,4.0,4.0,4.0,4.0,4.0,4.0,4.0,4.0,4.0,4.0,4.0,4.0,4.0,4.0,4.0,4.0,4.0,4.0,4.0,4.0,4.0,4.0,4.0,4.0,100.0,,,,,,,,,,,,,,,,,,,,,,,,,,,,,,,,,,,,,,,,,,,,,,,,,,,,,,,,,,,,,,,,,,,,,,,,,,,,,,,,,,,,,,,,,,,,,,,,,,,,,,,,,,,,,,,,,,,,,,,,,,,,,,,,,,,,,,,,,,,,,,,,,,,,,,,,,,,,,,,,,,,,,,,,,,,,,,,,,,,,,,,,,,,,,,,,,,,,,,,,,,,,,,
1763976072.785277,37721.0,0.0,4220.769043,4230.0,4444.230957,4402.307617,4288.846191,4397.820313,4369.871582,4214.871582,4447.436035,4209.230957,4287.436035,4333.717773,4356.410156,4300.897461,4210.769043,4325.0,4363.205078,4335.769043,4330.897461,4159.102539,4200.384766,4430.128418,4330.769043,4296.538574,4295.769043,4403.205078,4190.0,4376.282227,4353.077148,4235.897461,4364.487305,4420.0,2885.0,0.0,10.0,256.0,23678.0,,,,0.0,4.0,4.0,4.0,4.0,4.0,4.0,4.0,4.0,4.0,4.0,4.0,4.0,4.0,4.0,4.0,4.0,4.0,4.0,4.0,4.0,4.0,4.0,4.0,4.0,4.0,4.0,4.0,4.0,4.0,4.0,4.0,4.0,100.0,,,,,,,,,,,,,,,,,,,,,,,,,,,,,,,,,,,9430.0,0.0,0.235833,0.775452,0.483887,0.330017,0.940544,-0.456599,-0.03223,38.333332,-21.0,33.333332,,,,,,,,,,,,,,,,,,,,,,,,,,,,,,,,,,,,,,,,,,,,,,,,,,,,,,,,,,,,,,,,,,,,,,,,,,,,,,,,,,,,,,,,,,,,,,,,,,,,,,,,,,,,,,,,,,,,,,,,,,,,,,,,,,,,,,,,,,,,,,,,,,,,,,,,,,,,,,,,
1763976072.789183,37722.0,0.0,4225.384766,4240.641113,4482.179688,4439.615234,4301.282227,4404.487305,4372.436035,4230.256348,4462.179688,4223.846191,4278.717773,4335.769043,4353.333496,4363.333496,4242.179688,4359.230957,4366.538574,4370.897461,4371.153809,4195.384766,4317.692383,4425.0,4329.230957,4240.769043,4206.922852,4394.871582,4204.743652,4367.05127,4357.563965,4245.0,4381.025879,4448.846191,2821.0,0.0,10.0,256.0,23686.0,,,,0.0,4.0,4.0,4.0,4.0,4.0,4.0,4.0,4.0,4.0,4.0,4.0,4.0,4.0,4.0,4.0,4.0,4.0,4.0,4.0,4.0,4.0,4.0,4.0,4.0,4.0,4.0,4.0,4.0,4.0,4.0,4.0,4.0,100.0,,,,,,,,,,,,,,,,,,,,,,,,,,,,,,,,,,,,,,,,,,,,,,,,,,,,,,,,,,,,,,,,,,,,,,,,,,,,,,,,,,,,,,,,,,,,,,,,,,,,,,,,,,,,,,,,,,,,,,,,,,,,,,,,,,,,,,,,,,,,,,,,,,,,,,,,,,,,,,,,,,,,,,,,,,,,,,,,,,,,,,,,,,,,,,,,,,,,,,,,,,,,,,
1763976072.793089,37723.0,0.0,4259.230957,4276.153809,4535.128418,4492.307617,4335.0,4432.05127,4414.102539,4290.512695,4505.769043,4275.384766,4343.077148,4372.05127,4399.230957,4366.538574,4264.743652,4387.307617,4398.461426,4413.461426,4409.358887,4251.282227,4405.769043,4443.589844,4362.179688,4252.563965,4160.256348,4400.769043,4239.743652,4388.333496,4387.94873,4274.358887,4410.384766,4497.436035,3040.0,0.0,10.0,256.0,23686.0,,,,0.0,4.0,4.0,4.0,4.0,4.0,4.0,4.0,4.0,4.0,4.0,4.0,4.0,4.0,4.0,4.0,4.0,4.0,4.0,4.0,4.0,4.0,4.0,4.0,4.0,4.0,4.0,4.0,4.0,4.0,4.0,4.0,4.0,100.0,,,,,,,,,,,,,,,,,,,,,,,,,,,,,,,,,,,,,,,,,,,,,,,,,,,,,,,,,,,,,,,,,,,,,,,,,,,,,,,,,,,,,,,,,,,,,,,,,,,,,,,,,,,,,,,,,,,,,,,,,,,,,,,,,,,,,,,,,,,,,,,,,,,,,,,,,,,,,,,,,,,,,,,,,,,,,,,,,,,,,,,,,,,,,,,,,,,,,,,,,,,,,,
1763976072.796895,37724.0,0.0,4301.025879,4315.384766,4570.128418,4530.128418,4367.307617,4462.94873,4468.717773,4358.205078,4553.717773,4318.333496,4434.487305,4419.358887,4462.05127,4315.0,4272.436035,4402.692383,4440.128418,4444.102539,4425.384766,4295.384766,4421.282227,4475.512695,4410.0,4322.05127,4188.333496,4422.94873,4271.794922,4424.487305,4426.410156,4307.436035,4435.512695,4535.256348,1431.0,0.0,10.0,256.0,23694.0,,,,0.0,4.0,4.0,4.0,4.0,4.0,4.0,4.0,4.0,4.0,4.0,4.0,4.0,4.0,4.0,4.0,4.0,4.0,4.0,4.0,4.0,4.0,4.0,4.0,4.0,4.0,4.0,4.0,4.0,4.0,4.0,4.0,4.0,100.0,,,,,,,,,,,,,,,,,,,,,,,,,,,,,,,,,,,,,,,,,,,,,,,,,,,,,,,,,,,,,,,,,,,,,,,,,,,,,,,,,,,,,,,,,,,,,,,,,,,,,,,,,,,,,,,,,,,,,,,,,,,,,,,,,,,,,,,,,,,,,,,,,,,,,,,,,,,,,,,,,,,,,,,,,,,,,,,,,,,,,,,,,,,,,,,,,,,,,,,,,,,,,,
1763976072.8008,37725.0,0.0,4330.769043,4339.615234,4571.538574,4536.025879,4381.282227,4481.922852,4507.436035,4392.436035,4581.282227,4317.05127,4493.205078,4452.692383,4504.871582,4250.512695,4272.94873,4411.282227,4470.897461,4453.461426,4414.615234,4306.538574,4365.641113,4503.974121,4450.0,4406.410156,4266.922852,4456.025879,4294.230957,4461.922852,4456.410156,4332.307617,4452.563965,4544.615234,2832.0,0.0,10.0,256.0,23694.0,,,,0.0,4.0,4.0,4.0,4.0,4.0,4.0,4.0,4.0,4.0,4.0,4.0,4.0,4.0,4.0,4.0,4.0,4.0,4.0,4.0,4.0,4.0,4.0,4.0,4.0,4.0,4.0,4.0,4.0,4.0,4.0,4.0,4.0,100.0,,,,,,,,,,,,,,,,,,,,,,,,,,,,,,,,,,,9431.0,0.0,0.235316,0.775085,0.484558,0.330261,0.919057,-0.432182,-0.01758,35.0,-22.666666,33.666668,,,,,,,,,,,,,,,,,,,,,,,,,,,,,,,,,,,,,,,,,,,,,,,,,,,,,,,,,,,,,,,,,,,,,,,,,,,,,,,,,,,,,,,,,,,,,,,,,,,,,,,,,,,,,,,,,,,,,,,,,,,,,,,,,,,,,,,,,,,,,,,,,,,,,,,,,,,,,,,,
1763976072.804806,37726.0,0.0,4336.282227,4338.717773,4543.974121,4511.282227,4372.179688,4481.410156,4511.794922,4373.974121,4575.769043,4274.230957,4484.871582,4457.05127,4506.153809,4217.307617,4273.461426,4417.179688,4476.794922,4442.179688,4386.794922,4282.692383,4278.205078,4514.615234,4464.358887,4455.0,4331.153809,4481.538574,4309.615234,4489.487305,4466.025879,4341.666504,4460.897461,4526.410156,3065.0,0.0,10.0,512.0,23702.0,,,,0.0,4.0,4.0,4.0,4.0,4.0,4.0,4.0,4.0,4.0,4.0,4.0,4.0,4.0,4.0,4.0,4.0,4.0,4.0,4.0,4.0,4.0,4.0,4.0,4.0,4.0,4.0,4.0,4.0,4.0,4.0,4.0,4.0,100.0,,,,,,,,,,,,,,,,,,,,,,,,,,,,,,,,,,,,,,,,,,,,,,,,,,,,,,,,,,,,,,,,,,,,,,,,,,,,,,,,,,,,,,,,,,,,,,,,,,,,,,,,,,,,,,,,,,,,,,,,,,,,,,,,,,,,,,,,,,,,,,,,,,,,,,,,,,,,,,,,,,,,,,,,,,,,,,,,,,,,,,,,,,,,,,,,,,,,,,,,,,,,,,
1763976072.808712,37727.0,0.0,4315.0,4312.563965,4502.692383,4469.871582,4344.743652,4461.410156,4479.102539,4316.025879,4542.563965,4230.128418,4420.897461,4431.153809,4469.615234,4225.897461,4269.358887,4412.307617,4454.615234,4414.871582,4355.128418,4238.846191,4208.205078,4501.025879,4445.128418,4439.615234,4330.256348,4478.589844,4315.0,4494.871582,4448.846191,4329.487305,4454.615234,4492.05127,2943.0,0.0,10.0,512.0,23702.0,,,,0.0,4.0,4.0,4.0,4.0,4.0,4.0,4.0,4.0,4.0,4.0,4.0,4.0,4.0,4.0,4.0,4.0,4.0,4.0,4.0,4.0,4.0,4.0,4.0,4.0,4.0,4.0,4.0,4.0,4.0,4.0,4.0,4.0,100.0,,,,,,,,,,,,,,,,,,,,,,,,,,,,,,,,,,,,,,,,,,,,,,,,,,,,,,,,,,,,,,,,,,,,,,,,,,,,,,,,,,,,,,,,,,,,,,,,,,,,,,,,,,,,,,,,,,,,,,,,,,,,,,,,,,,,,,,,,,,,,,,,,,,,,,,,,,,,,,,,,,,,,,,,,,,,,,,,,,,,,,,,,,,,,,,,,,,,,,,,,,,,,,
1763976072.812618,37728.0,0.0,4272.94873,4268.846191,4461.282227,4427.692383,4309.230957,4428.077148,4422.563965,4252.692383,4498.333496,4223.077148,4344.487305,4385.641113,4415.897461,4249.487305,4248.846191,4385.128418,4411.666504,4377.563965,4328.333496,4195.128418,4182.436035,4467.94873,4397.05127,4369.871582,4266.153809,4441.538574,4298.205078,4468.461426,4406.153809,4293.974121,4426.666504,4452.820313,2842.0,0.0,10.0,768.0,23709.0,,,,0.0,4.0,4.0,4.0,4.0,4.0,4.0,4.0,4.0,4.0,4.0,4.0,4.0,4.0,4.0,4.0,4.0,4.0,4.0,4.0,4.0,4.0,4.0,4.0,4.0,4.0,4.0,4.0,4.0,4.0,4.0,4.0,4.0,100.0,,,,,,,,,,,,,,,,,,,,,,,,,,,,,,,,,,,,,,,,,,,,,,,,,,,,,,,,,,,,,,,,,,,,,,,,,,,,,,,,,,,,,,,,,,,,,,,,,,,,,,,,,,,,,,,,,,,,,,,,,,,,,,,,,,,,,,,,,,,,,,,,,,,,,,,,,,,,,,,,,,,,,,,,,,,,,,,,,,,,,,,,,,,,,,,,,,,,,,,,,,,,,,
1763976072.816524,37729.0,0.0,4223.589844,4221.666504,4426.666504,4393.461426,4276.410156,4391.666504,4363.077148,4212.436035,4456.794922,4248.717773,4292.820313,4337.179688,4367.692383,4260.128418,4210.769043,4338.974121,4363.461426,4340.128418,4309.358887,4166.538574,4194.358887,4429.230957,4336.538574,4285.512695,4187.692383,4387.307617,4251.666504,4413.461426,4350.512695,4243.974121,4381.410156,4416.922852,2986.0,0.0,10.0,768.0,23709.0,,,,0.0,4.0,4.0,4.0,4.0,4.0,4.0,4.0,4.0,4.0,4.0,4.0,4.0,4.0,4.0,4.0,4.0,4.0,4.0,4.0,4.0,4.0,4.0,4.0,4.0,4.0,4.0,4.0,4.0,4.0,4.0,4.0,4.0,100.0,,,,,,,,,,,,,,,,,,,,,,,,,,,,,,,,,,,9432.0,0.0,0.235272,0.774536,0.485291,0.330505,0.905384,-0.405323,0.016115,35.5,-22.666666,32.833332,,,,,,,,,,,,,,,,,,,,,,,,,,,,,,,,,,,,,,,,,,,,,,,,,,,,,,,,,,,,,,,,,,,,,,,,,,,,,,,,,,,,,,,,,,,,,,,,,,,,,,,,,,,,,,,,,,,,,,,,,,,,,,,,,,,,,,,,,,,,,,,,,,,,,,,,,,,,,,,,
1763976072.82043,37730.0,0.0,4185.256348,4188.589844,4404.230957,4370.128418,4256.153809,4364.230957,4321.153809,4203.077148,4424.230957,4264.102539,4274.102539,4303.461426,4340.0,4263.589844,4175.256348,4298.846191,4329.230957,4317.436035,4300.512695,4158.846191,4215.512695,4403.077148,4289.358887,4235.128418,4149.615234,4346.282227,4190.897461,4353.717773,4305.128418,4201.666504,4339.743652,4393.717773,2302.0,0.0,10.0,1024.0,23717.0,,,,0.0,4.0,4.0,4.0,4.0,4.0,4.0,4.0,4.0,4.0,4.0,4.0,4.0,4.0,4.0,4.0,4.0,4.0,4.0,4.0,4.0,4.0,4.0,4.0,4.0,4.0,4.0,4.0,4.0,4.0,4.0,4.0,4.0,100.0,,,,,,,,,,,,,,,,,,,,,,,,,,,,,,,,,,,,,,,,,,,,,,,,,,,,,,,,,,,,,,,,,,,,,,,,,,,,,,,,,,,,,,,,,,,,,,,,,,,,,,,,,,,,,,,,,,,,,,,,,,,,,,,,,,,,,,,,,,,,,,,,,,,,,,,,,,,,,,,,,,,,,,,,,,,,,,,,,,,,,,,,,,,,,,,,,,,,,,,,,,,,,,
1763976072.824336,37731.0,0.0,4176.282227,4186.025879,4403.846191,4363.717773,4257.692383,4358.205078,4312.05127,4217.436035,4409.230957,4241.538574,4279.615234,4298.846191,4341.922852,4289.102539,4170.769043,4295.0,4325.897461,4322.820313,4305.128418,4171.794922,4220.769043,4403.589844,4280.384766,4251.922852,4176.282227,4342.820313,4153.846191,4325.0,4294.615234,4192.436035,4328.077148,4395.0,2973.0,0.0,10.0,1024.0,23717.0,,,,0.0,4.0,4.0,4.0,4.0,4.0,4.0,4.0,4.0,4.0,4.0,4.0,4.0,4.0,4.0,4.0,4.0,4.0,4.0,4.0,4.0,4.0,4.0,4.0,4.0,4.0,4.0,4.0,4.0,4.0,4.0,4.0,4.0,100.0,,,,,,,,,,,,,,,,,,,,,,,,,,,,,,,,,,,,,,,,,,,,,,,,,,,,,,,,,,,,,,,,,,,,,,,,,,,,,,,,,,,,,,,,,,,,,,,,,,,,,,,,,,,,,,,,,,,,,,,,,,,,,,,,,,,,,,,,,,,,,,,,,,,,,,,,,,,,,,,,,,,,,,,,,,,,,,,,,,,,,,,,,,,,,,,,,,,,,,,,,,,,,,
1763976072.828242,37732.0,0.0,4207.179688,4220.897461,4434.743652,4385.769043,4285.512695,4381.025879,4344.102539,4247.820313,4429.230957,4209.871582,4307.05127,4330.769043,4378.077148,4345.128418,4207.692383,4335.512695,4359.871582,4358.846191,4327.563965,4202.692383,4208.589844,4431.922852,4320.256348,4334.102539,4251.538574,4381.794922,4175.769043,4352.563965,4330.128418,4229.358887,4359.871582,4427.563965,3006.0,0.0,10.0,1280.0,23725.0,,,,0.0,4.0,4.0,4.0,4.0,4.0,4.0,4.0,4.0,4.0,4.0,4.0,4.0,4.0,4.0,4.0,4.0,4.0,4.0,4.0,4.0,4.0,4.0,4.0,4.0,4.0,4.0,4.0,4.0,4.0,4.0,4.0,4.0,100.0,,,,,,,,,,,,,,,,,,,,,,,,,,,,,,,,,,,,,,,,,,,,,,,,,,,,,,,,,,,,,,,,,,,,,,,,,,,,,,,,,,,,,,,,,,,,,,,,,,,,,,,,,,,,,,,,,,,,,,,,,,,,,,,,,,,,,,,,,,,,,,,,,,,,,,,,,,,,,,,,,,,,,,,,,,,,,,,,,,,,,,,,,,,,,,,,,,,,,,,,,,,,,,
1763976072.832148,37733.0,0.0,4270.641113,4283.846191,4493.717773,4442.820313,4334.487305,4428.461426,4413.717773,4292.563965,4495.641113,4230.0,4366.153809,4392.563965,4444.102539,4393.589844,4265.769043,4395.384766,4420.769043,4412.436035,4367.307617,4245.256348,4202.05127,4475.128418,4395.256348,4440.641113,4334.487305,4447.820313,4257.563965,4430.512695,4399.871582,4300.512695,4425.256348,4484.102539,2393.0,0.0,10.0,1280.0,23725.0,,,,0.0,4.0,4.0,4.0,4.0,4.0,4.0,4.0,4.0,4.0,4.0,4.0,4.0,4.0,4.0,4.0,4.0,4.0,4.0,4.0,4.0,4.0,4.0,4.0,4.0,4.0,4.0,4.0,4.0,4.0,4.0,4.0,4.0,100.0,,,,,,,,,,,,,,,,,,,,,,,,,,,,,,,,,,,9433.0,0.0,0.235535,0.773865,0.485901,0.330994,0.905384,-0.405323,0.016115,34.5,-21.166666,33.0,,,,,,,,,,,,,,,,,,,,,,,,,,,,,,,,,,,,,,,,,,,,,,,,,,,,,,,,,,,,,,,,,,,,,,,,,,,,,,,,,,,,,,,,,,,,,,,,,,,,,,,,,,,,,,,,,,,,,,,,,,,,,,,,,,,,,,,,,,,,,,,,,,,,,,,,,,,,,,,,
1763976072.836054,37734.0,0.0,4341.153809,4348.846191,4557.563965,4519.743652,4386.922852,4481.794922,4500.512695,4347.436035,4589.743652,4323.205078,4456.538574,4462.05127,4519.743652,4377.05127,4305.641113,4432.436035,4482.94873,4458.205078,4413.205078,4286.282227,4224.743652,4511.153809,4470.769043,4512.563965,4382.692383,4512.94873,4358.461426,4520.384766,4472.692383,4373.461426,4495.384766,4541.282227,3033.0,0.0,10.0,1536.0,23733.0,,,,0.0,4.0,4.0,4.0,4.0,4.0,4.0,4.0,4.0,4.0,4.0,4.0,4.0,4.0,4.0,4.0,4.0,4.0,4.0,4.0,4.0,4.0,4.0,4.0,4.0,4.0,4.0,4.0,4.0,4.0,4.0,4.0,4.0,100.0,,,,,,,,,,,,,,,,,,,,,,,,,,,,,,,,,,,,,,,,,,,,,,,,,,,,,,,,,,,,,,,,,,,,,,,,,,,,,,,,,,,,,,,,,,,,,,,,,,,,,,,,,,,,,,,,,,,,,,,,,,,,,,,,,,,,,,,,,,,,,,,,,,,,,,,,,,,,,,,,,,,,,,,,,,,,,,,,,,,,,,,,,,,,,,,,,,,,,,,,,,,,,,
1763976072.83996,37735.0,0.0,4384.230957,4384.230957,4592.307617,4578.461426,4417.307617,4514.230957,4568.589844,4394.487305,4659.871582,4433.717773,4547.563965,4507.179688,4570.769043,4275.769043,4299.230957,4421.922852,4515.897461,4472.563965,4444.743652,4307.436035,4275.769043,4522.179688,4508.205078,4507.820313,4371.794922,4547.692383,4419.743652,4573.333496,4512.436035,4410.512695,4535.769043,4570.128418,2976.0,0.0,10.0,1536.0,23733.0,,,,0.0,4.0,4.0,4.0,4.0,4.0,4.0,4.0,4.0,4.0,4.0,4.0,4.0,4.0,4.0,4.0,4.0,4.0,4.0,4.0,4.0,4.0,4.0,4.0,4.0,4.0,4.0,4.0,4.0,4.0,4.0,4.0,4.0,100.0,,,,,,,,,,,,,,,,,,,,,,,,,,,,,,,,,,,,,,,,,,,,,,,,,,,,,,,,,,,,,,,,,,,,,,,,,,,,,,,,,,,,,,,,,,,,,,,,,,,,,,,,,,,,,,,,,,,,,,,,,,,,,,,,,,,,,,,,,,,,,,,,,,,,,,,,,,,,,,,,,,,,,,,,,,,,,,,,,,,,,,,,,,,,,,,,,,,,,,,,,,,,,,
1763976072.843866,37736.0,0.0,4375.0,4368.717773,4574.230957,4578.077148,4405.897461,4504.871582,4580.384766,4403.461426,4651.922852,4468.077148,4582.820313,4501.538574,4564.358887,4140.256348,4252.05127,4376.794922,4501.153809,4448.333496,4444.615234,4296.153809,4328.846191,4503.333496,4485.641113,4426.794922,4304.871582,4532.307617,4401.410156,4556.922852,4496.666504,4389.487305,4522.692383,4551.410156,2726.0,0.0,10.0,1792.0,23741.0,,,,0.0,4.0,4.0,4.0,4.0,4.0,4.0,4.0,4.0,4.0,4.0,4.0,4.0,4.0,4.0,4.0,4.0,4.0,4.0,4.0,4.0,4.0,4.0,4.0,4.0,4.0,4.0,4.0,4.0,4.0,4.0,4.0,4.0,100.0,,,,,,,,,,,,,,,,,,,,,,,,,,,,,,,,,,,,,,,,,,,,,,,12.324775,5.503239,24.87508,32.689892,33.58009,19.445496,7.582181,31.129541,32.051414,29.930792,23.031214,10.380871,34.399002,34.704277,31.782938,24.372562,10.555465,35.391937,35.40501,37.568783,12.03497,5.800735,21.656178,24.467196,22.827177,11.457608,3.806752,17.886162,21.539846,23.559137,17.039047,5.869121,27.886469,43.374287,56.091408,21.416656,10.706931,39.141582,46.030056,49.409023,20.665092,8.059822,31.90835,33.218559,38.98867,20.388222,5.622402,22.342196,63.541374,78.481049,14.824062,4.199222,34.631775,69.453384,129.323456,12.296778,3.939743,22.296368,34.427341,37.674786,10.705561,3.351853,24.138424,48.497311,61.423325,2.810786,9.29111,8.041361,13.198404,48.806942,11.305872,8.479389,17.848688,16.952408,13.267907,7.245542,13.320433,16.992281,16.165081,29.288887,8.668364,3.208075,17.146566,28.67654,26.440552,4.578707,5.85603,15.369328,20.865898,20.431444,6.056185,6.745999,22.809772,21.743153,31.860443,25.973906,28.7913,33.594299,22.67293,19.82728,10.75252,15.672206,29.369911,20.831593,90.796043,6.862051,1.960892,8.03724,13.285642,13.339571,14.374947,5.387819,27.467766,41.515785,39.905323,20.352556,9.394442,46.895813,65.880188,88.343742,25.705399,13.144601,54.124294,54.896931,72.869392,23.564037,19.587082,42.503693,38.022926,33.574108,22.877472,13.400766,47.205151,51.981739,53.479614,16.910208,8.264871,35.052319,50.210663,57.281235,19.812634,6.909662,29.383116,36.626835,35.090889,22.202698,10.834107,37.112698,37.832237,32.334866,24.769705,14.694458,44.439419,41.996159,36.402454,23.289448,11.381527,34.17429,35.775753,28.917017
1763976072.847772,37737.0,0.0,4314.487305,4306.794922,4507.820313,4508.461426,4353.717773,4453.846191,4520.641113,4355.384766,4557.307617,4380.256348,4519.871582,4441.922852,4493.333496,4063.974365,4200.0,4336.922852,4444.102539,4401.153809,4411.282227,4256.410156,4352.692383,4466.025879,4413.589844,4313.589844,4214.230957,4469.615234,4310.128418,4476.794922,4430.641113,4318.205078,4459.102539,4490.128418,2935.0,0.0,10.0,1792.0,23741.0,,,,0.0,4.0,4.0,4.0,4.0,4.0,4.0,4.0,4.0,4.0,4.0,4.0,4.0,4.0,4.0,4.0,4.0,4.0,4.0,4.0,4.0,4.0,4.0,4.0,4.0,4.0,4.0,4.0,4.0,4.0,4.0,4.0,4.0,100.0,,,,,,,,,,,,,,,,,,,,,,,,,,,,,,,,,,,9434.0,0.0,0.236896,0.772766,0.485779,0.332764,0.869247,-0.376511,-0.004883,36.666668,-21.833334,34.5,,,,,,,,,,,,,,,,,,,,,,,,,,,,,,,,,,,,,,,,,,,,,,,,,,,,,,,,,,,,,,,,,,,,,,,,,,,,,,,,,,,,,,,,,,,,,,,,,,,,,,,,,,,,,,,,,,,,,,,,,,,,,,,,,,,,,,,,,,,,,,,,,,,,,,,,,,,,,,,,
1763976072.851678,37738.0,0.0,4237.820313,4233.333496,4430.897461,4410.769043,4289.358887,4389.230957,4416.794922,4271.282227,4433.461426,4222.307617,4378.205078,4360.384766,4393.846191,4115.897461,4184.358887,4336.153809,4377.820313,4361.282227,4363.974121,4211.410156,4332.692383,4434.230957,4335.384766,4234.743652,4153.846191,4394.358887,4203.333496,4381.794922,4352.307617,4237.436035,4381.410156,4419.487305,2796.0,0.0,10.0,2048.0,23748.0,,,,0.0,4.0,4.0,4.0,4.0,4.0,4.0,4.0,4.0,4.0,4.0,4.0,4.0,4.0,4.0,4.0,4.0,4.0,4.0,4.0,4.0,4.0,4.0,4.0,4.0,4.0,4.0,4.0,4.0,4.0,4.0,4.0,4.0,100.0,,,,,,,,,,,,,,,,,,,,,,,,,,,,,,,,,,,,,,,,,,,,,,,,,,,,,,,,,,,,,,,,,,,,,,,,,,,,,,,,,,,,,,,,,,,,,,,,,,,,,,,,,,,,,,,,,,,,,,,,,,,,,,,,,,,,,,,,,,,,,,,,,,,,,,,,,,,,,,,,,,,,,,,,,,,,,,,,,,,,,,,,,,,,,,,,,,,,,,,,,,,,,,
1763976072.855584,37739.0,0.0,4197.820313,4198.461426,4395.128418,4358.077148,4255.897461,4354.230957,4335.128418,4211.922852,4371.153809,4110.897461,4248.205078,4311.922852,4333.461426,4280.641113,4221.538574,4376.410156,4347.692383,4355.897461,4331.666504,4193.077148,4280.384766,4431.794922,4306.794922,4245.769043,4173.717773,4359.230957,4157.692383,4340.128418,4315.128418,4201.922852,4343.461426,4386.922852,3036.0,0.0,10.0,2048.0,23748.0,,,,0.0,4.0,4.0,4.0,4.0,4.0,4.0,4.0,4.0,4.0,4.0,4.0,4.0,4.0,4.0,4.0,4.0,4.0,4.0,4.0,4.0,4.0,4.0,4.0,4.0,4.0,4.0,4.0,4.0,4.0,4.0,4.0,4.0,100.0,,,,,,,,,,,,,,,,,,,,,,,,,,,,,,,,,,,,,,,,,,,,,,,,,,,,,,,,,,,,,,,,,,,,,,,,,,,,,,,,,,,,,,,,,,,,,,,,,,,,,,,,,,,,,,,,,,,,,,,,,,,,,,,,,,,,,,,,,,,,,,,,,,,,,,,,,,,,,,,,,,,,,,,,,,,,,,,,,,,,,,,,,,,,,,,,,,,,,,,,,,,,,,
1763976072.85949,37740.0,0.0,4228.846191,4232.179688,4431.153809,4397.94873,4280.512695,4378.461426,4338.077148,4232.179688,4424.743652,4133.974121,4231.153809,4337.05127,4363.717773,4456.282227,4288.461426,4426.922852,4381.153809,4390.256348,4334.358887,4219.358887,4227.179688,4465.641113,4356.025879,4351.410156,4281.666504,4396.538574,4211.153809,4390.384766,4351.922852,4242.820313,4377.563965,4420.384766,2997.0,0.0,10.0,2304.0,23756.0,,,,0.0,4.0,4.0,4.0,4.0,4.0,4.0,4.0,4.0,4.0,4.0,4.0,4.0,4.0,4.0,4.0,4.0,4.0,4.0,4.0,4.0,4.0,4.0,4.0,4.0,4.0,4.0,4.0,4.0,4.0,4.0,4.0,4.0,100.0,,,,,,,,,,,,,,,,,,,,,,,,,,,,,,,,,,,,,,,,,,,,,,,,,,,,,,,,,,,,,,,,,,,,,,,,,,,,,,,,,,,,,,,,,,,,,,,,,,,,,,,,,,,,,,,,,,,,,,,,,,,,,,,,,,,,,,,,,,,,,,,,,,,,,,,,,,,,,,,,,,,,,,,,,,,,,,,,,,,,,,,,,,,,,,,,,,,,,,,,,,,,,,
1763976072.863396,37741.0,0.0,4314.487305,4316.282227,4520.641113,4507.05127,4349.487305,4449.871582,4431.410156,4328.077148,4563.333496,4278.974121,4353.589844,4424.871582,4473.205078,4521.922852,4338.589844,4449.871582,4460.897461,4442.692383,4370.384766,4277.692383,4208.846191,4515.512695,4454.871582,4491.922852,4423.717773,4485.641113,4325.769043,4501.666504,4441.794922,4336.153809,4461.666504,4502.05127,2656.0,0.0,10.0,2304.0,23756.0,,,,0.0,4.0,4.0,4.0,4.0,4.0,4.0,4.0,4.0,4.0,4.0,4.0,4.0,4.0,4.0,4.0,4.0,4.0,4.0,4.0,4.0,4.0,4.0,4.0,4.0,4.0,4.0,4.0,4.0,4.0,4.0,4.0,4.0,100.0,,,,,,,,,,,,,,,,,,,,,,,,,,,,,,,,,,,9435.0,0.0,0.238545,0.772034,0.485046,0.334351,0.869247,-0.376511,-0.004883,36.333332,-21.0,31.166666,,,,,,,,,,,,,,,,,,,,,,,,,,,,,,,,,,,,,,,,,,,,,,,,,,,,,,,,,,,,,,,,,,,,,,,,,,,,,,,,,,,,,,,,,,,,,,,,,,,,,,,,,,,,,,,,,,,,,,,,,,,,,,,,,,,,,,,,,,,,,,,,,,,,,,,,,,,,,,,,
1763976072.867302,37742.0,0.0,4393.846191,4391.282227,4603.589844,4602.563965,4413.846191,4518.846191,4551.153809,4431.282227,4689.358887,4441.666504,4531.922852,4513.717773,4586.538574,4430.641113,4336.666504,4429.743652,4531.922852,4477.820313,4417.307617,4328.974121,4240.128418,4545.0,4532.820313,4575.769043,4511.410156,4562.820313,4412.692383,4589.102539,4519.487305,4415.0,4532.436035,4575.769043,2793.0,0.0,10.0,1792.0,23764.0,,,,0.0,4.0,4.0,4.0,4.0,4.0,4.0,4.0,4.0,4.0,4.0,4.0,4.0,4.0,4.0,4.0,4.0,4.0,4.0,4.0,4.0,4.0,4.0,4.0,4.0,4.0,4.0,4.0,4.0,4.0,4.0,4.0,4.0,100.0,,,,,,,,,,,,,,,,,,,,,,,,,,,,,,,,,,,,,,,,,,,,,,,,,,,,,,,,,,,,,,,,,,,,,,,,,,,,,,,,,,,,,,,,,,,,,,,,,,,,,,,,,,,,,,,,,,,,,,,,,,,,,,,,,,,,,,,,,,,,,,,,,,,,,,,,,,,,,,,,,,,,,,,,,,,,,,,,,,,,,,,,,,,,,,,,,,,,,,,,,,,,,,
1763976072.871208,37743.0,0.0,4406.410156,4400.641113,4620.384766,4608.717773,4426.282227,4534.230957,4608.077148,4461.794922,4712.820313,4504.102539,4630.0,4536.538574,4618.717773,4250.128418,4286.282227,4383.461426,4540.897461,4471.794922,4443.333496,4334.743652,4297.307617,4529.230957,4529.487305,4546.666504,4483.461426,4571.410156,4405.128418,4580.769043,4524.615234,4419.871582,4536.025879,4588.974121,2916.0,0.0,10.0,1792.0,23764.0,,,,0.0,4.0,4.0,4.0,4.0,4.0,4.0,4.0,4.0,4.0,4.0,4.0,4.0,4.0,4.0,4.0,4.0,4.0,4.0,4.0,4.0,4.0,4.0,4.0,4.0,4.0,4.0,4.0,4.0,4.0,4.0,4.0,4.0,100.0,,,,,,,,,,,,,,,,,,,,,,,,,,,,,,,,,,,,,,,,,,,,,,,,,,,,,,,,,,,,,,,,,,,,,,,,,,,,,,,,,,,,,,,,,,,,,,,,,,,,,,,,,,,,,,,,,,,,,,,,,,,,,,,,,,,,,,,,,,,,,,,,,,,,,,,,,,,,,,,,,,,,,,,,,,,,,,,,,,,,,,,,,,,,,,,,,,,,,,,,,,,,,,
1763976072.875115,37744.0,0.0,4340.256348,4335.0,4555.641113,4517.820313,4376.410156,4483.333496,4557.94873,4393.077148,4619.230957,4418.333496,4567.179688,4472.820313,4541.538574,4111.538574,4226.025879,4344.487305,4478.077148,4427.692383,4426.794922,4285.769043,4329.615234,4475.512695,4444.358887,4426.794922,4352.179688,4507.307617,4313.461426,4480.897461,4451.153809,4346.282227,4472.179688,4532.692383,3078.0,0.0,10.0,768.0,23772.0,,,,0.0,4.0,4.0,4.0,4.0,4.0,4.0,4.0,4.0,4.0,4.0,4.0,4.0,4.0,4.0,4.0,4.0,4.0,4.0,4.0,4.0,4.0,4.0,4.0,4.0,4.0,4.0,4.0,4.0,4.0,4.0,4.0,4.0,100.0,,,,,,,,,,,,,,,,,,,,,,,,,,,,,,,,,,,,,,,,,,,,,,,,,,,,,,,,,,,,,,,,,,,,,,,,,,,,,,,,,,,,,,,,,,,,,,,,,,,,,,,,,,,,,,,,,,,,,,,,,,,,,,,,,,,,,,,,,,,,,,,,,,,,,,,,,,,,,,,,,,,,,,,,,,,,,,,,,,,,,,,,,,,,,,,,,,,,,,,,,,,,,,
1763976072.879021,37745.0,0.0,4242.563965,4240.384766,4450.0,4394.615234,4299.102539,4403.077148,4436.666504,4273.077148,4477.563965,4239.871582,4385.384766,4366.282227,4406.282227,4104.743652,4197.179688,4336.922852,4385.512695,4372.179688,4371.666504,4211.282227,4302.692383,4420.0,4337.94873,4299.487305,4197.179688,4420.256348,4212.820313,4367.05127,4352.820313,4248.077148,4390.769043,4446.922852,3226.0,0.0,10.0,768.0,23772.0,,,,0.0,4.0,4.0,4.0,4.0,4.0,4.0,4.0,4.0,4.0,4.0,4.0,4.0,4.0,4.0,4.0,4.0,4.0,4.0,4.0,4.0,4.0,4.0,4.0,4.0,4.0,4.0,4.0,4.0,4.0,4.0,4.0,4.0,100.0,,,,,,,,,,,,,,,,,,,,,,,,,,,,,,,,,,,9436.0,0.0,0.240209,0.771423,0.483887,0.336243,0.858503,-0.357954,0.00879,36.166668,-22.0,32.166668,,,,,,,,,,,,,,,,,,,,,,,,,,,,,,,,,,,,,,,,,,,,,,,,,,,,,,,,,,,,,,,,,,,,,,,,,,,,,,,,,,,,,,,,,,,,,,,,,,,,,,,,,,,,,,,,,,,,,,,,,,,,,,,,,,,,,,,,,,,,,,,,,,,,,,,,,,,,,,,,
1763976072.882927,37746.0,0.0,4181.922852,4183.461426,4372.05127,4323.974121,4247.563965,4350.897461,4332.563965,4185.256348,4386.666504,4092.94873,4218.589844,4291.410156,4306.538574,4213.077148,4212.436035,4358.717773,4326.153809,4337.94873,4312.307617,4160.384766,4234.102539,4401.025879,4284.743652,4246.794922,4112.307617,4372.179688,4177.94873,4325.512695,4300.384766,4194.615234,4349.230957,4389.743652,2919.0,0.0,10.0,512.0,23780.0,,,,0.0,4.0,4.0,4.0,4.0,4.0,4.0,4.0,4.0,4.0,4.0,4.0,4.0,4.0,4.0,4.0,4.0,4.0,4.0,4.0,4.0,4.0,4.0,4.0,4.0,4.0,4.0,4.0,4.0,4.0,4.0,4.0,4.0,100.0,,,,,,,,,,,,,,,,,,,,,,,,,,,,,,,,,,,,,,,,,,,,,,,,,,,,,,,,,,,,,,,,,,,,,,,,,,,,,,,,,,,,,,,,,,,,,,,,,,,,,,,,,,,,,,,,,,,,,,,,,,,,,,,,,,,,,,,,,,,,,,,,,,,,,,,,,,,,,,,,,,,,,,,,,,,,,,,,,,,,,,,,,,,,,,,,,,,,,,,,,,,,,,
1763976072.886833,37747.0,0.0,4196.666504,4200.256348,4369.743652,4347.563965,4253.461426,4360.769043,4317.307617,4184.230957,4402.05127,4082.692383,4186.025879,4296.538574,4308.077148,4337.820313,4249.871582,4387.692383,4336.922852,4343.846191,4293.333496,4166.666504,4182.563965,4429.358887,4316.153809,4291.282227,4141.410156,4391.025879,4224.615234,4380.384766,4326.922852,4217.05127,4369.230957,4393.717773,3073.0,0.0,10.0,512.0,23780.0,,,,0.0,4.0,4.0,4.0,4.0,4.0,4.0,4.0,4.0,4.0,4.0,4.0,4.0,4.0,4.0,4.0,4.0,4.0,4.0,4.0,4.0,4.0,4.0,4.0,4.0,4.0,4.0,4.0,4.0,4.0,4.0,4.0,4.0,100.0,,,,,,,,,,,,,,,,,,,,,,,,,,,,,,,,,,,,,,,,,,,,,,,,,,,,,,,,,,,,,,,,,,,,,,,,,,,,,,,,,,,,,,,,,,,,,,,,,,,,,,,,,,,,,,,,,,,,,,,,,,,,,,,,,,,,,,,,,,,,,,,,,,,,,,,,,,,,,,,,,,,,,,,,,,,,,,,,,,,,,,,,,,,,,,,,,,,,,,,,,,,,,,
1763976072.890739,37748.0,0.0,4266.410156,4270.128418,4435.512695,4437.692383,4305.384766,4418.461426,4392.436035,4256.794922,4497.692383,4212.05127,4299.102539,4369.102539,4400.769043,4381.666504,4274.615234,4400.512695,4401.794922,4384.487305,4337.692383,4221.922852,4195.897461,4479.743652,4397.820313,4387.307617,4250.384766,4452.692383,4302.820313,4477.05127,4403.333496,4287.563965,4423.717773,4445.256348,3071.0,0.0,10.0,768.0,23787.0,,,,0.0,4.0,4.0,4.0,4.0,4.0,4.0,4.0,4.0,4.0,4.0,4.0,4.0,4.0,4.0,4.0,4.0,4.0,4.0,4.0,4.0,4.0,4.0,4.0,4.0,4.0,4.0,4.0,4.0,4.0,4.0,4.0,4.0,100.0,,,,,,,,,,,,,,,,,,,,,,,,,,,,,,,,,,,,,,,,,,,,,,,,,,,,,,,,,,,,,,,,,,,,,,,,,,,,,,,,,,,,,,,,,,,,,,,,,,,,,,,,,,,,,,,,,,,,,,,,,,,,,,,,,,,,,,,,,,,,,,,,,,,,,,,,,,,,,,,,,,,,,,,,,,,,,,,,,,,,,,,,,,,,,,,,,,,,,,,,,,,,,,
1763976072.894645,37749.0,0.0,4330.384766,4332.94873,4513.077148,4521.538574,4358.461426,4473.717773,4491.794922,4336.922852,4589.230957,4371.794922,4455.769043,4446.153809,4507.307617,4318.205078,4266.282227,4388.717773,4466.282227,4431.410156,4418.846191,4280.384766,4264.358887,4511.922852,4459.871582,4460.384766,4354.487305,4501.666504,4341.282227,4530.897461,4463.589844,4343.717773,4460.769043,4497.179688,2981.0,0.0,10.0,768.0,23787.0,,,,0.0,4.0,4.0,4.0,4.0,4.0,4.0,4.0,4.0,4.0,4.0,4.0,4.0,4.0,4.0,4.0,4.0,4.0,4.0,4.0,4.0,4.0,4.0,4.0,4.0,4.0,4.0,4.0,4.0,4.0,4.0,4.0,4.0,100.0,,,,,,,,,,,,,,,,,,,,,,,,,,,,,,,,,,,9437.0,0.0,0.242739,0.770691,0.4823,0.338379,0.873642,-0.361861,-0.021487,35.833332,-21.5,31.666666,,,,,,,,,,,,,,,,,,,,,,,,,,,,,,,,,,,,,,,,,,,,,,,,,,,,,,,,,,,,,,,,,,,,,,,,,,,,,,,,,,,,,,,,,,,,,,,,,,,,,,,,,,,,,,,,,,,,,,,,,,,,,,,,,,,,,,,,,,,,,,,,,,,,,,,,,,,,,,,,
1763976072.898551,37750.0,0.0,4334.615234,4335.641113,4538.846191,4535.384766,4368.717773,4480.512695,4534.487305,4358.077148,4601.282227,4425.897461,4527.692383,4464.230957,4542.94873,4200.641113,4229.871582,4359.487305,4478.333496,4447.05127,4470.769043,4293.717773,4325.384766,4500.641113,4450.641113,4461.282227,4380.384766,4493.077148,4304.230957,4494.615234,4456.282227,4336.922852,4442.436035,4503.846191,3015.0,0.0,10.0,256.0,23795.0,,,,0.0,4.0,4.0,4.0,4.0,4.0,4.0,4.0,4.0,4.0,4.0,4.0,4.0,4.0,4.0,4.0,4.0,4.0,4.0,4.0,4.0,4.0,4.0,4.0,4.0,4.0,4.0,4.0,4.0,4.0,4.0,4.0,4.0,100.0,,,,,,,,,,,,,,,,,,,,,,,,,,,,,,,,,,,,,,,,,,,,,,,,,,,,,,,,,,,,,,,,,,,,,,,,,,,,,,,,,,,,,,,,,,,,,,,,,,,,,,,,,,,,,,,,,,,,,,,,,,,,,,,,,,,,,,,,,,,,,,,,,,,,,,,,,,,,,,,,,,,,,,,,,,,,,,,,,,,,,,,,,,,,,,,,,,,,,,,,,,,,,,
1763976072.902457,37751.0,0.0,4273.333496,4272.692383,4490.0,4470.256348,4326.153809,4431.282227,4488.461426,4303.846191,4525.897461,4329.743652,4463.205078,4407.436035,4480.641113,4111.794922,4188.974121,4326.538574,4427.05127,4411.025879,4438.589844,4249.102539,4319.487305,4453.974121,4375.256348,4394.358887,4317.820313,4426.410156,4216.410156,4393.974121,4383.589844,4268.333496,4373.846191,4453.846191,2977.0,0.0,10.0,256.0,23795.0,,,,0.0,4.0,4.0,4.0,4.0,4.0,4.0,4.0,4.0,4.0,4.0,4.0,4.0,4.0,4.0,4.0,4.0,4.0,4.0,4.0,4.0,4.0,4.0,4.0,4.0,4.0,4.0,4.0,4.0,4.0,4.0,4.0,4.0,100.0,,,,,,,,,,,,,,,,,,,,,,,,,,,,,,,,,,,,,,,,,,,,,,,,,,,,,,,,,,,,,,,,,,,,,,,,,,,,,,,,,,,,,,,,,,,,,,,,,,,,,,,,,,,,,,,,,,,,,,,,,,,,,,,,,,,,,,,,,,,,,,,,,,,,,,,,,,,,,,,,,,,,,,,,,,,,,,,,,,,,,,,,,,,,,,,,,,,,,,,,,,,,,,
1763976072.906363,37752.0,0.0,4192.563965,4190.0,4401.922852,4376.153809,4262.820313,4363.333496,4392.179688,4217.563965,4426.153809,4168.974121,4323.974121,4319.871582,4371.538574,4104.102539,4168.461426,4304.615234,4350.384766,4342.307617,4335.256348,4179.871582,4246.410156,4405.641113,4290.512695,4308.717773,4221.153809,4348.333496,4140.769043,4305.256348,4299.358887,4188.333496,4301.025879,4380.256348,2918.0,0.0,10.0,256.0,23803.0,,,,0.0,4.0,4.0,4.0,4.0,4.0,4.0,4.0,4.0,4.0,4.0,4.0,4.0,4.0,4.0,4.0,4.0,4.0,4.0,4.0,4.0,4.0,4.0,4.0,4.0,4.0,4.0,4.0,4.0,4.0,4.0,4.0,4.0,100.0,,,,,,,,,,,,,,,,,,,,,,,,,,,,,,,,,,,,,,,,,,,,,,,,,,,,,,,,,,,,,,,,,,,,,,,,,,,,,,,,,,,,,,,,,,,,,,,,,,,,,,,,,,,,,,,,,,,,,,,,,,,,,,,,,,,,,,,,,,,,,,,,,,,,,,,,,,,,,,,,,,,,,,,,,,,,,,,,,,,,,,,,,,,,,,,,,,,,,,,,,,,,,,
1763976072.910269,37753.0,0.0,4155.769043,4151.025879,4342.179688,4323.846191,4228.077148,4329.615234,4322.820313,4167.307617,4382.820313,4083.333252,4228.717773,4271.666504,4304.615234,4174.487305,4181.794922,4307.179688,4308.846191,4294.487305,4244.230957,4139.615234,4171.153809,4391.410156,4262.692383,4262.94873,4164.743652,4320.128418,4132.05127,4296.538574,4268.717773,4159.230957,4279.871582,4339.102539,2924.0,0.0,10.0,256.0,23803.0,,,,0.0,4.0,4.0,4.0,4.0,4.0,4.0,4.0,4.0,4.0,4.0,4.0,4.0,4.0,4.0,4.0,4.0,4.0,4.0,4.0,4.0,4.0,4.0,4.0,4.0,4.0,4.0,4.0,4.0,4.0,4.0,4.0,4.0,100.0,,,,,,,,,,,,,,,,,,,,,,,,,,,,,,,,,,,9438.0,0.0,0.245458,0.770142,0.480164,0.340698,0.879014,-0.32084,-0.048834,37.666668,-22.5,31.833334,,,,,,,,,,,,,,,,,,,,,,,,,,,,,,,,,,,,,,,,,,,,,,,,,,,,,,,,,,,,,,,,,,,,,,,,,,,,,,,,,,,,,,,,,,,,,,,,,,,,,,,,,,,,,,,,,,,,,,,,,,,,,,,,,,,,,,,,,,,,,,,,,,,,,,,,,,,,,,,,
1763976072.914275,37754.0,0.0,4194.871582,4187.94873,4358.974121,4350.897461,4251.025879,4358.333496,4334.487305,4193.077148,4428.589844,4144.871582,4254.358887,4304.358887,4336.666504,4278.333496,4224.358887,4341.538574,4340.256348,4317.05127,4255.256348,4161.410156,4170.512695,4424.358887,4318.846191,4288.077148,4185.384766,4371.025879,4198.974121,4376.538574,4317.94873,4207.94873,4334.487305,4367.179688,2838.0,0.0,10.0,512.0,23811.0,,,,0.0,4.0,4.0,4.0,4.0,4.0,4.0,4.0,4.0,4.0,4.0,4.0,4.0,4.0,4.0,4.0,4.0,4.0,4.0,4.0,4.0,4.0,4.0,4.0,4.0,4.0,4.0,4.0,4.0,4.0,4.0,4.0,4.0,100.0,,,,,,,,,,,,,,,,,,,,,,,,,,,,,,,,,,,,,,,,,,,,,,,,,,,,,,,,,,,,,,,,,,,,,,,,,,,,,,,,,,,,,,,,,,,,,,,,,,,,,,,,,,,,,,,,,,,,,,,,,,,,,,,,,,,,,,,,,,,,,,,,,,,,,,,,,,,,,,,,,,,,,,,,,,,,,,,,,,,,,,,,,,,,,,,,,,,,,,,,,,,,,,
1763976072.918181,37755.0,0.0,4284.615234,4276.794922,4443.461426,4435.128418,4316.410156,4430.128418,4415.256348,4276.666504,4525.384766,4301.666504,4375.0,4397.692383,4447.307617,4361.538574,4276.794922,4400.256348,4429.230957,4411.922852,4384.102539,4232.436035,4265.897461,4484.743652,4424.230957,4365.897461,4258.846191,4471.282227,4297.94873,4488.717773,4413.589844,4304.102539,4434.487305,4451.282227,3045.0,0.0,10.0,512.0,23811.0,,,,0.0,4.0,4.0,4.0,4.0,4.0,4.0,4.0,4.0,4.0,4.0,4.0,4.0,4.0,4.0,4.0,4.0,4.0,4.0,4.0,4.0,4.0,4.0,4.0,4.0,4.0,4.0,4.0,4.0,4.0,4.0,4.0,4.0,100.0,,,,,,,,,,,,,,,,,,,,,,,,,,,,,,,,,,,,,,,,,,,,,,,,,,,,,,,,,,,,,,,,,,,,,,,,,,,,,,,,,,,,,,,,,,,,,,,,,,,,,,,,,,,,,,,,,,,,,,,,,,,,,,,,,,,,,,,,,,,,,,,,,,,,,,,,,,,,,,,,,,,,,,,,,,,,,,,,,,,,,,,,,,,,,,,,,,,,,,,,,,,,,,
1763976072.922087,37756.0,0.0,4361.282227,4355.128418,4536.538574,4515.256348,4376.666504,4493.589844,4498.589844,4359.615234,4599.871582,4427.563965,4486.794922,4483.846191,4553.205078,4388.589844,4313.846191,4458.461426,4516.538574,4524.102539,4550.897461,4304.743652,4398.333496,4533.077148,4507.692383,4442.563965,4326.410156,4552.563965,4364.615234,4554.487305,4487.307617,4381.538574,4512.820313,4535.512695,1478.0,0.0,10.0,768.0,23819.0,,,,0.0,4.0,4.0,4.0,4.0,4.0,4.0,4.0,4.0,4.0,4.0,4.0,4.0,4.0,4.0,4.0,4.0,4.0,4.0,4.0,4.0,4.0,4.0,4.0,4.0,4.0,4.0,4.0,4.0,4.0,4.0,4.0,4.0,100.0,,,,,,,,,,,,,,,,,,,,,,,,,,,,,,,,,,,,,,,,,,,,,,,,,,,,,,,,,,,,,,,,,,,,,,,,,,,,,,,,,,,,,,,,,,,,,,,,,,,,,,,,,,,,,,,,,,,,,,,,,,,,,,,,,,,,,,,,,,,,,,,,,,,,,,,,,,,,,,,,,,,,,,,,,,,,,,,,,,,,,,,,,,,,,,,,,,,,,,,,,,,,,,
1763976072.925993,37757.0,0.0,4372.307617,4371.025879,4574.487305,4540.0,4389.871582,4505.128418,4519.358887,4389.743652,4603.589844,4428.077148,4497.692383,4501.153809,4575.384766,4354.102539,4317.692383,4483.205078,4542.179688,4578.846191,4636.282227,4330.256348,4466.410156,4539.230957,4514.487305,4470.256348,4345.0,4561.922852,4360.256348,4535.0,4490.128418,4390.128418,4517.563965,4564.487305,2690.0,0.0,10.0,768.0,23819.0,,,,0.0,4.0,4.0,4.0,4.0,4.0,4.0,4.0,4.0,4.0,4.0,4.0,4.0,4.0,4.0,4.0,4.0,4.0,4.0,4.0,4.0,4.0,4.0,4.0,4.0,4.0,4.0,4.0,4.0,4.0,4.0,4.0,4.0,100.0,,,,,,,,,,,,,,,,,,,,,,,,,,,,,,,,,,,9439.0,0.0,0.248217,0.770081,0.477051,0.343201,0.881455,-0.358442,-0.129899,36.333332,-22.166666,30.833334,,,,,,,,,,,,,,,,,,,,,,,,,,,,,,,,,,,,,,,,,,,,,,,,,,,,,,,,,,,,,,,,,,,,,,,,,,,,,,,,,,,,,,,,,,,,,,,,,,,,,,,,,,,,,,,,,,,,,,,,,,,,,,,,,,,,,,,,,,,,,,,,,,,,,,,,,,,,,,,,
1763976072.929899,37758.0,0.0,4316.153809,4321.922852,4537.307617,4503.589844,4352.307617,4463.333496,4468.205078,4358.846191,4546.666504,4311.666504,4406.282227,4442.692383,4502.05127,4277.94873,4285.128418,4452.692383,4491.025879,4536.538574,4574.615234,4295.641113,4403.846191,4503.589844,4447.563965,4443.205078,4316.538574,4500.512695,4298.846191,4458.333496,4429.102539,4333.205078,4451.538574,4525.512695,3059.0,0.0,10.0,1024.0,23827.0,,,,0.0,4.0,4.0,4.0,4.0,4.0,4.0,4.0,4.0,4.0,4.0,4.0,4.0,4.0,4.0,4.0,4.0,4.0,4.0,4.0,4.0,4.0,4.0,4.0,4.0,4.0,4.0,4.0,4.0,4.0,4.0,4.0,4.0,100.0,,,,,,,,,,,,,,,,,,,,,,,,,,,,,,,,,,,,,,,,,,,,,,,,,,,,,,,,,,,,,,,,,,,,,,,,,,,,,,,,,,,,,,,,,,,,,,,,,,,,,,,,,,,,,,,,,,,,,,,,,,,,,,,,,,,,,,,,,,,,,,,,,,,,,,,,,,,,,,,,,,,,,,,,,,,,,,,,,,,,,,,,,,,,,,,,,,,,,,,,,,,,,,
1763976072.933805,37759.0,0.0,4240.384766,4251.282227,4459.743652,4441.153809,4297.563965,4405.769043,4395.0,4299.230957,4481.025879,4175.384766,4298.846191,4358.077148,4396.025879,4193.717773,4230.769043,4375.128418,4402.692383,4423.846191,4406.410156,4231.025879,4242.436035,4454.358887,4361.153809,4392.820313,4272.692383,4417.436035,4230.641113,4389.230957,4356.538574,4260.384766,4366.794922,4455.128418,2996.0,0.0,10.0,1024.0,23827.0,,,,0.0,4.0,4.0,4.0,4.0,4.0,4.0,4.0,4.0,4.0,4.0,4.0,4.0,4.0,4.0,4.0,4.0,4.0,4.0,4.0,4.0,4.0,4.0,4.0,4.0,4.0,4.0,4.0,4.0,4.0,4.0,4.0,4.0,100.0,,,,,,,,,,,,,,,,,,,,,,,,,,,,,,,,,,,,,,,,,,,,,,,,,,,,,,,,,,,,,,,,,,,,,,,,,,,,,,,,,,,,,,,,,,,,,,,,,,,,,,,,,,,,,,,,,,,,,,,,,,,,,,,,,,,,,,,,,,,,,,,,,,,,,,,,,,,,,,,,,,,,,,,,,,,,,,,,,,,,,,,,,,,,,,,,,,,,,,,,,,,,,,
1763976072.937711,37760.0,0.0,4198.846191,4210.769043,4399.743652,4394.487305,4265.897461,4375.512695,4360.769043,4252.05127,4454.358887,4122.05127,4266.922852,4309.358887,4337.692383,4136.922852,4182.179688,4292.307617,4338.333496,4316.666504,4249.615234,4185.769043,4099.487305,4422.94873,4313.461426,4351.025879,4241.666504,4367.436035,4198.717773,4372.307617,4323.461426,4223.333496,4319.743652,4405.384766,2856.0,0.0,10.0,1280.0,23834.0,,,,0.0,4.0,4.0,4.0,4.0,4.0,4.0,4.0,4.0,4.0,4.0,4.0,4.0,4.0,4.0,4.0,4.0,4.0,4.0,4.0,4.0,4.0,4.0,4.0,4.0,4.0,4.0,4.0,4.0,4.0,4.0,4.0,4.0,100.0,,,,,,,,,,,,,,,,,,,,,,,,,,,,,,,,,,,,,,,,,,,,,,,,,,,,,,,,,,,,,,,,,,,,,,,,,,,,,,,,,,,,,,,,,,,,,,,,,,,,,,,,,,,,,,,,,,,,,,,,,,,,,,,,,,,,,,,,,,,,,,,,,,,,,,,,,,,,,,,,,,,,,,,,,,,,,,,,,,,,,,,,,,,,,,,,,,,,,,,,,,,,,,
1763976072.941617,37761.0,0.0,4212.05127,4220.897461,4393.717773,4385.512695,4273.974121,4388.077148,4385.641113,4239.743652,4477.436035,4184.102539,4328.461426,4322.692383,4360.256348,4134.358887,4166.538574,4257.179688,4334.615234,4284.743652,4208.589844,4192.307617,4087.564209,4421.282227,4325.256348,4327.436035,4232.436035,4374.358887,4210.256348,4401.538574,4342.307617,4238.846191,4332.94873,4404.871582,2820.0,0.0,10.0,1280.0,23834.0,,,,0.0,4.0,4.0,4.0,4.0,4.0,4.0,4.0,4.0,4.0,4.0,4.0,4.0,4.0,4.0,4.0,4.0,4.0,4.0,4.0,4.0,4.0,4.0,4.0,4.0,4.0,4.0,4.0,4.0,4.0,4.0,4.0,4.0,100.0,,,,,,,,,,,,,,,,,,,,,,,,,,,,,,,,,,,9440.0,0.0,0.251431,0.770142,0.473938,0.345032,0.929313,-0.347699,-0.146991,36.166668,-22.833334,31.833334,,,,,,,,,,,,,,,,,,,,,,,,,,,,,,,,,,,,,,,,,,,,,,,,,,,,,,,,,,,,,,,,,,,,,,,,,,,,,,,,,,,,,,,,,,,,,,,,,,,,,,,,,,,,,,,,,,,,,,,,,,,,,,,,,,,,,,,,,,,,,,,,,,,,,,,,,,,,,,,,
1763976072.945523,37762.0,0.0,4258.717773,4264.230957,4435.512695,4410.384766,4308.461426,4426.282227,4438.717773,4259.102539,4525.897461,4309.358887,4420.512695,4376.153809,4431.538574,4191.794922,4195.897461,4296.410156,4382.05127,4342.820313,4295.897461,4244.871582,4216.538574,4439.743652,4373.717773,4319.358887,4242.307617,4424.358887,4245.769043,4440.897461,4387.820313,4285.897461,4389.102539,4444.358887,2301.0,0.0,10.0,1536.0,23842.0,,,,0.0,4.0,4.0,4.0,4.0,4.0,4.0,4.0,4.0,4.0,4.0,4.0,4.0,4.0,4.0,4.0,4.0,4.0,4.0,4.0,4.0,4.0,4.0,4.0,4.0,4.0,4.0,4.0,4.0,4.0,4.0,4.0,4.0,100.0,,,,,,,,,,,,,,,,,,,,,,,,,,,,,,,,,,,,,,,,,,,,,,,,,,,,,,,,,,,,,,,,,,,,,,,,,,,,,,,,,,,,,,,,,,,,,,,,,,,,,,,,,,,,,,,,,,,,,,,,,,,,,,,,,,,,,,,,,,,,,,,,,,,,,,,,,,,,,,,,,,,,,,,,,,,,,,,,,,,,,,,,,,,,,,,,,,,,,,,,,,,,,,
1763976072.949429,37763.0,0.0,4300.0,4304.743652,4488.077148,4448.333496,4341.410156,4458.589844,4471.538574,4290.256348,4563.846191,4405.897461,4460.897461,4423.205078,4487.692383,4285.384766,4256.153809,4386.794922,4439.102539,4441.025879,4427.05127,4307.05127,4381.794922,4460.256348,4417.692383,4329.743652,4264.615234,4481.666504,4281.025879,4460.512695,4423.846191,4328.717773,4449.743652,4490.384766,2972.0,0.0,10.0,1536.0,23842.0,,,,0.0,4.0,4.0,4.0,4.0,4.0,4.0,4.0,4.0,4.0,4.0,4.0,4.0,4.0,4.0,4.0,4.0,4.0,4.0,4.0,4.0,4.0,4.0,4.0,4.0,4.0,4.0,4.0,4.0,4.0,4.0,4.0,4.0,100.0,,,,,,,,,,,,,,,,,,,,,,,,,,,,,,,,,,,,,,,,,,,,,,,,,,,,,,,,,,,,,,,,,,,,,,,,,,,,,,,,,,,,,,,,,,,,,,,,,,,,,,,,,,,,,,,,,,,,,,,,,,,,,,,,,,,,,,,,,,,,,,,,,,,,,,,,,,,,,,,,,,,,,,,,,,,,,,,,,,,,,,,,,,,,,,,,,,,,,,,,,,,,,,
1763976072.953335,37764.0,0.0,4309.102539,4316.410156,4514.102539,4476.025879,4352.563965,4464.615234,4461.025879,4311.025879,4569.487305,4410.641113,4419.102539,4431.538574,4488.333496,4365.0,4312.436035,4466.282227,4464.743652,4504.230957,4492.692383,4339.871582,4450.897461,4470.0,4430.256348,4363.589844,4288.717773,4512.05127,4301.410156,4457.436035,4429.871582,4341.794922,4480.0,4512.563965,2908.0,0.0,10.0,1792.0,23850.0,,,,0.0,4.0,4.0,4.0,4.0,4.0,4.0,4.0,4.0,4.0,4.0,4.0,4.0,4.0,4.0,4.0,4.0,4.0,4.0,4.0,4.0,4.0,4.0,4.0,4.0,4.0,4.0,4.0,4.0,4.0,4.0,4.0,4.0,100.0,,,,,,,,,,,,,,,,,,,,,,,,,,,,,,,,,,,,,,,,,,,,,,,,,,,,,,,,,,,,,,,,,,,,,,,,,,,,,,,,,,,,,,,,,,,,,,,,,,,,,,,,,,,,,,,,,,,,,,,,,,,,,,,,,,,,,,,,,,,,,,,,,,,,,,,,,,,,,,,,,,,,,,,,,,,,,,,,,,,,,,,,,,,,,,,,,,,,,,,,,,,,,,
1763976072.957241,37765.0,0.0,4288.589844,4298.461426,4503.077148,4480.897461,4340.897461,4448.077148,4425.769043,4312.563965,4547.563965,4331.794922,4340.384766,4404.871582,4444.615234,4380.128418,4329.102539,4476.538574,4447.820313,4488.077148,4446.794922,4328.717773,4375.384766,4468.717773,4413.077148,4412.820313,4304.358887,4502.692383,4302.820313,4446.922852,4411.282227,4324.102539,4466.538574,4503.589844,2389.0,0.0,10.0,1792.0,23850.0,,,,0.0,4.0,4.0,4.0,4.0,4.0,4.0,4.0,4.0,4.0,4.0,4.0,4.0,4.0,4.0,4.0,4.0,4.0,4.0,4.0,4.0,4.0,4.0,4.0,4.0,4.0,4.0,4.0,4.0,4.0,4.0,4.0,4.0,100.0,,,,,,,,,,,,,,,,,,,,,,,,,,,,,,,,,,,9441.0,0.0,0.254929,0.77124,0.469055,0.34668,0.95666,-0.376511,-0.123062,36.166668,-22.833334,32.666668,,,,,,,,,,,,,,,,,,,,,,,,,,,,,,,,,,,,,,,,,,,,,,,,,,,,,,,,,,,,,,,,,,,,,,,,,,,,,,,,,,,,,,,,,,,,,,,,,,,,,,,,,,,,,,,,,,,,,,,,,,,,,,,,,,,,,,,,,,,,,,,,,,,,,,,,,,,,,,,,
1763976072.961147,37766.0,0.0,4262.179688,4270.769043,4472.436035,4467.820313,4320.256348,4429.230957,4404.743652,4301.282227,4522.05127,4237.563965,4301.282227,4373.589844,4403.077148,4315.512695,4295.256348,4406.794922,4409.615234,4410.0,4338.077148,4290.641113,4228.077148,4463.589844,4388.205078,4449.871582,4307.820313,4466.922852,4288.846191,4443.461426,4388.333496,4293.461426,4423.717773,4478.846191,2992.0,0.0,10.0,2048.0,23858.0,,,,0.0,4.0,4.0,4.0,4.0,4.0,4.0,4.0,4.0,4.0,4.0,4.0,4.0,4.0,4.0,4.0,4.0,4.0,4.0,4.0,4.0,4.0,4.0,4.0,4.0,4.0,4.0,4.0,4.0,4.0,4.0,4.0,4.0,100.0,,,,,,,,,,,,,,,,,,,,,,,,,,,,,,,,,,,,,,,,,,,,,,,,,,,,,,,,,,,,,,,,,,,,,,,,,,,,,,,,,,,,,,,,,,,,,,,,,,,,,,,,,,,,,,,,,,,,,,,,,,,,,,,,,,,,,,,,,,,,,,,,,,,,,,,,,,,,,,,,,,,,,,,,,,,,,,,,,,,,,,,,,,,,,,,,,,,,,,,,,,,,,,
1763976072.965053,37767.0,0.0,4251.794922,4253.589844,4447.94873,4450.641113,4305.256348,4423.846191,4418.333496,4287.94873,4514.230957,4196.025879,4335.641113,4364.230957,4398.717773,4211.538574,4235.0,4303.205078,4382.179688,4331.282227,4259.230957,4257.05127,4137.307617,4459.358887,4374.871582,4441.922852,4301.153809,4432.307617,4267.05127,4446.410156,4376.794922,4271.153809,4381.794922,4459.743652,2960.0,0.0,10.0,2048.0,23858.0,,,,0.0,4.0,4.0,4.0,4.0,4.0,4.0,4.0,4.0,4.0,4.0,4.0,4.0,4.0,4.0,4.0,4.0,4.0,4.0,4.0,4.0,4.0,4.0,4.0,4.0,4.0,4.0,4.0,4.0,4.0,4.0,4.0,4.0,100.0,,,,,,,,,,,,,,,,,,,,,,,,,,,,,,,,,,,,,,,,,,,,,,,,,,,,,,,,,,,,,,,,,,,,,,,,,,,,,,,,,,,,,,,,,,,,,,,,,,,,,,,,,,,,,,,,,,,,,,,,,,,,,,,,,,,,,,,,,,,,,,,,,,,,,,,,,,,,,,,,,,,,,,,,,,,,,,,,,,,,,,,,,,,,,,,,,,,,,,,,,,,,,,
1763976072.968959,37768.0,0.0,4259.102539,4252.307617,4441.538574,4438.589844,4300.769043,4429.871582,4449.230957,4275.641113,4523.589844,4218.333496,4404.358887,4376.410156,4424.230957,4140.384766,4191.025879,4235.512695,4380.641113,4304.743652,4265.512695,4248.846191,4177.820313,4455.128418,4374.487305,4379.487305,4285.512695,4421.153809,4246.153809,4443.461426,4377.436035,4266.025879,4366.025879,4455.384766,2657.0,0.0,10.0,2304.0,23866.0,,,,0.0,4.0,4.0,4.0,4.0,4.0,4.0,4.0,4.0,4.0,4.0,4.0,4.0,4.0,4.0,4.0,4.0,4.0,4.0,4.0,4.0,4.0,4.0,4.0,4.0,4.0,4.0,4.0,4.0,4.0,4.0,4.0,4.0,100.0,,,,,,,,,,,,,,,,,,,,,,,,,,,,,,,,,,,,,,,,,,,,,,,13.35822,6.50432,24.309784,33.969868,37.382973,20.373837,8.507012,31.066111,33.173153,33.490601,23.514093,11.622295,34.573036,35.850021,36.405579,25.820923,12.438407,34.638813,37.014957,42.238514,12.680822,6.974061,22.229563,24.872452,25.842962,12.474637,4.411149,17.828625,22.278206,26.35392,18.588736,7.113998,25.74365,44.030796,62.859352,24.092756,13.873983,38.67807,45.797638,55.173279,22.02887,8.993753,30.575294,34.406887,43.605705,21.999142,6.256916,25.143869,69.283096,85.864113,16.931635,6.321466,32.769081,70.517975,145.72673,13.498977,4.840322,21.159229,35.661964,42.187859,12.000817,3.784629,22.82361,49.682476,68.402321,3.292884,9.130882,10.623004,14.438693,51.676498,11.391721,8.717703,19.702909,19.452314,15.506942,7.275311,11.054675,15.506166,17.724825,33.872723,9.839047,3.629337,16.110636,29.972088,29.713585,4.667916,4.453093,12.820835,22.191088,23.010475,6.08131,5.752312,20.241394,23.344385,34.588837,25.963074,28.941326,34.920258,22.4016,20.79422,10.603677,15.355565,29.702608,21.196949,105.253792,5.892508,1.923126,7.49948,14.189653,15.368618,15.581467,6.127712,26.052237,43.682377,44.845081,20.925205,9.727813,48.001511,67.165512,107.028259,26.707657,13.774755,56.198666,52.955582,86.47258,25.539532,20.748613,42.663601,39.047974,39.143539,24.612106,14.751878,45.552246,54.619556,57.711788,18.29384,9.515553,32.829243,53.606098,62.842937,21.130959,7.928057,28.89176,38.305573,38.867317,23.129248,11.997426,36.675785,39.27198,35.914543,26.028376,16.234034,44.368969,43.340336,40.666489,23.792824,12.174962,34.080608,36.60001,32.530807
1763976072.972865,37769.0,0.0,4270.512695,4260.256348,4449.615234,4430.641113,4304.102539,4435.128418,4463.846191,4263.461426,4533.717773,4260.897461,4438.846191,4390.256348,4444.230957,4151.410156,4191.922852,4244.358887,4396.922852,4336.538574,4334.487305,4263.974121,4310.897461,4448.846191,4377.563965,4295.769043,4263.205078,4437.94873,4234.615234,4428.589844,4381.794922,4274.743652,4382.307617,4461.922852,2855.0,0.0,10.0,2304.0,23866.0,,,,0.0,4.0,4.0,4.0,4.0,4.0,4.0,4.0,4.0,4.0,4.0,4.0,4.0,4.0,4.0,4.0,4.0,4.0,4.0,4.0,4.0,4.0,4.0,4.0,4.0,4.0,4.0,4.0,4.0,4.0,4.0,4.0,4.0,100.0,,,,,,,,,,,,,,,,,,,,,,,,,,,,,,,,,,,9442.0,0.0,0.255038,0.772217,0.466797,0.347473,0.957636,-0.469784,-0.120132,36.333332,-22.666666,30.833334,,,,,,,,,,,,,,,,,,,,,,,,,,,,,,,,,,,,,,,,,,,,,,,,,,,,,,,,,,,,,,,,,,,,,,,,,,,,,,,,,,,,,,,,,,,,,,,,,,,,,,,,,,,,,,,,,,,,,,,,,,,,,,,,,,,,,,,,,,,,,,,,,,,,,,,,,,,,,,,,
1763976072.976771,37770.0,0.0,4276.025879,4271.410156,4463.589844,4424.615234,4313.077148,4433.589844,4448.333496,4257.563965,4534.487305,4280.897461,4413.077148,4391.922852,4438.333496,4231.922852,4230.512695,4312.307617,4414.615234,4388.846191,4396.538574,4285.256348,4420.641113,4443.717773,4380.384766,4252.563965,4243.846191,4472.179688,4241.153809,4413.333496,4386.922852,4290.256348,4417.820313,4473.333496,2711.0,0.0,10.0,2048.0,23873.0,,,,0.0,4.0,4.0,4.0,4.0,4.0,4.0,4.0,4.0,4.0,4.0,4.0,4.0,4.0,4.0,4.0,4.0,4.0,4.0,4.0,4.0,4.0,4.0,4.0,4.0,4.0,4.0,4.0,4.0,4.0,4.0,4.0,4.0,100.0,,,,,,,,,,,,,,,,,,,,,,,,,,,,,,,,,,,,,,,,,,,,,,,,,,,,,,,,,,,,,,,,,,,,,,,,,,,,,,,,,,,,,,,,,,,,,,,,,,,,,,,,,,,,,,,,,,,,,,,,,,,,,,,,,,,,,,,,,,,,,,,,,,,,,,,,,,,,,,,,,,,,,,,,,,,,,,,,,,,,,,,,,,,,,,,,,,,,,,,,,,,,,,
1763976072.980677,37771.0,0.0,4279.487305,4286.410156,4480.256348,4424.871582,4329.358887,4432.05127,4423.333496,4271.025879,4533.077148,4280.769043,4367.692383,4387.820313,4422.179688,4316.153809,4270.897461,4380.128418,4425.641113,4417.307617,4400.512695,4295.0,4411.410156,4446.922852,4389.871582,4294.487305,4242.179688,4507.307617,4269.871582,4418.717773,4398.589844,4308.717773,4454.358887,4488.846191,2993.0,0.0,10.0,2048.0,23873.0,,,,0.0,4.0,4.0,4.0,4.0,4.0,4.0,4.0,4.0,4.0,4.0,4.0,4.0,4.0,4.0,4.0,4.0,4.0,4.0,4.0,4.0,4.0,4.0,4.0,4.0,4.0,4.0,4.0,4.0,4.0,4.0,4.0,4.0,100.0,,,,,,,,,,,,,,,,,,,,,,,,,,,,,,,,,,,,,,,,,,,,,,,,,,,,,,,,,,,,,,,,,,,,,,,,,,,,,,,,,,,,,,,,,,,,,,,,,,,,,,,,,,,,,,,,,,,,,,,,,,,,,,,,,,,,,,,,,,,,,,,,,,,,,,,,,,,,,,,,,,,,,,,,,,,,,,,,,,,,,,,,,,,,,,,,,,,,,,,,,,,,,,
1763976072.984583,37772.0,0.0,4289.358887,4305.128418,4496.922852,4437.563965,4350.256348,4439.230957,4420.128418,4307.436035,4541.538574,4289.871582,4361.922852,4392.05127,4424.230957,4335.641113,4276.666504,4394.487305,4431.282227,4404.487305,4351.282227,4284.358887,4283.205078,4460.897461,4410.897461,4403.974121,4265.769043,4528.589844,4311.410156,4451.153809,4420.0,4327.179688,4477.563965,4507.94873,2947.0,0.0,10.0,2048.0,23881.0,,,,0.0,4.0,4.0,4.0,4.0,4.0,4.0,4.0,4.0,4.0,4.0,4.0,4.0,4.0,4.0,4.0,4.0,4.0,4.0,4.0,4.0,4.0,4.0,4.0,4.0,4.0,4.0,4.0,4.0,4.0,4.0,4.0,4.0,100.0,,,,,,,,,,,,,,,,,,,,,,,,,,,,,,,,,,,,,,,,,,,,,,,,,,,,,,,,,,,,,,,,,,,,,,,,,,,,,,,,,,,,,,,,,,,,,,,,,,,,,,,,,,,,,,,,,,,,,,,,,,,,,,,,,,,,,,,,,,,,,,,,,,,,,,,,,,,,,,,,,,,,,,,,,,,,,,,,,,,,,,,,,,,,,,,,,,,,,,,,,,,,,,
1763976072.988489,37773.0,0.0,4301.538574,4318.461426,4505.769043,4457.179688,4363.333496,4451.153809,4443.974121,4346.922852,4554.871582,4313.846191,4406.922852,4404.358887,4447.692383,4269.743652,4238.205078,4347.563965,4431.282227,4363.846191,4292.179688,4254.743652,4126.922852,4474.871582,4431.153809,4501.666504,4302.692383,4524.743652,4340.641113,4489.102539,4439.230957,4336.666504,4478.974121,4520.384766,2632.0,0.0,10.0,2048.0,23881.0,,,,0.0,4.0,4.0,4.0,4.0,4.0,4.0,4.0,4.0,4.0,4.0,4.0,4.0,4.0,4.0,4.0,4.0,4.0,4.0,4.0,4.0,4.0,4.0,4.0,4.0,4.0,4.0,4.0,4.0,4.0,4.0,4.0,4.0,100.0,,,,,,,,,,,,,,,,,,,,,,,,,,,,,,,,,,,9443.0,0.0,0.254517,0.773071,0.465027,0.348328,0.957636,-0.469784,-0.120132,37.5,-23.5,31.666666,,,,,,,,,,,,,,,,,,,,,,,,,,,,,,,,,,,,,,,,,,,,,,,,,,,,,,,,,,,,,,,,,,,,,,,,,,,,,,,,,,,,,,,,,,,,,,,,,,,,,,,,,,,,,,,,,,,,,,,,,,,,,,,,,,,,,,,,,,,,,,,,,,,,,,,,,,,,,,,,
1763976072.992395,37774.0,0.0,4299.230957,4311.794922,4495.769043,4465.512695,4352.820313,4451.794922,4467.05127,4356.538574,4551.794922,4320.256348,4451.410156,4406.282227,4462.05127,4165.0,4180.0,4279.871582,4418.846191,4323.589844,4263.717773,4216.922852,4051.923096,4471.794922,4426.794922,4503.077148,4325.128418,4490.897461,4330.0,4495.769043,4435.769043,4325.128418,4454.743652,4510.769043,2715.0,0.0,10.0,2304.0,23889.0,,,,0.0,4.0,4.0,4.0,4.0,4.0,4.0,4.0,4.0,4.0,4.0,4.0,4.0,4.0,4.0,4.0,4.0,4.0,4.0,4.0,4.0,4.0,4.0,4.0,4.0,4.0,4.0,4.0,4.0,4.0,4.0,4.0,4.0,100.0,,,,,,,,,,,,,,,,,,,,,,,,,,,,,,,,,,,,,,,,,,,,,,,,,,,,,,,,,,,,,,,,,,,,,,,,,,,,,,,,,,,,,,,,,,,,,,,,,,,,,,,,,,,,,,,,,,,,,,,,,,,,,,,,,,,,,,,,,,,,,,,,,,,,,,,,,,,,,,,,,,,,,,,,,,,,,,,,,,,,,,,,,,,,,,,,,,,,,,,,,,,,,,
1763976072.996301,37775.0,0.0,4271.538574,4281.794922,4465.897461,4449.487305,4317.436035,4431.153809,4457.179688,4320.256348,4520.256348,4281.666504,4433.974121,4382.307617,4437.692383,4102.94873,4144.615234,4247.94873,4391.410156,4308.205078,4280.0,4189.230957,4106.666504,4444.871582,4388.333496,4392.820313,4310.769043,4436.410156,4275.641113,4453.333496,4401.794922,4290.769043,4410.897461,4475.384766,2833.0,0.0,10.0,2304.0,23889.0,,,,0.0,4.0,4.0,4.0,4.0,4.0,4.0,4.0,4.0,4.0,4.0,4.0,4.0,4.0,4.0,4.0,4.0,4.0,4.0,4.0,4.0,4.0,4.0,4.0,4.0,4.0,4.0,4.0,4.0,4.0,4.0,4.0,4.0,100.0,,,,,,,,,,,,,,,,,,,,,,,,,,,,,,,,,,,,,,,,,,,,,,,,,,,,,,,,,,,,,,,,,,,,,,,,,,,,,,,,,,,,,,,,,,,,,,,,,,,,,,,,,,,,,,,,,,,,,,,,,,,,,,,,,,,,,,,,,,,,,,,,,,,,,,,,,,,,,,,,,,,,,,,,,,,,,,,,,,,,,,,,,,,,,,,,,,,,,,,,,,,,,,
1763976073.000207,37776.0,0.0,4232.05127,4246.794922,4433.333496,4418.461426,4279.102539,4400.512695,4414.102539,4260.0,4476.922852,4218.077148,4347.94873,4342.05127,4382.179688,4138.461426,4161.410156,4282.179688,4361.794922,4330.0,4331.025879,4188.589844,4247.94873,4409.871582,4336.794922,4246.410156,4264.487305,4388.333496,4207.563965,4384.230957,4356.922852,4252.179688,4368.205078,4434.230957,2941.0,0.0,10.0,1024.0,23897.0,,,,0.0,4.0,4.0,4.0,4.0,4.0,4.0,4.0,4.0,4.0,4.0,4.0,4.0,4.0,4.0,4.0,4.0,4.0,4.0,4.0,4.0,4.0,4.0,4.0,4.0,4.0,4.0,4.0,4.0,4.0,4.0,4.0,4.0,100.0,,,,,,,,,,,,,,,,,,,,,,,,,,,,,,,,,,,,,,,,,,,,,,,,,,,,,,,,,,,,,,,,,,,,,,,,,,,,,,,,,,,,,,,,,,,,,,,,,,,,,,,,,,,,,,,,,,,,,,,,,,,,,,,,,,,,,,,,,,,,,,,,,,,,,,,,,,,,,,,,,,,,,,,,,,,,,,,,,,,,,,,,,,,,,,,,,,,,,,,,,,,,,,
1763976073.004113,37777.0,0.0,4211.410156,4235.512695,4423.589844,4399.615234,4268.333496,4386.282227,4373.077148,4222.307617,4457.05127,4185.128418,4254.871582,4316.794922,4338.846191,4253.589844,4222.94873,4363.077148,4352.94873,4381.153809,4391.538574,4217.179688,4376.153809,4394.615234,4312.05127,4174.487305,4217.05127,4378.333496,4173.974121,4338.846191,4336.794922,4239.102539,4354.487305,4420.512695,3227.0,0.0,10.0,1024.0,23897.0,,,,0.0,4.0,4.0,4.0,4.0,4.0,4.0,4.0,4.0,4.0,4.0,4.0,4.0,4.0,4.0,4.0,4.0,4.0,4.0,4.0,4.0,4.0,4.0,4.0,4.0,4.0,4.0,4.0,4.0,4.0,4.0,4.0,4.0,100.0,,,,,,,,,,,,,,,,,,,,,,,,,,,,,,,,,,,9444.0,0.0,0.253467,0.773682,0.464172,0.348877,0.957148,-0.501038,-0.130387,37.166668,-22.666666,32.0,,,,,,,,,,,,,,,,,,,,,,,,,,,,,,,,,,,,,,,,,,,,,,,,,,,,,,,,,,,,,,,,,,,,,,,,,,,,,,,,,,,,,,,,,,,,,,,,,,,,,,,,,,,,,,,,,,,,,,,,,,,,,,,,,,,,,,,,,,,,,,,,,,,,,,,,,,,,,,,,
1763976073.008019,37778.0,0.0,4230.769043,4261.922852,4449.615234,4413.077148,4297.94873,4406.410156,4373.333496,4239.743652,4481.922852,4218.077148,4231.922852,4332.179688,4348.974121,4371.025879,4287.94873,4436.794922,4378.717773,4435.128418,4430.897461,4257.94873,4407.307617,4416.153809,4339.230957,4235.0,4201.794922,4417.94873,4205.0,4356.025879,4362.436035,4267.820313,4384.871582,4451.666504,2826.0,0.0,10.0,256.0,23905.0,,,,0.0,4.0,4.0,4.0,4.0,4.0,4.0,4.0,4.0,4.0,4.0,4.0,4.0,4.0,4.0,4.0,4.0,4.0,4.0,4.0,4.0,4.0,4.0,4.0,4.0,4.0,4.0,4.0,4.0,4.0,4.0,4.0,4.0,100.0,,,,,,,,,,,,,,,,,,,,,,,,,,,,,,,,,,,,,,,,,,,,,,,,,,,,,,,,,,,,,,,,,,,,,,,,,,,,,,,,,,,,,,,,,,,,,,,,,,,,,,,,,,,,,,,,,,,,,,,,,,,,,,,,,,,,,,,,,,,,,,,,,,,,,,,,,,,,,,,,,,,,,,,,,,,,,,,,,,,,,,,,,,,,,,,,,,,,,,,,,,,,,,
1763976073.011925,37779.0,0.0,4279.230957,4308.974121,4496.153809,4451.538574,4348.589844,4451.025879,4419.871582,4301.025879,4536.282227,4291.794922,4300.384766,4381.410156,4410.769043,4414.743652,4312.436035,4457.179688,4426.153809,4460.769043,4427.05127,4284.487305,4331.282227,4463.077148,4402.820313,4383.205078,4228.846191,4483.589844,4284.871582,4428.461426,4419.615234,4322.307617,4443.333496,4509.871582,2950.0,0.0,10.0,256.0,23905.0,,,,0.0,4.0,4.0,4.0,4.0,4.0,4.0,4.0,4.0,4.0,4.0,4.0,4.0,4.0,4.0,4.0,4.0,4.0,4.0,4.0,4.0,4.0,4.0,4.0,4.0,4.0,4.0,4.0,4.0,4.0,4.0,4.0,4.0,100.0,,,,,,,,,,,,,,,,,,,,,,,,,,,,,,,,,,,,,,,,,,,,,,,,,,,,,,,,,,,,,,,,,,,,,,,,,,,,,,,,,,,,,,,,,,,,,,,,,,,,,,,,,,,,,,,,,,,,,,,,,,,,,,,,,,,,,,,,,,,,,,,,,,,,,,,,,,,,,,,,,,,,,,,,,,,,,,,,,,,,,,,,,,,,,,,,,,,,,,,,,,,,,,
1763976073.015831,37780.0,0.0,4317.692383,4337.692383,4526.410156,4482.179688,4379.615234,4485.769043,4473.461426,4357.05127,4575.641113,4337.307617,4401.282227,4424.743652,4473.717773,4365.897461,4281.410156,4418.333496,4459.871582,4442.563965,4380.897461,4277.94873,4211.666504,4500.256348,4452.94873,4503.589844,4275.641113,4526.922852,4356.794922,4502.94873,4463.846191,4360.128418,4486.410156,4549.102539,3003.0,0.0,10.0,512.0,23912.0,,,,0.0,4.0,4.0,4.0,4.0,4.0,4.0,4.0,4.0,4.0,4.0,4.0,4.0,4.0,4.0,4.0,4.0,4.0,4.0,4.0,4.0,4.0,4.0,4.0,4.0,4.0,4.0,4.0,4.0,4.0,4.0,4.0,4.0,100.0,,,,,,,,,,,,,,,,,,,,,,,,,,,,,,,,,,,,,,,,,,,,,,,,,,,,,,,,,,,,,,,,,,,,,,,,,,,,,,,,,,,,,,,,,,,,,,,,,,,,,,,,,,,,,,,,,,,,,,,,,,,,,,,,,,,,,,,,,,,,,,,,,,,,,,,,,,,,,,,,,,,,,,,,,,,,,,,,,,,,,,,,,,,,,,,,,,,,,,,,,,,,,,
1763976073.019737,37781.0,0.0,4307.94873,4316.922852,4508.974121,4473.717773,4361.153809,4478.589844,4483.077148,4357.94873,4561.538574,4301.794922,4445.512695,4420.512695,4478.846191,4267.563965,4216.153809,4352.692383,4447.179688,4391.538574,4319.102539,4239.615234,4132.94873,4495.256348,4442.436035,4500.128418,4300.256348,4508.846191,4361.282227,4518.333496,4454.102539,4343.461426,4473.461426,4530.384766,2881.0,0.0,10.0,512.0,23912.0,,,,0.0,4.0,4.0,4.0,4.0,4.0,4.0,4.0,4.0,4.0,4.0,4.0,4.0,4.0,4.0,4.0,4.0,4.0,4.0,4.0,4.0,4.0,4.0,4.0,4.0,4.0,4.0,4.0,4.0,4.0,4.0,4.0,4.0,100.0,,,,,,,,,,,,,,,,,,,,,,,,,,,,,,,,,,,9445.0,0.0,0.251876,0.774292,0.463745,0.349243,0.95959,-0.514711,-0.089855,37.666668,-23.166666,32.666668,,,,,,,,,,,,,,,,,,,,,,,,,,,,,,,,,,,,,,,,,,,,,,,,,,,,,,,,,,,,,,,,,,,,,,,,,,,,,,,,,,,,,,,,,,,,,,,,,,,,,,,,,,,,,,,,,,,,,,,,,,,,,,,,,,,,,,,,,,,,,,,,,,,,,,,,,,,,,,,,
1763976073.023643,37782.0,0.0,4247.94873,4251.922852,4446.410156,4423.717773,4300.512695,4429.102539,4433.333496,4295.384766,4495.641113,4199.743652,4396.538574,4364.102539,4413.974121,4185.256348,4156.538574,4301.153809,4388.974121,4338.077148,4277.94873,4191.153809,4140.897461,4446.794922,4369.743652,4374.615234,4274.871582,4433.589844,4286.666504,4455.256348,4388.717773,4273.717773,4403.974121,4457.94873,2937.0,0.0,10.0,768.0,23920.0,,,,0.0,4.0,4.0,4.0,4.0,4.0,4.0,4.0,4.0,4.0,4.0,4.0,4.0,4.0,4.0,4.0,4.0,4.0,4.0,4.0,4.0,4.0,4.0,4.0,4.0,4.0,4.0,4.0,4.0,4.0,4.0,4.0,4.0,100.0,,,,,,,,,,,,,,,,,,,,,,,,,,,,,,,,,,,,,,,,,,,,,,,,,,,,,,,,,,,,,,,,,,,,,,,,,,,,,,,,,,,,,,,,,,,,,,,,,,,,,,,,,,,,,,,,,,,,,,,,,,,,,,,,,,,,,,,,,,,,,,,,,,,,,,,,,,,,,,,,,,,,,,,,,,,,,,,,,,,,,,,,,,,,,,,,,,,,,,,,,,,,,,
1763976073.027549,37783.0,0.0,4180.641113,4187.692383,4379.487305,4366.410156,4241.538574,4373.846191,4364.358887,4214.102539,4424.743652,4110.897461,4307.692383,4298.461426,4333.333496,4160.256348,4134.871582,4284.615234,4326.282227,4315.0,4282.692383,4164.743652,4222.436035,4390.384766,4287.436035,4226.794922,4214.487305,4352.94873,4185.128418,4357.94873,4313.077148,4198.077148,4327.179688,4383.077148,2849.0,0.0,10.0,768.0,23920.0,,,,0.0,4.0,4.0,4.0,4.0,4.0,4.0,4.0,4.0,4.0,4.0,4.0,4.0,4.0,4.0,4.0,4.0,4.0,4.0,4.0,4.0,4.0,4.0,4.0,4.0,4.0,4.0,4.0,4.0,4.0,4.0,4.0,4.0,100.0,,,,,,,,,,,,,,,,,,,,,,,,,,,,,,,,,,,,,,,,,,,,,,,,,,,,,,,,,,,,,,,,,,,,,,,,,,,,,,,,,,,,,,,,,,,,,,,,,,,,,,,,,,,,,,,,,,,,,,,,,,,,,,,,,,,,,,,,,,,,,,,,,,,,,,,,,,,,,,,,,,,,,,,,,,,,,,,,,,,,,,,,,,,,,,,,,,,,,,,,,,,,,,
1763976073.031455,37784.0,0.0,4163.077148,4177.307617,4360.897461,4350.0,4232.436035,4360.641113,4340.769043,4181.538574,4409.615234,4121.922852,4275.384766,4283.205078,4315.641113,4188.846191,4160.512695,4299.871582,4312.563965,4338.846191,4333.589844,4182.692383,4326.410156,4373.205078,4264.102539,4174.871582,4170.512695,4330.897461,4136.025879,4302.94873,4287.820313,4176.538574,4306.666504,4366.025879,2834.0,0.0,10.0,1024.0,23928.0,,,,0.0,4.0,4.0,4.0,4.0,4.0,4.0,4.0,4.0,4.0,4.0,4.0,4.0,4.0,4.0,4.0,4.0,4.0,4.0,4.0,4.0,4.0,4.0,4.0,4.0,4.0,4.0,4.0,4.0,4.0,4.0,4.0,4.0,100.0,,,,,,,,,,,,,,,,,,,,,,,,,,,,,,,,,,,,,,,,,,,,,,,,,,,,,,,,,,,,,,,,,,,,,,,,,,,,,,,,,,,,,,,,,,,,,,,,,,,,,,,,,,,,,,,,,,,,,,,,,,,,,,,,,,,,,,,,,,,,,,,,,,,,,,,,,,,,,,,,,,,,,,,,,,,,,,,,,,,,,,,,,,,,,,,,,,,,,,,,,,,,,,
1763976073.035361,37785.0,0.0,4219.615234,4239.102539,4413.974121,4400.384766,4287.436035,4407.94873,4395.897461,4234.871582,4476.153809,4255.384766,4351.922852,4343.974121,4394.615234,4235.897461,4216.922852,4331.025879,4370.0,4398.589844,4403.205078,4240.0,4395.769043,4415.641113,4328.974121,4263.333496,4191.410156,4392.820313,4184.102539,4339.358887,4340.897461,4233.717773,4368.974121,4427.307617,2818.0,0.0,10.0,1024.0,23928.0,,,,0.0,4.0,4.0,4.0,4.0,4.0,4.0,4.0,4.0,4.0,4.0,4.0,4.0,4.0,4.0,4.0,4.0,4.0,4.0,4.0,4.0,4.0,4.0,4.0,4.0,4.0,4.0,4.0,4.0,4.0,4.0,4.0,4.0,100.0,,,,,,,,,,,,,,,,,,,,,,,,,,,,,,,,,,,9446.0,0.0,0.24849,0.774963,0.463806,0.350098,0.920523,-0.505433,-0.073251,37.5,-22.666666,30.833334,,,,,,,,,,,,,,,,,,,,,,,,,,,,,,,,,,,,,,,,,,,,,,,,,,,,,,,,,,,,,,,,,,,,,,,,,,,,,,,,,,,,,,,,,,,,,,,,,,,,,,,,,,,,,,,,,,,,,,,,,,,,,,,,,,,,,,,,,,,,,,,,,,,,,,,,,,,,,,,,
1763976073.039267,37786.0,0.0,4318.589844,4337.820313,4510.128418,4495.256348,4373.589844,4487.692383,4499.230957,4346.410156,4589.743652,4440.897461,4493.846191,4447.05127,4524.615234,4264.230957,4272.307617,4361.666504,4467.436035,4459.230957,4448.974121,4303.077148,4392.307617,4493.077148,4444.487305,4433.589844,4278.589844,4502.436035,4301.794922,4449.743652,4442.179688,4336.794922,4477.563965,4528.333496,2742.0,0.0,10.0,1280.0,23936.0,,,,0.0,4.0,4.0,4.0,4.0,4.0,4.0,4.0,4.0,4.0,4.0,4.0,4.0,4.0,4.0,4.0,4.0,4.0,4.0,4.0,4.0,4.0,4.0,4.0,4.0,4.0,4.0,4.0,4.0,4.0,4.0,4.0,4.0,100.0,,,,,,,,,,,,,,,,,,,,,,,,,,,,,,,,,,,,,,,,,,,,,,,,,,,,,,,,,,,,,,,,,,,,,,,,,,,,,,,,,,,,,,,,,,,,,,,,,,,,,,,,,,,,,,,,,,,,,,,,,,,,,,,,,,,,,,,,,,,,,,,,,,,,,,,,,,,,,,,,,,,,,,,,,,,,,,,,,,,,,,,,,,,,,,,,,,,,,,,,,,,,,,
1763976073.043173,37787.0,0.0,4393.077148,4408.461426,4586.922852,4573.974121,4432.94873,4543.974121,4577.94873,4438.846191,4674.230957,4554.615234,4594.871582,4522.179688,4613.205078,4258.589844,4296.794922,4381.025879,4540.384766,4483.077148,4440.128418,4329.102539,4314.487305,4552.820313,4532.436035,4571.794922,4380.0,4585.512695,4408.333496,4560.641113,4523.589844,4417.179688,4557.179688,4599.230957,2966.0,0.0,10.0,1280.0,23936.0,,,,0.0,4.0,4.0,4.0,4.0,4.0,4.0,4.0,4.0,4.0,4.0,4.0,4.0,4.0,4.0,4.0,4.0,4.0,4.0,4.0,4.0,4.0,4.0,4.0,4.0,4.0,4.0,4.0,4.0,4.0,4.0,4.0,4.0,100.0,,,,,,,,,,,,,,,,,,,,,,,,,,,,,,,,,,,,,,,,,,,,,,,,,,,,,,,,,,,,,,,,,,,,,,,,,,,,,,,,,,,,,,,,,,,,,,,,,,,,,,,,,,,,,,,,,,,,,,,,,,,,,,,,,,,,,,,,,,,,,,,,,,,,,,,,,,,,,,,,,,,,,,,,,,,,,,,,,,,,,,,,,,,,,,,,,,,,,,,,,,,,,,
1763976073.047079,37788.0,0.0,4390.897461,4403.077148,4591.410156,4579.358887,4424.102539,4536.153809,4573.846191,4443.333496,4666.538574,4505.0,4571.922852,4516.025879,4593.846191,4231.666504,4279.230957,4384.871582,4538.974121,4454.871582,4382.179688,4297.94873,4204.487305,4553.333496,4531.794922,4592.05127,4425.512695,4584.358887,4428.589844,4595.641113,4528.333496,4420.0,4550.128418,4591.025879,1437.0,0.0,10.0,1536.0,23944.0,,,,0.0,4.0,4.0,4.0,4.0,4.0,4.0,4.0,4.0,4.0,4.0,4.0,4.0,4.0,4.0,4.0,4.0,4.0,4.0,4.0,4.0,4.0,4.0,4.0,4.0,4.0,4.0,4.0,4.0,4.0,4.0,4.0,4.0,100.0,,,,,,,,,,,,,,,,,,,,,,,,,,,,,,,,,,,,,,,,,,,,,,,,,,,,,,,,,,,,,,,,,,,,,,,,,,,,,,,,,,,,,,,,,,,,,,,,,,,,,,,,,,,,,,,,,,,,,,,,,,,,,,,,,,,,,,,,,,,,,,,,,,,,,,,,,,,,,,,,,,,,,,,,,,,,,,,,,,,,,,,,,,,,,,,,,,,,,,,,,,,,,,
1763976073.050985,37789.0,0.0,4312.436035,4325.256348,4518.974121,4501.666504,4352.05127,4468.846191,4486.666504,4352.94873,4564.743652,4304.743652,4433.333496,4431.922852,4477.692383,4209.358887,4233.717773,4374.487305,4465.128418,4394.102539,4317.05127,4227.307617,4128.717773,4494.743652,4443.717773,4489.615234,4379.487305,4499.743652,4347.94873,4530.769043,4452.820313,4343.846191,4460.0,4511.025879,2524.0,0.0,10.0,1536.0,23944.0,,,,0.0,4.0,4.0,4.0,4.0,4.0,4.0,4.0,4.0,4.0,4.0,4.0,4.0,4.0,4.0,4.0,4.0,4.0,4.0,4.0,4.0,4.0,4.0,4.0,4.0,4.0,4.0,4.0,4.0,4.0,4.0,4.0,4.0,100.0,,,,,,,,,,,,,,,,,,,,,,,,,,,,,,,,,,,9447.0,0.0,0.246949,0.775208,0.463806,0.350647,0.888292,-0.531315,-0.062019,38.166668,-23.166666,30.166666,,,,,,,,,,,,,,,,,,,,,,,,,,,,,,,,,,,,,,,,,,,,,,,,,,,,,,,,,,,,,,,,,,,,,,,,,,,,,,,,,,,,,,,,,,,,,,,,,,,,,,,,,,,,,,,,,,,,,,,,,,,,,,,,,,,,,,,,,,,,,,,,,,,,,,,,,,,,,,,,
1763976073.054891,37790.0,0.0,4210.512695,4227.179688,4416.794922,4389.487305,4263.717773,4387.820313,4373.205078,4227.436035,4434.358887,4073.333252,4270.384766,4327.05127,4343.077148,4208.974121,4190.512695,4356.410156,4370.128418,4340.897461,4291.282227,4161.410156,4132.563965,4418.205078,4329.487305,4338.205078,4268.333496,4389.615234,4223.589844,4411.410156,4347.820313,4240.897461,4349.871582,4415.512695,2995.0,0.0,10.0,1792.0,23952.0,,,,0.0,4.0,4.0,4.0,4.0,4.0,4.0,4.0,4.0,4.0,4.0,4.0,4.0,4.0,4.0,4.0,4.0,4.0,4.0,4.0,4.0,4.0,4.0,4.0,4.0,4.0,4.0,4.0,4.0,4.0,4.0,4.0,4.0,100.0,,,,,,,,,,,,,,,,,,,,,,,,,,,,,,,,,,,,,,,,,,,,,,,,,,,,,,,,,,,,,,,,,,,,,,,,,,,,,,,,,,,,,,,,,,,,,,,,,,,,,,,,,,,,,,,,,,,,,,,,,,,,,,,,,,,,,,,,,,,,,,,,,,,,,,,,,,,,,,,,,,,,,,,,,,,,,,,,,,,,,,,,,,,,,,,,,,,,,,,,,,,,,,
1763976073.058797,37791.0,0.0,4152.179688,4173.077148,4352.05127,4317.436035,4216.153809,4346.282227,4305.769043,4148.461426,4362.436035,3960.897461,4187.05127,4269.743652,4276.025879,4229.743652,4177.179688,4341.666504,4317.179688,4327.94873,4319.743652,4139.871582,4206.282227,4375.256348,4266.410156,4236.794922,4164.743652,4327.820313,4143.333496,4320.641113,4284.102539,4180.897461,4297.563965,4368.974121,3049.0,0.0,10.0,1792.0,23952.0,,,,0.0,4.0,4.0,4.0,4.0,4.0,4.0,4.0,4.0,4.0,4.0,4.0,4.0,4.0,4.0,4.0,4.0,4.0,4.0,4.0,4.0,4.0,4.0,4.0,4.0,4.0,4.0,4.0,4.0,4.0,4.0,4.0,4.0,100.0,,,,,,,,,,,,,,,,,,,,,,,,,,,,,,,,,,,,,,,,,,,,,,,,,,,,,,,,,,,,,,,,,,,,,,,,,,,,,,,,,,,,,,,,,,,,,,,,,,,,,,,,,,,,,,,,,,,,,,,,,,,,,,,,,,,,,,,,,,,,,,,,,,,,,,,,,,,,,,,,,,,,,,,,,,,,,,,,,,,,,,,,,,,,,,,,,,,,,,,,,,,,,,
1763976073.062703,37792.0,0.0,4172.94873,4196.025879,4366.153809,4333.333496,4237.692383,4368.717773,4323.333496,4162.05127,4395.384766,4043.205078,4227.307617,4293.717773,4311.794922,4257.307617,4200.897461,4340.0,4338.333496,4358.846191,4376.282227,4171.794922,4292.563965,4392.179688,4294.358887,4244.615234,4136.153809,4352.94873,4163.461426,4322.05127,4303.077148,4204.358887,4338.974121,4400.769043,2771.0,0.0,10.0,2048.0,23959.0,,,,0.0,4.0,4.0,4.0,4.0,4.0,4.0,4.0,4.0,4.0,4.0,4.0,4.0,4.0,4.0,4.0,4.0,4.0,4.0,4.0,4.0,4.0,4.0,4.0,4.0,4.0,4.0,4.0,4.0,4.0,4.0,4.0,4.0,100.0,,,,,,,,,,,,,,,,,,,,,,,,,,,,,,,,,,,,,,,,,,,,,,,,,,,,,,,,,,,,,,,,,,,,,,,,,,,,,,,,,,,,,,,,,,,,,,,,,,,,,,,,,,,,,,,,,,,,,,,,,,,,,,,,,,,,,,,,,,,,,,,,,,,,,,,,,,,,,,,,,,,,,,,,,,,,,,,,,,,,,,,,,,,,,,,,,,,,,,,,,,,,,,
1763976073.066609,37793.0,0.0,4255.897461,4277.94873,4447.179688,4423.974121,4310.769043,4437.179688,4409.871582,4252.179688,4507.05127,4267.692383,4354.871582,4378.333496,4418.461426,4276.025879,4244.487305,4353.846191,4415.256348,4409.615234,4420.512695,4232.436035,4334.487305,4452.05127,4390.769043,4343.333496,4195.256348,4441.410156,4267.179688,4413.974121,4389.871582,4293.461426,4442.05127,4485.769043,2663.0,0.0,10.0,2048.0,23959.0,,,,0.0,4.0,4.0,4.0,4.0,4.0,4.0,4.0,4.0,4.0,4.0,4.0,4.0,4.0,4.0,4.0,4.0,4.0,4.0,4.0,4.0,4.0,4.0,4.0,4.0,4.0,4.0,4.0,4.0,4.0,4.0,4.0,4.0,100.0,,,,,,,,,,,,,,,,,,,,,,,,,,,,,,,,,,,9448.0,0.0,0.245722,0.775269,0.464355,0.350647,0.881944,-0.513735,-0.033207,36.166668,-24.0,31.833334,,,,,,,,,,,,,,,,,,,,,,,,,,,,,,,,,,,,,,,,,,,,,,,,,,,,,,,,,,,,,,,,,,,,,,,,,,,,,,,,,,,,,,,,,,,,,,,,,,,,,,,,,,,,,,,,,,,,,,,,,,,,,,,,,,,,,,,,,,,,,,,,,,,,,,,,,,,,,,,,
1763976073.070515,37794.0,0.0,4343.846191,4362.179688,4538.077148,4525.0,4384.230957,4504.615234,4506.282227,4356.538574,4620.512695,4488.846191,4482.820313,4465.384766,4523.205078,4278.333496,4278.333496,4376.153809,4494.615234,4447.563965,4430.0,4283.846191,4318.461426,4509.871582,4487.563965,4454.871582,4292.05127,4526.153809,4376.282227,4529.230957,4483.333496,4384.743652,4529.487305,4563.077148,2234.0,0.0,10.0,2304.0,23967.0,,,,0.0,4.0,4.0,4.0,4.0,4.0,4.0,4.0,4.0,4.0,4.0,4.0,4.0,4.0,4.0,4.0,4.0,4.0,4.0,4.0,4.0,4.0,4.0,4.0,4.0,4.0,4.0,4.0,4.0,4.0,4.0,4.0,4.0,100.0,,,,,,,,,,,,,,,,,,,,,,,,,,,,,,,,,,,,,,,,,,,,,,,,,,,,,,,,,,,,,,,,,,,,,,,,,,,,,,,,,,,,,,,,,,,,,,,,,,,,,,,,,,,,,,,,,,,,,,,,,,,,,,,,,,,,,,,,,,,,,,,,,,,,,,,,,,,,,,,,,,,,,,,,,,,,,,,,,,,,,,,,,,,,,,,,,,,,,,,,,,,,,,
1763976073.074421,37795.0,0.0,4377.820313,4390.512695,4574.743652,4566.153809,4407.179688,4525.256348,4548.205078,4407.05127,4660.641113,4566.922852,4528.077148,4496.666504,4558.461426,4267.692383,4281.794922,4395.128418,4523.333496,4452.05127,4410.256348,4298.077148,4275.384766,4524.743652,4516.922852,4497.436035,4355.897461,4546.153809,4406.922852,4580.769043,4516.922852,4411.153809,4535.641113,4578.717773,2911.0,0.0,10.0,2304.0,23967.0,,,,0.0,4.0,4.0,4.0,4.0,4.0,4.0,4.0,4.0,4.0,4.0,4.0,4.0,4.0,4.0,4.0,4.0,4.0,4.0,4.0,4.0,4.0,4.0,4.0,4.0,4.0,4.0,4.0,4.0,4.0,4.0,4.0,4.0,100.0,,,,,,,,,,,,,,,,,,,,,,,,,,,,,,,,,,,,,,,,,,,,,,,,,,,,,,,,,,,,,,,,,,,,,,,,,,,,,,,,,,,,,,,,,,,,,,,,,,,,,,,,,,,,,,,,,,,,,,,,,,,,,,,,,,,,,,,,,,,,,,,,,,,,,,,,,,,,,,,,,,,,,,,,,,,,,,,,,,,,,,,,,,,,,,,,,,,,,,,,,,,,,,
1763976073.078327,37796.0,0.0,4333.461426,4341.153809,4530.128418,4518.846191,4361.410156,4483.461426,4506.153809,4371.794922,4602.94873,4457.05127,4460.0,4450.256348,4501.794922,4256.025879,4255.641113,4398.974121,4481.794922,4423.077148,4378.974121,4270.641113,4246.282227,4487.05127,4455.897461,4440.256348,4346.538574,4488.333496,4330.0,4523.846191,4463.846191,4350.0,4453.461426,4520.897461,2827.0,0.0,10.0,2560.0,23975.0,,,,0.0,4.0,4.0,4.0,4.0,4.0,4.0,4.0,4.0,4.0,4.0,4.0,4.0,4.0,4.0,4.0,4.0,4.0,4.0,4.0,4.0,4.0,4.0,4.0,4.0,4.0,4.0,4.0,4.0,4.0,4.0,4.0,4.0,100.0,,,,,,,,,,,,,,,,,,,,,,,,,,,,,,,,,,,,,,,,,,,,,,,,,,,,,,,,,,,,,,,,,,,,,,,,,,,,,,,,,,,,,,,,,,,,,,,,,,,,,,,,,,,,,,,,,,,,,,,,,,,,,,,,,,,,,,,,,,,,,,,,,,,,,,,,,,,,,,,,,,,,,,,,,,,,,,,,,,,,,,,,,,,,,,,,,,,,,,,,,,,,,,
1763976073.082233,37797.0,0.0,4237.820313,4243.846191,4432.94873,4414.102539,4274.615234,4404.743652,4406.025879,4274.743652,4486.153809,4233.205078,4320.769043,4355.256348,4390.256348,4256.538574,4218.974121,4384.615234,4396.538574,4377.94873,4350.256348,4219.358887,4248.589844,4423.205078,4342.307617,4319.743652,4275.641113,4393.846191,4194.102539,4391.410156,4355.512695,4238.974121,4338.461426,4427.436035,2331.0,0.0,10.0,2560.0,23975.0,,,,0.0,4.0,4.0,4.0,4.0,4.0,4.0,4.0,4.0,4.0,4.0,4.0,4.0,4.0,4.0,4.0,4.0,4.0,4.0,4.0,4.0,4.0,4.0,4.0,4.0,4.0,4.0,4.0,4.0,4.0,4.0,4.0,4.0,100.0,,,,,,,,,,,,,,,,,,,,,,,,,,,,,,,,,,,9449.0,0.0,0.2445,0.775208,0.465332,0.350342,0.88585,-0.473202,-0.022952,38.0,-21.833334,31.166666,,,,,,,,,,,,,,,,,,,,,,,,,,,,,,,,,,,,,,,,,,,,,,,,,,,,,,,,,,,,,,,,,,,,,,,,,,,,,,,,,,,,,,,,,,,,,,,,,,,,,,,,,,,,,,,,,,,,,,,,,,,,,,,,,,,,,,,,,,,,,,,,,,,,,,,,,,,,,,,,
1763976073.086139,37798.0,0.0,4153.205078,4161.282227,4346.794922,4319.615234,4203.589844,4340.769043,4315.0,4181.282227,4385.128418,4036.410156,4202.05127,4274.487305,4298.589844,4277.692383,4195.512695,4362.179688,4323.333496,4343.077148,4330.769043,4174.358887,4270.128418,4376.282227,4250.641113,4213.846191,4191.410156,4325.128418,4092.435791,4273.589844,4263.077148,4151.282227,4268.077148,4359.230957,2910.0,0.0,10.0,2304.0,23983.0,,,,0.0,4.0,4.0,4.0,4.0,4.0,4.0,4.0,4.0,4.0,4.0,4.0,4.0,4.0,4.0,4.0,4.0,4.0,4.0,4.0,4.0,4.0,4.0,4.0,4.0,4.0,4.0,4.0,4.0,4.0,4.0,4.0,4.0,100.0,,,,,,,,,,,,,,,,,,,,,,,,,,,,,,,,,,,,,,,,,,,,,,,,,,,,,,,,,,,,,,,,,,,,,,,,,,,,,,,,,,,,,,,,,,,,,,,,,,,,,,,,,,,,,,,,,,,,,,,,,,,,,,,,,,,,,,,,,,,,,,,,,,,,,,,,,,,,,,,,,,,,,,,,,,,,,,,,,,,,,,,,,,,,,,,,,,,,,,,,,,,,,,
1763976073.090045,37799.0,0.0,4135.256348,4147.307617,4326.282227,4294.230957,4195.512695,4334.358887,4295.256348,4154.871582,4362.820313,3983.718018,4184.615234,4261.922852,4289.615234,4313.717773,4197.307617,4348.846191,4310.641113,4338.589844,4324.358887,4161.922852,4285.256348,4376.538574,4241.282227,4191.282227,4146.282227,4322.94873,4094.871826,4252.179688,4247.307617,4143.974121,4286.282227,4357.94873,2882.0,0.0,10.0,2304.0,23983.0,,,,0.0,4.0,4.0,4.0,4.0,4.0,4.0,4.0,4.0,4.0,4.0,4.0,4.0,4.0,4.0,4.0,4.0,4.0,4.0,4.0,4.0,4.0,4.0,4.0,4.0,4.0,4.0,4.0,4.0,4.0,4.0,4.0,4.0,100.0,,,,,,,,,,,,,,,,,,,,,,,,,,,,,,,,,,,,,,,,,,,,,,,,,,,,,,,,,,,,,,,,,,,,,,,,,,,,,,,,,,,,,,,,,,,,,,,,,,,,,,,,,,,,,,,,,,,,,,,,,,,,,,,,,,,,,,,,,,,,,,,,,,,,,,,,,,,,,,,,,,,,,,,,,,,,,,,,,,,,,,,,,,,,,,,,,,,,,,,,,,,,,,
1763976073.093951,37800.0,0.0,4192.692383,4207.563965,4378.205078,4348.333496,4253.717773,4387.820313,4358.974121,4210.512695,4428.846191,4095.641113,4280.384766,4323.589844,4367.436035,4341.538574,4217.307617,4352.820313,4363.846191,4364.487305,4330.512695,4187.179688,4276.794922,4420.256348,4316.025879,4266.410156,4165.897461,4381.666504,4196.410156,4338.461426,4314.743652,4216.666504,4374.487305,4418.077148,2577.0,0.0,10.0,1280.0,23991.0,,,,0.0,4.0,4.0,4.0,4.0,4.0,4.0,4.0,4.0,4.0,4.0,4.0,4.0,4.0,4.0,4.0,4.0,4.0,4.0,4.0,4.0,4.0,4.0,4.0,4.0,4.0,4.0,4.0,4.0,4.0,4.0,4.0,4.0,100.0,,,,,,,,,,,,,,,,,,,,,,,,,,,,,,,,,,,,,,,,,,,,,,,14.648961,8.917721,23.164194,34.133644,40.41206,20.947599,11.035257,29.1133,33.073116,36.576801,23.67548,14.411333,32.614143,35.365013,40.264565,27.101284,15.781475,32.077637,37.330551,45.941902,13.063146,9.237697,21.491053,24.194517,28.474884,13.13384,5.945191,16.984991,22.253407,28.503721,20.221054,10.070593,23.088884,43.576626,67.847374,26.822289,19.095213,36.526409,43.70401,59.616669,23.124958,11.578109,27.601568,34.420971,47.567696,23.214338,9.846455,28.902761,72.63253,92.010506,20.034678,11.032824,30.801344,70.155403,156.702225,15.122993,7.296232,20.113222,35.925674,45.50967,14.416409,5.905276,21.934139,49.323772,72.85144,4.040574,8.9496,14.156792,16.886919,57.970104,11.750318,9.633458,20.857687,21.774912,18.985605,7.732491,9.101569,14.147147,19.518358,39.792198,11.288698,5.36674,15.437775,30.198509,32.39946,5.496453,3.906662,11.14966,22.776196,25.918755,7.122334,5.915158,18.647404,24.460981,37.840889,26.350737,29.51021,34.546352,21.916615,22.189234,10.713669,16.139229,30.002264,22.472553,116.626289,5.196843,2.398516,7.118685,14.575185,17.115555,17.211094,8.778171,24.590668,44.259457,48.828594,21.681999,12.273555,47.196571,67.006844,123.502869,28.321579,17.445044,54.598213,51.661087,99.717789,27.823709,23.411335,40.002586,39.082375,44.014496,26.292507,17.553844,41.396206,55.790855,61.058388,20.120638,12.547265,29.699926,54.765896,66.894463,21.892653,10.556795,27.118967,38.384335,41.865261,23.74473,14.65603,33.975063,39.084679,38.961861,27.126961,19.143084,41.344219,43.243225,44.085823,24.23414,14.762552,31.86034,35.892212,35.808517
1763976073.097857,37801.0,0.0,4281.410156,4296.794922,4460.256348,4439.615234,4335.128418,4460.897461,4458.333496,4304.487305,4536.153809,4288.333496,4423.205078,4413.717773,4475.897461,4332.05127,4236.410156,4365.897461,4442.692383,4400.512695,4344.230957,4231.410156,4247.692383,4474.487305,4418.717773,4390.512695,4235.128418,4459.358887,4322.94873,4466.410156,4413.589844,4314.743652,4469.615234,4494.743652,2774.0,0.0,10.0,1280.0,23991.0,,,,0.0,4.0,4.0,4.0,4.0,4.0,4.0,4.0,4.0,4.0,4.0,4.0,4.0,4.0,4.0,4.0,4.0,4.0,4.0,4.0,4.0,4.0,4.0,4.0,4.0,4.0,4.0,4.0,4.0,4.0,4.0,4.0,4.0,100.0,,,,,,,,,,,,,,,,,,,,,,,,,,,,,,,,,,,9450.0,0.0,0.243297,0.77533,0.465942,0.350098,0.88585,-0.473202,-0.022952,39.166668,-21.0,31.166666,,,,,,,,,,,,,,,,,,,,,,,,,,,,,,,,,,,,,,,,,,,,,,,,,,,,,,,,,,,,,,,,,,,,,,,,,,,,,,,,,,,,,,,,,,,,,,,,,,,,,,,,,,,,,,,,,,,,,,,,,,,,,,,,,,,,,,,,,,,,,,,,,,,,,,,,,,,,,,,,
1763976073.101763,37802.0,0.0,4340.256348,4354.871582,4516.666504,4506.794922,4384.871582,4503.589844,4525.256348,4370.512695,4617.05127,4436.538574,4520.769043,4472.436035,4543.717773,4275.512695,4240.769043,4372.179688,4493.846191,4422.307617,4359.358887,4266.282227,4218.333496,4504.230957,4480.512695,4489.358887,4311.025879,4510.384766,4391.794922,4546.922852,4476.025879,4372.179688,4513.974121,4539.358887,2639.0,0.0,10.0,256.0,23998.0,,,,0.0,4.0,4.0,4.0,4.0,4.0,4.0,4.0,4.0,4.0,4.0,4.0,4.0,4.0,4.0,4.0,4.0,4.0,4.0,4.0,4.0,4.0,4.0,4.0,4.0,4.0,4.0,4.0,4.0,4.0,4.0,4.0,4.0,100.0,,,,,,,,,,,,,,,,,,,,,,,,,,,,,,,,,,,,,,,,,,,,,,,,,,,,,,,,,,,,,,,,,,,,,,,,,,,,,,,,,,,,,,,,,,,,,,,,,,,,,,,,,,,,,,,,,,,,,,,,,,,,,,,,,,,,,,,,,,,,,,,,,,,,,,,,,,,,,,,,,,,,,,,,,,,,,,,,,,,,,,,,,,,,,,,,,,,,,,,,,,,,,,
1763976073.105669,37803.0,0.0,4337.692383,4351.794922,4519.358887,4514.102539,4376.666504,4493.717773,4522.820313,4370.256348,4629.615234,4461.282227,4522.820313,4470.256348,4538.077148,4197.436035,4232.820313,4365.512695,4491.666504,4420.769043,4371.666504,4275.0,4210.128418,4498.461426,4471.666504,4514.358887,4351.922852,4514.230957,4371.153809,4536.538574,4469.487305,4361.025879,4492.436035,4533.205078,3005.0,0.0,10.0,256.0,23998.0,,,,0.0,4.0,4.0,4.0,4.0,4.0,4.0,4.0,4.0,4.0,4.0,4.0,4.0,4.0,4.0,4.0,4.0,4.0,4.0,4.0,4.0,4.0,4.0,4.0,4.0,4.0,4.0,4.0,4.0,4.0,4.0,4.0,4.0,100.0,,,,,,,,,,,,,,,,,,,,,,,,,,,,,,,,,,,,,,,,,,,,,,,,,,,,,,,,,,,,,,,,,,,,,,,,,,,,,,,,,,,,,,,,,,,,,,,,,,,,,,,,,,,,,,,,,,,,,,,,,,,,,,,,,,,,,,,,,,,,,,,,,,,,,,,,,,,,,,,,,,,,,,,,,,,,,,,,,,,,,,,,,,,,,,,,,,,,,,,,,,,,,,
1763976073.109575,37804.0,0.0,4290.384766,4303.461426,4481.153809,4471.666504,4327.436035,4448.589844,4466.538574,4317.307617,4581.153809,4378.846191,4449.230957,4423.205078,4480.512695,4147.563965,4226.410156,4356.153809,4451.538574,4405.641113,4377.94873,4261.282227,4228.589844,4471.922852,4415.897461,4468.461426,4342.692383,4481.153809,4294.615234,4462.692383,4414.615234,4304.102539,4433.717773,4492.563965,2812.0,0.0,10.0,256.0,24006.0,,,,0.0,4.0,4.0,4.0,4.0,4.0,4.0,4.0,4.0,4.0,4.0,4.0,4.0,4.0,4.0,4.0,4.0,4.0,4.0,4.0,4.0,4.0,4.0,4.0,4.0,4.0,4.0,4.0,4.0,4.0,4.0,4.0,4.0,100.0,,,,,,,,,,,,,,,,,,,,,,,,,,,,,,,,,,,,,,,,,,,,,,,,,,,,,,,,,,,,,,,,,,,,,,,,,,,,,,,,,,,,,,,,,,,,,,,,,,,,,,,,,,,,,,,,,,,,,,,,,,,,,,,,,,,,,,,,,,,,,,,,,,,,,,,,,,,,,,,,,,,,,,,,,,,,,,,,,,,,,,,,,,,,,,,,,,,,,,,,,,,,,,
1763976073.113481,37805.0,0.0,4242.94873,4253.846191,4437.94873,4422.692383,4279.871582,4407.436035,4406.025879,4260.512695,4516.410156,4275.769043,4366.153809,4374.487305,4422.692383,4165.256348,4232.692383,4359.102539,4412.436035,4394.358887,4379.230957,4243.077148,4259.358887,4449.615234,4365.641113,4398.077148,4300.128418,4441.922852,4228.974121,4394.743652,4362.563965,4252.692383,4386.025879,4451.922852,2552.0,0.0,10.0,256.0,24006.0,,,,0.0,4.0,4.0,4.0,4.0,4.0,4.0,4.0,4.0,4.0,4.0,4.0,4.0,4.0,4.0,4.0,4.0,4.0,4.0,4.0,4.0,4.0,4.0,4.0,4.0,4.0,4.0,4.0,4.0,4.0,4.0,4.0,4.0,100.0,,,,,,,,,,,,,,,,,,,,,,,,,,,,,,,,,,,9451.0,0.0,0.241951,0.775696,0.466125,0.349976,0.833598,-0.443413,-0.038579,38.0,-23.833334,31.666666,,,,,,,,,,,,,,,,,,,,,,,,,,,,,,,,,,,,,,,,,,,,,,,,,,,,,,,,,,,,,,,,,,,,,,,,,,,,,,,,,,,,,,,,,,,,,,,,,,,,,,,,,,,,,,,,,,,,,,,,,,,,,,,,,,,,,,,,,,,,,,,,,,,,,,,,,,,,,,,,
1763976073.117287,37806.0,0.0,4234.358887,4241.538574,4420.769043,4410.0,4268.974121,4400.769043,4387.563965,4245.769043,4484.743652,4237.05127,4335.512695,4362.05127,4408.717773,4246.538574,4251.410156,4377.692383,4406.282227,4398.974121,4383.077148,4238.717773,4281.794922,4448.846191,4362.05127,4359.230957,4259.358887,4426.666504,4224.615234,4388.974121,4355.512695,4247.94873,4384.743652,4440.769043,2634.0,0.0,10.0,256.0,24014.0,,,,0.0,4.0,4.0,4.0,4.0,4.0,4.0,4.0,4.0,4.0,4.0,4.0,4.0,4.0,4.0,4.0,4.0,4.0,4.0,4.0,4.0,4.0,4.0,4.0,4.0,4.0,4.0,4.0,4.0,4.0,4.0,4.0,4.0,100.0,,,,,,,,,,,,,,,,,,,,,,,,,,,,,,,,,,,,,,,,,,,,,,,,,,,,,,,,,,,,,,,,,,,,,,,,,,,,,,,,,,,,,,,,,,,,,,,,,,,,,,,,,,,,,,,,,,,,,,,,,,,,,,,,,,,,,,,,,,,,,,,,,,,,,,,,,,,,,,,,,,,,,,,,,,,,,,,,,,,,,,,,,,,,,,,,,,,,,,,,,,,,,,
1763976073.121193,37807.0,0.0,4269.230957,4272.563965,4437.179688,4444.102539,4297.820313,4430.512695,4421.538574,4283.333496,4505.769043,4279.358887,4373.846191,4392.563965,4445.897461,4337.820313,4271.153809,4399.615234,4436.922852,4419.102539,4399.743652,4253.333496,4289.102539,4467.820313,4405.256348,4375.769043,4245.897461,4443.846191,4281.282227,4447.563965,4395.897461,4291.538574,4429.487305,4464.871582,2721.0,0.0,10.0,256.0,24014.0,,,,0.0,4.0,4.0,4.0,4.0,4.0,4.0,4.0,4.0,4.0,4.0,4.0,4.0,4.0,4.0,4.0,4.0,4.0,4.0,4.0,4.0,4.0,4.0,4.0,4.0,4.0,4.0,4.0,4.0,4.0,4.0,4.0,4.0,100.0,,,,,,,,,,,,,,,,,,,,,,,,,,,,,,,,,,,,,,,,,,,,,,,,,,,,,,,,,,,,,,,,,,,,,,,,,,,,,,,,,,,,,,,,,,,,,,,,,,,,,,,,,,,,,,,,,,,,,,,,,,,,,,,,,,,,,,,,,,,,,,,,,,,,,,,,,,,,,,,,,,,,,,,,,,,,,,,,,,,,,,,,,,,,,,,,,,,,,,,,,,,,,,
1763976073.124999,37808.0,0.0,4315.256348,4316.282227,4466.922852,4492.563965,4336.282227,4468.205078,4475.128418,4339.487305,4554.358887,4342.692383,4440.641113,4436.282227,4497.820313,4370.0,4278.333496,4408.461426,4476.666504,4440.769043,4427.820313,4274.615234,4292.436035,4488.333496,4454.743652,4418.077148,4254.487305,4471.025879,4347.05127,4516.666504,4445.128418,4343.333496,4480.512695,4501.410156,2864.0,0.0,10.0,512.0,24022.0,,,,0.0,4.0,4.0,4.0,4.0,4.0,4.0,4.0,4.0,4.0,4.0,4.0,4.0,4.0,4.0,4.0,4.0,4.0,4.0,4.0,4.0,4.0,4.0,4.0,4.0,4.0,4.0,4.0,4.0,4.0,4.0,4.0,4.0,100.0,,,,,,,,,,,,,,,,,,,,,,,,,,,,,,,,,,,,,,,,,,,,,,,,,,,,,,,,,,,,,,,,,,,,,,,,,,,,,,,,,,,,,,,,,,,,,,,,,,,,,,,,,,,,,,,,,,,,,,,,,,,,,,,,,,,,,,,,,,,,,,,,,,,,,,,,,,,,,,,,,,,,,,,,,,,,,,,,,,,,,,,,,,,,,,,,,,,,,,,,,,,,,,
1763976073.128904,37809.0,0.0,4326.922852,4329.358887,4477.94873,4506.025879,4345.512695,4476.794922,4496.025879,4361.410156,4580.256348,4346.025879,4467.820313,4449.102539,4510.512695,4311.153809,4266.794922,4398.846191,4486.538574,4444.230957,4446.153809,4280.512695,4301.666504,4488.333496,4459.871582,4428.846191,4259.358887,4473.077148,4357.692383,4528.717773,4453.589844,4353.205078,4487.05127,4514.358887,3313.0,0.0,10.0,512.0,24022.0,,,,0.0,4.0,4.0,4.0,4.0,4.0,4.0,4.0,4.0,4.0,4.0,4.0,4.0,4.0,4.0,4.0,4.0,4.0,4.0,4.0,4.0,4.0,4.0,4.0,4.0,4.0,4.0,4.0,4.0,4.0,4.0,4.0,4.0,100.0,,,,,,,,,,,,,,,,,,,,,,,,,,,,,,,,,,,9452.0,0.0,0.242342,0.775574,0.466309,0.349731,0.833598,-0.443413,-0.038579,37.666668,-23.666666,31.333334,,,,,,,,,,,,,,,,,,,,,,,,,,,,,,,,,,,,,,,,,,,,,,,,,,,,,,,,,,,,,,,,,,,,,,,,,,,,,,,,,,,,,,,,,,,,,,,,,,,,,,,,,,,,,,,,,,,,,,,,,,,,,,,,,,,,,,,,,,,,,,,,,,,,,,,,,,,,,,,,
1763976073.13281,37810.0,0.0,4285.769043,4293.846191,4453.461426,4461.025879,4311.794922,4441.922852,4457.307617,4320.256348,4552.179688,4263.461426,4416.666504,4410.256348,4458.333496,4199.871582,4242.05127,4379.871582,4448.846191,4419.230957,4429.358887,4255.641113,4305.769043,4461.538574,4404.743652,4380.769043,4247.563965,4437.179688,4291.153809,4461.922852,4403.846191,4304.230957,4432.179688,4485.256348,2769.0,0.0,10.0,512.0,24030.0,,,,0.0,4.0,4.0,4.0,4.0,4.0,4.0,4.0,4.0,4.0,4.0,4.0,4.0,4.0,4.0,4.0,4.0,4.0,4.0,4.0,4.0,4.0,4.0,4.0,4.0,4.0,4.0,4.0,4.0,4.0,4.0,4.0,4.0,100.0,,,,,,,,,,,,,,,,,,,,,,,,,,,,,,,,,,,,,,,,,,,,,,,,,,,,,,,,,,,,,,,,,,,,,,,,,,,,,,,,,,,,,,,,,,,,,,,,,,,,,,,,,,,,,,,,,,,,,,,,,,,,,,,,,,,,,,,,,,,,,,,,,,,,,,,,,,,,,,,,,,,,,,,,,,,,,,,,,,,,,,,,,,,,,,,,,,,,,,,,,,,,,,
1763976073.136716,37811.0,0.0,4219.615234,4235.384766,4409.615234,4384.487305,4259.487305,4387.563965,4384.358887,4238.205078,4486.025879,4152.436035,4316.153809,4344.743652,4372.563965,4121.922852,4219.871582,4367.692383,4386.410156,4378.589844,4376.666504,4206.410156,4283.974121,4424.615234,4326.282227,4306.666504,4235.384766,4388.077148,4191.922852,4363.846191,4329.871582,4231.538574,4353.205078,4432.820313,2935.0,0.0,10.0,512.0,24030.0,,,,0.0,4.0,4.0,4.0,4.0,4.0,4.0,4.0,4.0,4.0,4.0,4.0,4.0,4.0,4.0,4.0,4.0,4.0,4.0,4.0,4.0,4.0,4.0,4.0,4.0,4.0,4.0,4.0,4.0,4.0,4.0,4.0,4.0,100.0,,,,,,,,,,,,,,,,,,,,,,,,,,,,,,,,,,,,,,,,,,,,,,,,,,,,,,,,,,,,,,,,,,,,,,,,,,,,,,,,,,,,,,,,,,,,,,,,,,,,,,,,,,,,,,,,,,,,,,,,,,,,,,,,,,,,,,,,,,,,,,,,,,,,,,,,,,,,,,,,,,,,,,,,,,,,,,,,,,,,,,,,,,,,,,,,,,,,,,,,,,,,,,
1763976073.140622,37812.0,0.0,4182.563965,4203.589844,4384.102539,4333.717773,4232.05127,4358.461426,4337.05127,4173.077148,4432.692383,4104.871582,4244.230957,4305.769043,4321.538574,4143.974121,4216.025879,4373.717773,4347.307617,4352.94873,4322.94873,4159.487305,4236.922852,4404.487305,4286.538574,4269.615234,4246.794922,4367.179688,4136.410156,4312.436035,4291.153809,4194.487305,4313.461426,4399.487305,3064.0,0.0,10.0,768.0,24037.0,,,,0.0,4.0,4.0,4.0,4.0,4.0,4.0,4.0,4.0,4.0,4.0,4.0,4.0,4.0,4.0,4.0,4.0,4.0,4.0,4.0,4.0,4.0,4.0,4.0,4.0,4.0,4.0,4.0,4.0,4.0,4.0,4.0,4.0,100.0,,,,,,,,,,,,,,,,,,,,,,,,,,,,,,,,,,,,,,,,,,,,,,,,,,,,,,,,,,,,,,,,,,,,,,,,,,,,,,,,,,,,,,,,,,,,,,,,,,,,,,,,,,,,,,,,,,,,,,,,,,,,,,,,,,,,,,,,,,,,,,,,,,,,,,,,,,,,,,,,,,,,,,,,,,,,,,,,,,,,,,,,,,,,,,,,,,,,,,,,,,,,,,
1763976073.144528,37813.0,0.0,4208.589844,4229.615234,4403.205078,4348.974121,4255.384766,4382.436035,4359.743652,4172.179688,4435.0,4166.410156,4263.717773,4329.871582,4352.307617,4256.794922,4235.0,4396.922852,4365.384766,4367.563965,4312.692383,4144.230957,4197.179688,4415.641113,4320.256348,4303.589844,4283.461426,4393.974121,4168.974121,4349.487305,4322.436035,4224.615234,4346.794922,4415.384766,2877.0,0.0,10.0,768.0,24037.0,,,,0.0,4.0,4.0,4.0,4.0,4.0,4.0,4.0,4.0,4.0,4.0,4.0,4.0,4.0,4.0,4.0,4.0,4.0,4.0,4.0,4.0,4.0,4.0,4.0,4.0,4.0,4.0,4.0,4.0,4.0,4.0,4.0,4.0,100.0,,,,,,,,,,,,,,,,,,,,,,,,,,,,,,,,,,,9453.0,0.0,0.242626,0.775696,0.46637,0.349182,0.840435,-0.42095,-0.043951,38.5,-21.666666,31.833334,,,,,,,,,,,,,,,,,,,,,,,,,,,,,,,,,,,,,,,,,,,,,,,,,,,,,,,,,,,,,,,,,,,,,,,,,,,,,,,,,,,,,,,,,,,,,,,,,,,,,,,,,,,,,,,,,,,,,,,,,,,,,,,,,,,,,,,,,,,,,,,,,,,,,,,,,,,,,,,,
1763976073.148433,37814.0,0.0,4282.307617,4298.717773,4457.692383,4421.922852,4315.897461,4446.025879,4443.461426,4236.153809,4494.743652,4295.897461,4368.333496,4405.256348,4449.487305,4377.820313,4264.358887,4423.717773,4430.769043,4419.102539,4358.846191,4170.512695,4198.205078,4449.487305,4405.769043,4386.538574,4322.05127,4450.256348,4265.641113,4445.641113,4403.846191,4300.384766,4428.717773,4472.179688,2954.0,0.0,10.0,1024.0,24045.0,,,,0.0,4.0,4.0,4.0,4.0,4.0,4.0,4.0,4.0,4.0,4.0,4.0,4.0,4.0,4.0,4.0,4.0,4.0,4.0,4.0,4.0,4.0,4.0,4.0,4.0,4.0,4.0,4.0,4.0,4.0,4.0,4.0,4.0,100.0,,,,,,,,,,,,,,,,,,,,,,,,,,,,,,,,,,,,,,,,,,,,,,,,,,,,,,,,,,,,,,,,,,,,,,,,,,,,,,,,,,,,,,,,,,,,,,,,,,,,,,,,,,,,,,,,,,,,,,,,,,,,,,,,,,,,,,,,,,,,,,,,,,,,,,,,,,,,,,,,,,,,,,,,,,,,,,,,,,,,,,,,,,,,,,,,,,,,,,,,,,,,,,
1763976073.152339,37815.0,0.0,4351.282227,4361.666504,4508.974121,4501.153809,4370.384766,4504.102539,4531.794922,4320.384766,4570.384766,4397.436035,4486.794922,4479.871582,4545.128418,4414.743652,4282.05127,4436.025879,4496.922852,4473.589844,4428.077148,4218.461426,4238.333496,4482.05127,4482.307617,4460.512695,4335.384766,4495.256348,4355.769043,4528.589844,4477.436035,4365.897461,4497.436035,4530.256348,2872.0,0.0,10.0,1024.0,24045.0,,,,0.0,4.0,4.0,4.0,4.0,4.0,4.0,4.0,4.0,4.0,4.0,4.0,4.0,4.0,4.0,4.0,4.0,4.0,4.0,4.0,4.0,4.0,4.0,4.0,4.0,4.0,4.0,4.0,4.0,4.0,4.0,4.0,4.0,100.0,,,,,,,,,,,,,,,,,,,,,,,,,,,,,,,,,,,,,,,,,,,,,,,,,,,,,,,,,,,,,,,,,,,,,,,,,,,,,,,,,,,,,,,,,,,,,,,,,,,,,,,,,,,,,,,,,,,,,,,,,,,,,,,,,,,,,,,,,,,,,,,,,,,,,,,,,,,,,,,,,,,,,,,,,,,,,,,,,,,,,,,,,,,,,,,,,,,,,,,,,,,,,,
1763976073.156245,37816.0,0.0,4367.05127,4373.717773,4520.128418,4531.666504,4380.512695,4515.897461,4564.743652,4369.743652,4608.461426,4398.589844,4537.692383,4501.922852,4572.179688,4336.410156,4271.153809,4422.179688,4517.307617,4491.666504,4467.307617,4252.820313,4282.307617,4492.563965,4498.846191,4474.487305,4309.615234,4497.692383,4378.974121,4542.94873,4493.333496,4376.410156,4503.846191,4548.717773,2819.0,0.0,10.0,1280.0,24053.0,,,,0.0,4.0,4.0,4.0,4.0,4.0,4.0,4.0,4.0,4.0,4.0,4.0,4.0,4.0,4.0,4.0,4.0,4.0,4.0,4.0,4.0,4.0,4.0,4.0,4.0,4.0,4.0,4.0,4.0,4.0,4.0,4.0,4.0,100.0,,,,,,,,,,,,,,,,,,,,,,,,,,,,,,,,,,,,,,,,,,,,,,,,,,,,,,,,,,,,,,,,,,,,,,,,,,,,,,,,,,,,,,,,,,,,,,,,,,,,,,,,,,,,,,,,,,,,,,,,,,,,,,,,,,,,,,,,,,,,,,,,,,,,,,,,,,,,,,,,,,,,,,,,,,,,,,,,,,,,,,,,,,,,,,,,,,,,,,,,,,,,,,
1763976073.160151,37817.0,0.0,4322.820313,4329.358887,4484.743652,4495.769043,4341.410156,4475.769043,4523.974121,4359.102539,4585.256348,4308.205078,4492.436035,4459.230957,4516.410156,4196.538574,4234.487305,4386.410156,4480.384766,4459.358887,4449.487305,4252.563965,4297.307617,4478.077148,4451.282227,4420.512695,4250.0,4457.692383,4330.641113,4491.666504,4447.692383,4331.410156,4448.333496,4516.410156,2809.0,0.0,10.0,1280.0,24053.0,,,,0.0,4.0,4.0,4.0,4.0,4.0,4.0,4.0,4.0,4.0,4.0,4.0,4.0,4.0,4.0,4.0,4.0,4.0,4.0,4.0,4.0,4.0,4.0,4.0,4.0,4.0,4.0,4.0,4.0,4.0,4.0,4.0,4.0,100.0,,,,,,,,,,,,,,,,,,,,,,,,,,,,,,,,,,,9454.0,0.0,0.242762,0.776001,0.466248,0.348572,0.85362,-0.403858,-0.062508,38.5,-21.666666,31.833334,,,,,,,,,,,,,,,,,,,,,,,,,,,,,,,,,,,,,,,,,,,,,,,,,,,,,,,,,,,,,,,,,,,,,,,,,,,,,,,,,,,,,,,,,,,,,,,,,,,,,,,,,,,,,,,,,,,,,,,,,,,,,,,,,,,,,,,,,,,,,,,,,,,,,,,,,,,,,,,,
1763976073.164056,37818.0,0.0,4254.871582,4263.589844,4429.743652,4424.487305,4283.461426,4415.128418,4442.05127,4306.025879,4522.436035,4206.282227,4389.358887,4385.256348,4422.179688,4091.410156,4195.0,4346.666504,4415.641113,4398.717773,4392.307617,4228.846191,4281.794922,4452.179688,4381.282227,4337.307617,4182.563965,4406.025879,4257.436035,4424.487305,4380.0,4269.358887,4375.256348,4457.692383,2710.0,0.0,10.0,1536.0,24061.0,,,,0.0,4.0,4.0,4.0,4.0,4.0,4.0,4.0,4.0,4.0,4.0,4.0,4.0,4.0,4.0,4.0,4.0,4.0,4.0,4.0,4.0,4.0,4.0,4.0,4.0,4.0,4.0,4.0,4.0,4.0,4.0,4.0,4.0,100.0,,,,,,,,,,,,,,,,,,,,,,,,,,,,,,,,,,,,,,,,,,,,,,,,,,,,,,,,,,,,,,,,,,,,,,,,,,,,,,,,,,,,,,,,,,,,,,,,,,,,,,,,,,,,,,,,,,,,,,,,,,,,,,,,,,,,,,,,,,,,,,,,,,,,,,,,,,,,,,,,,,,,,,,,,,,,,,,,,,,,,,,,,,,,,,,,,,,,,,,,,,,,,,
1763976073.167962,37819.0,0.0,4208.974121,4219.871582,4390.384766,4368.974121,4244.487305,4373.333496,4371.538574,4248.846191,4465.897461,4173.461426,4293.333496,4327.820313,4350.384766,4090.128174,4179.358887,4321.025879,4365.769043,4347.436035,4336.025879,4213.205078,4258.846191,4431.538574,4336.153809,4280.512695,4145.384766,4378.077148,4213.205078,4389.615234,4336.922852,4231.794922,4335.128418,4410.512695,2956.0,0.0,10.0,1536.0,24061.0,,,,0.0,4.0,4.0,4.0,4.0,4.0,4.0,4.0,4.0,4.0,4.0,4.0,4.0,4.0,4.0,4.0,4.0,4.0,4.0,4.0,4.0,4.0,4.0,4.0,4.0,4.0,4.0,4.0,4.0,4.0,4.0,4.0,4.0,100.0,,,,,,,,,,,,,,,,,,,,,,,,,,,,,,,,,,,,,,,,,,,,,,,,,,,,,,,,,,,,,,,,,,,,,,,,,,,,,,,,,,,,,,,,,,,,,,,,,,,,,,,,,,,,,,,,,,,,,,,,,,,,,,,,,,,,,,,,,,,,,,,,,,,,,,,,,,,,,,,,,,,,,,,,,,,,,,,,,,,,,,,,,,,,,,,,,,,,,,,,,,,,,,
1763976073.171868,37820.0,0.0,4205.256348,4217.820313,4385.128418,4361.153809,4241.922852,4368.077148,4344.102539,4216.025879,4448.205078,4222.692383,4244.358887,4312.820313,4332.692383,4190.897461,4199.358887,4315.897461,4353.846191,4329.743652,4307.692383,4230.384766,4252.307617,4423.717773,4334.487305,4280.897461,4165.256348,4388.589844,4216.922852,4396.794922,4336.666504,4233.974121,4347.307617,4399.358887,1410.0,0.0,10.0,1792.0,24069.0,,,,0.0,4.0,4.0,4.0,4.0,4.0,4.0,4.0,4.0,4.0,4.0,4.0,4.0,4.0,4.0,4.0,4.0,4.0,4.0,4.0,4.0,4.0,4.0,4.0,4.0,4.0,4.0,4.0,4.0,4.0,4.0,4.0,4.0,100.0,,,,,,,,,,,,,,,,,,,,,,,,,,,,,,,,,,,,,,,,,,,,,,,,,,,,,,,,,,,,,,,,,,,,,,,,,,,,,,,,,,,,,,,,,,,,,,,,,,,,,,,,,,,,,,,,,,,,,,,,,,,,,,,,,,,,,,,,,,,,,,,,,,,,,,,,,,,,,,,,,,,,,,,,,,,,,,,,,,,,,,,,,,,,,,,,,,,,,,,,,,,,,,
1763976073.175774,37821.0,0.0,4233.974121,4249.358887,4410.512695,4397.307617,4270.256348,4392.820313,4360.897461,4218.205078,4472.820313,4297.94873,4247.692383,4336.025879,4362.05127,4330.769043,4246.794922,4327.05127,4376.153809,4346.794922,4311.538574,4281.922852,4272.692383,4427.692383,4363.974121,4329.743652,4238.717773,4429.102539,4251.922852,4423.717773,4367.179688,4264.743652,4396.538574,4424.871582,2504.0,0.0,10.0,1792.0,24069.0,,,,0.0,4.0,4.0,4.0,4.0,4.0,4.0,4.0,4.0,4.0,4.0,4.0,4.0,4.0,4.0,4.0,4.0,4.0,4.0,4.0,4.0,4.0,4.0,4.0,4.0,4.0,4.0,4.0,4.0,4.0,4.0,4.0,4.0,100.0,,,,,,,,,,,,,,,,,,,,,,,,,,,,,,,,,,,9455.0,0.0,0.242612,0.776367,0.466309,0.347778,0.846295,-0.413625,-0.090831,38.333332,-22.666666,32.0,,,,,,,,,,,,,,,,,,,,,,,,,,,,,,,,,,,,,,,,,,,,,,,,,,,,,,,,,,,,,,,,,,,,,,,,,,,,,,,,,,,,,,,,,,,,,,,,,,,,,,,,,,,,,,,,,,,,,,,,,,,,,,,,,,,,,,,,,,,,,,,,,,,,,,,,,,,,,,,,
1763976073.179679,37822.0,0.0,4277.94873,4297.820313,4455.384766,4455.641113,4316.282227,4433.461426,4410.0,4258.333496,4525.641113,4336.922852,4297.179688,4382.94873,4418.333496,4431.538574,4301.794922,4348.589844,4418.974121,4386.666504,4340.384766,4349.871582,4316.025879,4441.922852,4407.307617,4397.94873,4333.974121,4483.461426,4295.128418,4450.897461,4410.256348,4307.94873,4456.410156,4474.615234,3009.0,0.0,10.0,2048.0,24077.0,,,,0.0,4.0,4.0,4.0,4.0,4.0,4.0,4.0,4.0,4.0,4.0,4.0,4.0,4.0,4.0,4.0,4.0,4.0,4.0,4.0,4.0,4.0,4.0,4.0,4.0,4.0,4.0,4.0,4.0,4.0,4.0,4.0,4.0,100.0,,,,,,,,,,,,,,,,,,,,,,,,,,,,,,,,,,,,,,,,,,,,,,,,,,,,,,,,,,,,,,,,,,,,,,,,,,,,,,,,,,,,,,,,,,,,,,,,,,,,,,,,,,,,,,,,,,,,,,,,,,,,,,,,,,,,,,,,,,,,,,,,,,,,,,,,,,,,,,,,,,,,,,,,,,,,,,,,,,,,,,,,,,,,,,,,,,,,,,,,,,,,,,
1763976073.183585,37823.0,0.0,4328.333496,4351.794922,4510.512695,4518.077148,4370.128418,4481.025879,4481.666504,4334.358887,4591.282227,4330.769043,4389.743652,4443.461426,4488.846191,4446.410156,4343.461426,4375.256348,4472.179688,4434.358887,4385.0,4408.974121,4364.358887,4468.333496,4457.94873,4463.205078,4412.563965,4541.410156,4339.102539,4481.666504,4457.820313,4356.538574,4510.769043,4533.461426,3111.0,0.0,10.0,2048.0,24077.0,,,,0.0,4.0,4.0,4.0,4.0,4.0,4.0,4.0,4.0,4.0,4.0,4.0,4.0,4.0,4.0,4.0,4.0,4.0,4.0,4.0,4.0,4.0,4.0,4.0,4.0,4.0,4.0,4.0,4.0,4.0,4.0,4.0,4.0,100.0,,,,,,,,,,,,,,,,,,,,,,,,,,,,,,,,,,,,,,,,,,,,,,,,,,,,,,,,,,,,,,,,,,,,,,,,,,,,,,,,,,,,,,,,,,,,,,,,,,,,,,,,,,,,,,,,,,,,,,,,,,,,,,,,,,,,,,,,,,,,,,,,,,,,,,,,,,,,,,,,,,,,,,,,,,,,,,,,,,,,,,,,,,,,,,,,,,,,,,,,,,,,,,
1763976073.187491,37824.0,0.0,4379.743652,4402.05127,4564.615234,4573.589844,4420.0,4527.179688,4561.282227,4428.846191,4655.128418,4323.077148,4509.871582,4506.794922,4562.307617,4378.333496,4356.666504,4398.077148,4525.897461,4473.974121,4430.769043,4435.384766,4389.102539,4504.743652,4512.692383,4518.333496,4449.230957,4594.743652,4386.538574,4528.205078,4506.410156,4405.897461,4554.358887,4587.05127,2737.0,0.0,10.0,2304.0,24084.0,,,,0.0,4.0,4.0,4.0,4.0,4.0,4.0,4.0,4.0,4.0,4.0,4.0,4.0,4.0,4.0,4.0,4.0,4.0,4.0,4.0,4.0,4.0,4.0,4.0,4.0,4.0,4.0,4.0,4.0,4.0,4.0,4.0,4.0,100.0,,,,,,,,,,,,,,,,,,,,,,,,,,,,,,,,,,,,,,,,,,,,,,,,,,,,,,,,,,,,,,,,,,,,,,,,,,,,,,,,,,,,,,,,,,,,,,,,,,,,,,,,,,,,,,,,,,,,,,,,,,,,,,,,,,,,,,,,,,,,,,,,,,,,,,,,,,,,,,,,,,,,,,,,,,,,,,,,,,,,,,,,,,,,,,,,,,,,,,,,,,,,,,
1763976073.191397,37825.0,0.0,4417.436035,4432.563965,4598.974121,4608.205078,4447.563965,4555.897461,4619.487305,4502.179688,4697.820313,4351.794922,4612.692383,4552.05127,4615.512695,4268.589844,4336.410156,4405.128418,4562.436035,4488.205078,4455.128418,4414.743652,4366.794922,4537.820313,4556.153809,4557.563965,4438.205078,4626.666504,4429.743652,4583.717773,4543.333496,4442.05127,4580.897461,4618.717773,2618.0,0.0,10.0,2304.0,24084.0,,,,0.0,4.0,4.0,4.0,4.0,4.0,4.0,4.0,4.0,4.0,4.0,4.0,4.0,4.0,4.0,4.0,4.0,4.0,4.0,4.0,4.0,4.0,4.0,4.0,4.0,4.0,4.0,4.0,4.0,4.0,4.0,4.0,4.0,100.0,,,,,,,,,,,,,,,,,,,,,,,,,,,,,,,,,,,9456.0,0.0,0.242377,0.776611,0.466797,0.346741,0.89464,-0.456599,-0.069344,37.666668,-22.5,32.166668,,,,,,,,,,,,,,,,,,,,,,,,,,,,,,,,,,,,,,,,,,,,,,,,,,,,,,,,,,,,,,,,,,,,,,,,,,,,,,,,,,,,,,,,,,,,,,,,,,,,,,,,,,,,,,,,,,,,,,,,,,,,,,,,,,,,,,,,,,,,,,,,,,,,,,,,,,,,,,,,
1763976073.195303,37826.0,0.0,4418.077148,4423.077148,4593.205078,4602.179688,4434.615234,4547.820313,4620.128418,4508.974121,4696.666504,4401.666504,4638.846191,4552.307617,4616.666504,4173.589844,4291.794922,4391.538574,4560.0,4467.179688,4439.743652,4351.410156,4300.897461,4547.307617,4561.282227,4563.333496,4390.769043,4613.974121,4443.333496,4614.615234,4545.641113,4442.563965,4575.0,4612.436035,2226.0,0.0,10.0,2304.0,24092.0,,,,0.0,4.0,4.0,4.0,4.0,4.0,4.0,4.0,4.0,4.0,4.0,4.0,4.0,4.0,4.0,4.0,4.0,4.0,4.0,4.0,4.0,4.0,4.0,4.0,4.0,4.0,4.0,4.0,4.0,4.0,4.0,4.0,4.0,100.0,,,,,,,,,,,,,,,,,,,,,,,,,,,,,,,,,,,,,,,,,,,,,,,,,,,,,,,,,,,,,,,,,,,,,,,,,,,,,,,,,,,,,,,,,,,,,,,,,,,,,,,,,,,,,,,,,,,,,,,,,,,,,,,,,,,,,,,,,,,,,,,,,,,,,,,,,,,,,,,,,,,,,,,,,,,,,,,,,,,,,,,,,,,,,,,,,,,,,,,,,,,,,,
