title:Anxiety5, start timestamp:1764669256.450248, stop timestamp:1764669279.018412, headset type:FLEX2, headset serial:F30002B4, headset firmware:2f10, channels:283, sampling rate:eeg_256;mot_64;pow_8, samples:5779      , version:2.2, ,,,,,,,,,,,,,,,,,,,,,,,,,,,,,,,,,,,,,,,,,,,,,,,,,,,,,,,,,,,,,,,,,,,,,,,,,,,,,,,,,,,,,,,,,,,,,,,,,,,,,,,,,,,,,,,,,,,,,,,,,,,,,,,,,,,,,,,,,,,,,,,,,,,,,,,,,,,,,,,,,,,,,,,,,,,,,,,,,,,,,,,,,,,,,,,,,,,,,,,,,,,,,,,,,,,,,,,,,,,,,,,,,,,,,,,,,,,,,,,,,,,,,,,,,,,,,,,,,,,,,,,,,,,,,,,,
Timestamp,EEG.Counter,EEG.Interpolated,EEG.Cz,EEG.Fz,EEG.Fp1,EEG.F7,EEG.F3,EEG.FC1,EEG.C3,EEG.FC5,EEG.FT9,EEG.T7,EEG.CP5,EEG.CP1,EEG.P3,EEG.P7,EEG.PO9,EEG.O1,EEG.Pz,EEG.Oz,EEG.O2,EEG.PO10,EEG.P8,EEG.P4,EEG.CP2,EEG.CP6,EEG.T8,EEG.FT10,EEG.FC6,EEG.C4,EEG.FC2,EEG.F4,EEG.F8,EEG.Fp2,EEG.RawCq,EEG.Battery,EEG.BatteryPercent,EEG.FwBufferSize,EEG.FwClockTime,MarkerIndex,MarkerType,MarkerValueInt,EEG.MarkerHardware,CQ.Cz,CQ.Fz,CQ.Fp1,CQ.F7,CQ.F3,CQ.FC1,CQ.C3,CQ.FC5,CQ.FT9,CQ.T7,CQ.CP5,CQ.CP1,CQ.P3,CQ.P7,CQ.PO9,CQ.O1,CQ.Pz,CQ.Oz,CQ.O2,CQ.PO10,CQ.P8,CQ.P4,CQ.CP2,CQ.CP6,CQ.T8,CQ.FT10,CQ.FC6,CQ.C4,CQ.FC2,CQ.F4,CQ.F8,CQ.Fp2,CQ.Overall,EQ.SampleRateQuality,EQ.OVERALL,EQ.Cz,EQ.Fz,EQ.Fp1,EQ.F7,EQ.F3,EQ.FC1,EQ.C3,EQ.FC5,EQ.FT9,EQ.T7,EQ.CP5,EQ.CP1,EQ.P3,EQ.P7,EQ.PO9,EQ.O1,EQ.Pz,EQ.Oz,EQ.O2,EQ.PO10,EQ.P8,EQ.P4,EQ.CP2,EQ.CP6,EQ.T8,EQ.FT10,EQ.FC6,EQ.C4,EQ.FC2,EQ.F4,EQ.F8,EQ.Fp2,MOT.CounterMems,MOT.InterpolatedMems,MOT.Q0,MOT.Q1,MOT.Q2,MOT.Q3,MOT.AccX,MOT.AccY,MOT.AccZ,MOT.MagX,MOT.MagY,MOT.MagZ,POW.Cz.Theta,POW.Cz.Alpha,POW.Cz.BetaL,POW.Cz.BetaH,POW.Cz.Gamma,POW.Fz.Theta,POW.Fz.Alpha,POW.Fz.BetaL,POW.Fz.BetaH,POW.Fz.Gamma,POW.Fp1.Theta,POW.Fp1.Alpha,POW.Fp1.BetaL,POW.Fp1.BetaH,POW.Fp1.Gamma,POW.F7.Theta,POW.F7.Alpha,POW.F7.BetaL,POW.F7.BetaH,POW.F7.Gamma,POW.F3.Theta,POW.F3.Alpha,POW.F3.BetaL,POW.F3.BetaH,POW.F3.Gamma,POW.FC1.Theta,POW.FC1.Alpha,POW.FC1.BetaL,POW.FC1.BetaH,POW.FC1.Gamma,POW.C3.Theta,POW.C3.Alpha,POW.C3.BetaL,POW.C3.BetaH,POW.C3.Gamma,POW.FC5.Theta,POW.FC5.Alpha,POW.FC5.BetaL,POW.FC5.BetaH,POW.FC5.Gamma,POW.FT9.Theta,POW.FT9.Alpha,POW.FT9.BetaL,POW.FT9.BetaH,POW.FT9.Gamma,POW.T7.Theta,POW.T7.Alpha,POW.T7.BetaL,POW.T7.BetaH,POW.T7.Gamma,POW.CP5.Theta,POW.CP5.Alpha,POW.CP5.BetaL,POW.CP5.BetaH,POW.CP5.Gamma,POW.CP1.Theta,POW.CP1.Alpha,POW.CP1.BetaL,POW.CP1.BetaH,POW.CP1.Gamma,POW.P3.Theta,POW.P3.Alpha,POW.P3.BetaL,POW.P3.BetaH,POW.P3.Gamma,POW.P7.Theta,POW.P7.Alpha,POW.P7.BetaL,POW.P7.BetaH,POW.P7.Gamma,POW.PO9.Theta,POW.PO9.Alpha,POW.PO9.BetaL,POW.PO9.BetaH,POW.PO9.Gamma,POW.O1.Theta,POW.O1.Alpha,POW.O1.BetaL,POW.O1.BetaH,POW.O1.Gamma,POW.Pz.Theta,POW.Pz.Alpha,POW.Pz.BetaL,POW.Pz.BetaH,POW.Pz.Gamma,POW.Oz.Theta,POW.Oz.Alpha,POW.Oz.BetaL,POW.Oz.BetaH,POW.Oz.Gamma,POW.O2.Theta,POW.O2.Alpha,POW.O2.BetaL,POW.O2.BetaH,POW.O2.Gamma,POW.PO10.Theta,POW.PO10.Alpha,POW.PO10.BetaL,POW.PO10.BetaH,POW.PO10.Gamma,POW.P8.Theta,POW.P8.Alpha,POW.P8.BetaL,POW.P8.BetaH,POW.P8.Gamma,POW.P4.Theta,POW.P4.Alpha,POW.P4.BetaL,POW.P4.BetaH,POW.P4.Gamma,POW.CP2.Theta,POW.CP2.Alpha,POW.CP2.BetaL,POW.CP2.BetaH,POW.CP2.Gamma,POW.CP6.Theta,POW.CP6.Alpha,POW.CP6.BetaL,POW.CP6.BetaH,POW.CP6.Gamma,POW.T8.Theta,POW.T8.Alpha,POW.T8.BetaL,POW.T8.BetaH,POW.T8.Gamma,POW.FT10.Theta,POW.FT10.Alpha,POW.FT10.BetaL,POW.FT10.BetaH,POW.FT10.Gamma,POW.FC6.Theta,POW.FC6.Alpha,POW.FC6.BetaL,POW.FC6.BetaH,POW.FC6.Gamma,POW.C4.Theta,POW.C4.Alpha,POW.C4.BetaL,POW.C4.BetaH,POW.C4.Gamma,POW.FC2.Theta,POW.FC2.Alpha,POW.FC2.BetaL,POW.FC2.BetaH,POW.FC2.Gamma,POW.F4.Theta,POW.F4.Alpha,POW.F4.BetaL,POW.F4.BetaH,POW.F4.Gamma,POW.F8.Theta,POW.F8.Alpha,POW.F8.BetaL,POW.F8.BetaH,POW.F8.Gamma,POW.Fp2.Theta,POW.Fp2.Alpha,POW.Fp2.BetaL,POW.Fp2.BetaH,POW.Fp2.Gamma
1764669260.844310,27150,0,4396.153809,4405.128418,4521.410156,4550,4417.94873,4534.102539,4553.461426,4409.358887,4591.922852,4406.666504,4500.128418,4524.230957,4573.461426,4404.615234,4402.692383,4519.102539,4549.871582,4545.512695,4515,4387.692383,4398.589844,4571.538574,4521.538574,4491.410156,4377.820313,4561.666504,4382.820313,4562.179688,4512.820313,4401.922852,4521.153809,4504.102539,2768,0,4,2572,8430,1,1,7,0,4,4,4,4,4,4,4,4,4,4,4,4,4,4,4,4,4,4,4,4,4,4,4,4,4,4,4,4,4,4,4,4,100,,,,,,,,,,,,,,,,,,,,,,,,,,,,,,,,,,,,,,,,,,,,,,,,,,,,,,,,,,,,,,,,,,,,,,,,,,,,,,,,,,,,,,,,,,,,,,,,,,,,,,,,,,,,,,,,,,,,,,,,,,,,,,,,,,,,,,,,,,,,,,,,,,,,,,,,,,,,,,,,,,,,,,,,,,,,,,,,,,,,,,,,,,,,,,,,,,,,,,,,,,,,,,
1764669260.848216,27151,0,4399.230957,4408.846191,4528.974121,4549.615234,4421.538574,4536.666504,4556.794922,4414.871582,4595.256348,4405.128418,4500.769043,4525.641113,4571.538574,4404.487305,4397.05127,4512.436035,4548.333496,4533.333496,4501.025879,4372.05127,4390.512695,4570.128418,4518.846191,4490.769043,4380.897461,4566.922852,4385.897461,4563.589844,4513.846191,4406.666504,4516.794922,4496.666504,2477,0,4,2572,8430,,,,0,4,4,4,4,4,4,4,4,4,4,4,4,4,4,4,4,4,4,4,4,4,4,4,4,4,4,4,4,4,4,4,4,100,,,,,,,,,,,,,,,,,,,,,,,,,,,,,,,,,,,,,,,,,,,,,,,,,,,,,,,,,,,,,,,,,,,,,,,,,,,,,,,,,,,,,,,,,,,,,,,,,,,,,,,,,,,,,,,,,,,,,,,,,,,,,,,,,,,,,,,,,,,,,,,,,,,,,,,,,,,,,,,,,,,,,,,,,,,,,,,,,,,,,,,,,,,,,,,,,,,,,,,,,,,,,,
1764669260.852122,27152,0,4395.512695,4402.820313,4521.282227,4542.307617,4416.538574,4531.410156,4552.179688,4411.025879,4593.205078,4403.205078,4497.179688,4519.743652,4565.769043,4404.358887,4390.641113,4506.153809,4541.025879,4523.589844,4493.846191,4361.282227,4377.94873,4559.871582,4510.512695,4483.846191,4382.05127,4565,4380.256348,4554.487305,4508.717773,4398.717773,4501.794922,4476.025879,2928,0,4,2571,8438,,,,0,4,4,4,4,4,4,4,4,4,4,4,4,4,4,4,4,4,4,4,4,4,4,4,4,4,4,4,4,4,4,4,4,100,,,,,,,,,,,,,,,,,,,,,,,,,,,,,,,,,,,,,,,,,,,,,,,,,,,,,,,,,,,,,,,,,,,,,,,,,,,,,,,,,,,,,,,,,,,,,,,,,,,,,,,,,,,,,,,,,,,,,,,,,,,,,,,,,,,,,,,,,,,,,,,,,,,,,,,,,,,,,,,,,,,,,,,,,,,,,,,,,,,,,,,,,,,,,,,,,,,,,,,,,,,,,,
1764669260.856028,27153,0,4384.871582,4388.461426,4500.512695,4530.512695,4401.410156,4518.846191,4539.871582,4397.563965,4584.102539,4399.487305,4489.487305,4508.333496,4557.692383,4402.692383,4384.102539,4501.922852,4529.871582,4518.974121,4495.512695,4357.94873,4368.077148,4545.769043,4500.128418,4473.717773,4383.717773,4556.538574,4368.461426,4539.358887,4499.487305,4383.077148,4484.871582,4453.205078,2924,0,4,2571,8438,,,,0,4,4,4,4,4,4,4,4,4,4,4,4,4,4,4,4,4,4,4,4,4,4,4,4,4,4,4,4,4,4,4,4,100,,,,,,,,,,,,,,,,,,,,,,,,,,,,,,,,,,,23172,0,0.657487,-0.303711,-0.30304,0.619385,1.001099,0.043951,0.037602,17.333334,38,-24.333334,,,,,,,,,,,,,,,,,,,,,,,,,,,,,,,,,,,,,,,,,,,,,,,,,,,,,,,,,,,,,,,,,,,,,,,,,,,,,,,,,,,,,,,,,,,,,,,,,,,,,,,,,,,,,,,,,,,,,,,,,,,,,,,,,,,,,,,,,,,,,,,,,,,,,,,,,,,,,,,,
1764669260.859934,27154,0,4373.589844,4374.615234,4480.128418,4521.666504,4382.436035,4505.897461,4527.179688,4380.769043,4572.692383,4395.384766,4481.666504,4498.205078,4550.897461,4399.871582,4378.974121,4499.871582,4520.769043,4518.846191,4502.179688,4361.538574,4366.153809,4537.820313,4494.230957,4468.205078,4389.487305,4547.820313,4359.358887,4528.205078,4492.179688,4371.538574,4476.922852,4442.820313,1809,0,4,2572,8445,,,,0,4,4,4,4,4,4,4,4,4,4,4,4,4,4,4,4,4,4,4,4,4,4,4,4,4,4,4,4,4,4,4,4,100,,,,,,,,,,,,,,,,,,,,,,,,,,,,,,,,,,,,,,,,,,,,,,,,,,,,,,,,,,,,,,,,,,,,,,,,,,,,,,,,,,,,,,,,,,,,,,,,,,,,,,,,,,,,,,,,,,,,,,,,,,,,,,,,,,,,,,,,,,,,,,,,,,,,,,,,,,,,,,,,,,,,,,,,,,,,,,,,,,,,,,,,,,,,,,,,,,,,,,,,,,,,,,
1764669260.863840,27155,0,4370.384766,4371.153809,4475.512695,4521.922852,4370.769043,4501.666504,4523.717773,4371.025879,4568.717773,4395.641113,4480,4496.922852,4550.641113,4397.820313,4377.820313,4499.871582,4520.897461,4521.794922,4508.077148,4370.256348,4373.589844,4542.94873,4498.077148,4473.846191,4399.871582,4547.179688,4362.692383,4530.384766,4492.563965,4374.358887,4485,4452.94873,2774,0,4,2572,8445,,,,0,4,4,4,4,4,4,4,4,4,4,4,4,4,4,4,4,4,4,4,4,4,4,4,4,4,4,4,4,4,4,4,4,100,,,,,,,,,,,,,,,,,,,,,,,,,,,,,,,,,,,,,,,,,,,,,,,,,,,,,,,,,,,,,,,,,,,,,,,,,,,,,,,,,,,,,,,,,,,,,,,,,,,,,,,,,,,,,,,,,,,,,,,,,,,,,,,,,,,,,,,,,,,,,,,,,,,,,,,,,,,,,,,,,,,,,,,,,,,,,,,,,,,,,,,,,,,,,,,,,,,,,,,,,,,,,,
1764669260.867746,27156,0,4380.256348,4381.794922,4491.666504,4533.333496,4374.615234,4511.025879,4534.230957,4375.384766,4578.333496,4403.333496,4488.077148,4507.692383,4559.743652,4398.846191,4382.307617,4502.05127,4532.820313,4527.94873,4511.538574,4382.820313,4387.436035,4560.384766,4511.538574,4490.897461,4411.282227,4558.589844,4381.025879,4547.307617,4501.922852,4392.436035,4507.563965,4481.025879,2636,0,4,2573,8453,,,,0,4,4,4,4,4,4,4,4,4,4,4,4,4,4,4,4,4,4,4,4,4,4,4,4,4,4,4,4,4,4,4,4,100,,,,,,,,,,,,,,,,,,,,,,,,,,,,,,,,,,,,,,,,,,,,,,,,,,,,,,,,,,,,,,,,,,,,,,,,,,,,,,,,,,,,,,,,,,,,,,,,,,,,,,,,,,,,,,,,,,,,,,,,,,,,,,,,,,,,,,,,,,,,,,,,,,,,,,,,,,,,,,,,,,,,,,,,,,,,,,,,,,,,,,,,,,,,,,,,,,,,,,,,,,,,,,
1764669260.871652,27157,0,4399.871582,4400.897461,4519.487305,4551.282227,4393.461426,4530.641113,4554.487305,4393.077148,4598.077148,4416.666504,4503.333496,4526.538574,4577.05127,4402.94873,4391.282227,4506.410156,4552.307617,4538.333496,4515.512695,4397.179688,4402.179688,4581.282227,4529.102539,4511.666504,4418.461426,4578.461426,4407.179688,4571.666504,4516.282227,4415.641113,4535.256348,4515,2845,0,4,2573,8453,,,,0,4,4,4,4,4,4,4,4,4,4,4,4,4,4,4,4,4,4,4,4,4,4,4,4,4,4,4,4,4,4,4,4,100,,,,,,,,,,,,,,,,,,,,,,,,,,,,,,,,,,,23173,0,0.657256,-0.303833,-0.302795,0.61969,0.995239,0.042974,0.01758,16.833334,37.166668,-24.666666,,,,,,,,,,,,,,,,,,,,,,,,,,,,,,,,,,,,,,,,,,,,,,,,,,,,,,,,,,,,,,,,,,,,,,,,,,,,,,,,,,,,,,,,,,,,,,,,,,,,,,,,,,,,,,,,,,,,,,,,,,,,,,,,,,,,,,,,,,,,,,,,,,,,,,,,,,,,,,,,
1764669260.875558,27158,0,4419.230957,4417.820313,4542.820313,4567.820313,4417.94873,4550.897461,4574.743652,4415.641113,4616.538574,4427.692383,4518.461426,4544.615234,4595.897461,4408.333496,4400.641113,4511.794922,4570.641113,4551.410156,4523.077148,4409.871582,4413.205078,4595.256348,4542.692383,4525.641113,4418.589844,4596.922852,4428.589844,4591.410156,4528.205078,4430.384766,4556.410156,4541.410156,2961,0,4,2574,8461,,,,0,4,4,4,4,4,4,4,4,4,4,4,4,4,4,4,4,4,4,4,4,4,4,4,4,4,4,4,4,4,4,4,4,100,,,,,,,,,,,,,,,,,,,,,,,,,,,,,,,,,,,,,,,,,,,,,,,,,,,,,,,,,,,,,,,,,,,,,,,,,,,,,,,,,,,,,,,,,,,,,,,,,,,,,,,,,,,,,,,,,,,,,,,,,,,,,,,,,,,,,,,,,,,,,,,,,,,,,,,,,,,,,,,,,,,,,,,,,,,,,,,,,,,,,,,,,,,,,,,,,,,,,,,,,,,,,,
1764669260.879464,27159,0,4427.563965,4423.077148,4549.102539,4574.487305,4435.384766,4561.410156,4584.743652,4431.666504,4622.307617,4428.846191,4525.384766,4553.077148,4606.666504,4411.025879,4405.769043,4515.641113,4579.102539,4561.922852,4532.563965,4415.384766,4417.563965,4596.410156,4546.153809,4526.410156,4413.589844,4604.230957,4434.615234,4597.820313,4531.666504,4428.333496,4562.436035,4552.436035,2886,0,4,2574,8461,,,,0,4,4,4,4,4,4,4,4,4,4,4,4,4,4,4,4,4,4,4,4,4,4,4,4,4,4,4,4,4,4,4,4,100,,,,,,,,,,,,,,,,,,,,,,,,,,,,,,,,,,,,,,,,,,,,,,,,,,,,,,,,,,,,,,,,,,,,,,,,,,,,,,,,,,,,,,,,,,,,,,,,,,,,,,,,,,,,,,,,,,,,,,,,,,,,,,,,,,,,,,,,,,,,,,,,,,,,,,,,,,,,,,,,,,,,,,,,,,,,,,,,,,,,,,,,,,,,,,,,,,,,,,,,,,,,,,
1764669260.883370,27160,0,4420.256348,4414.487305,4537.179688,4566.410156,4437.436035,4556.666504,4580.128418,4432.436035,4611.153809,4416.794922,4520.128418,4547.692383,4603.205078,4408.717773,4403.205078,4516.025879,4574.358887,4563.205078,4537.692383,4409.871582,4413.846191,4586.922852,4537.94873,4514.743652,4407.692383,4596.538574,4423.333496,4589.487305,4525.384766,4411.666504,4552.179688,4548.333496,2751,0,4,2572,8469,,,,0,4,4,4,4,4,4,4,4,4,4,4,4,4,4,4,4,4,4,4,4,4,4,4,4,4,4,4,4,4,4,4,4,100,,,,,,,,,,,,,,,,,,,,,,,,,,,,,,,,,,,,,,,,,,,,,,,1.351262,1.089666,3.528113,2.517885,1.740429,2.100901,1.982192,4.064173,3.094599,1.943182,2.591658,4.190228,3.13366,3.651484,2.504137,1.349193,2.352695,3.312516,1.979978,2.053179,1.166896,0.945365,5.637928,2.869376,2.102157,1.486661,1.04087,3.854246,2.619036,1.765347,1.356164,1.680583,4.454457,2.623796,2.045693,1.068654,2.086096,4.19464,2.953016,2.168544,1.156847,2.759059,5.760675,3.279156,2.014018,1.033783,2.968297,7.342275,4.632594,3.946227,0.989054,1.221275,2.2209,1.724553,1.543617,0.641968,1.276802,2.639298,2.616731,1.777846,0.998921,1.796076,2.205768,1.867869,1.515156,0.598233,0.643425,1.270185,1.05994,1.221763,0.729471,1.338207,2.363089,1.610235,1.617752,0.546589,0.902679,1.396643,0.797265,0.804379,1.373498,2.706928,3.569788,2.62238,2.014491,1.330443,3.879018,3.499251,2.469465,2.208083,0.787333,3.00214,1.993821,1.667401,1.345652,1.279098,2.834976,3.308612,2.204674,1.988558,1.395132,4.410006,4.684934,3.009348,1.794086,1.099139,2.744447,3.32837,2.924453,1.771611,0.82351,1.011465,3.386456,2.47725,1.8787,1.051147,2.913686,2.776031,2.947844,1.905417,1.886511,7.711749,15.125741,4.487238,5.391293,1.723991,3.128508,4.146325,2.857906,1.904424,1.908372,2.4617,3.366022,2.721058,1.804906,1.177959,1.728046,3.091208,3.120732,2.021694,0.834213,0.836747,1.733424,1.279758,0.898969,1.699075,1.5852,4.1892,3.010389,2.14171,2.466545,3.240484,3.637779,3.139563,2.82176,2.428098,6.131194,2.761422,3.18643,3.427471
1764669260.887276,27161,0,4402.307617,4397.94873,4515.256348,4546.153809,4424.743652,4539.487305,4563.974121,4417.563965,4589.230957,4395.641113,4505.769043,4532.179688,4586.410156,4402.179688,4393.205078,4512.307617,4559.743652,4552.563965,4532.179688,4395.256348,4403.333496,4573.974121,4522.692383,4498.077148,4404.230957,4578.461426,4402.563965,4572.563965,4513.589844,4391.153809,4532.436035,4534.358887,2915,0,4,2572,8469,,,,0,4,4,4,4,4,4,4,4,4,4,4,4,4,4,4,4,4,4,4,4,4,4,4,4,4,4,4,4,4,4,4,4,100,,,,,,,,,,,,,,,,,,,,,,,,,,,,,,,,,,,23174,0,0.657054,-0.303955,-0.302734,0.619873,1.010866,0.049322,0.018069,17.333334,36.833332,-23.833334,,,,,,,,,,,,,,,,,,,,,,,,,,,,,,,,,,,,,,,,,,,,,,,,,,,,,,,,,,,,,,,,,,,,,,,,,,,,,,,,,,,,,,,,,,,,,,,,,,,,,,,,,,,,,,,,,,,,,,,,,,,,,,,,,,,,,,,,,,,,,,,,,,,,,,,,,,,,,,,,
1764669260.891182,27162,0,4385.256348,4383.461426,4495.897461,4523.333496,4406.922852,4519.871582,4545.512695,4395.641113,4568.974121,4376.666504,4490.897461,4515.769043,4566.025879,4395,4380.641113,4507.05127,4544.230957,4535.769043,4518.205078,4380.769043,4391.153809,4565.641113,4508.846191,4486.922852,4404.358887,4561.025879,4385.512695,4557.436035,4503.717773,4379.487305,4514.230957,4517.563965,1843,0,4,2571,8477,,,,0,4,4,4,4,4,4,4,4,4,4,4,4,4,4,4,4,4,4,4,4,4,4,4,4,4,4,4,4,4,4,4,4,100,,,,,,,,,,,,,,,,,,,,,,,,,,,,,,,,,,,,,,,,,,,,,,,,,,,,,,,,,,,,,,,,,,,,,,,,,,,,,,,,,,,,,,,,,,,,,,,,,,,,,,,,,,,,,,,,,,,,,,,,,,,,,,,,,,,,,,,,,,,,,,,,,,,,,,,,,,,,,,,,,,,,,,,,,,,,,,,,,,,,,,,,,,,,,,,,,,,,,,,,,,,,,,
1764669260.895089,27163,0,4380,4379.487305,4489.743652,4510.512695,4396.282227,4509.743652,4535.641113,4379.871582,4561.282227,4372.692383,4484.487305,4509.102539,4554.358887,4392.563965,4373.974121,4505.128418,4537.563965,4525.256348,4506.410156,4377.94873,4385.256348,4566.538574,4504.743652,4487.692383,4408.589844,4554.487305,4382.94873,4552.563965,4501.666504,4383.333496,4507.436035,4503.846191,2469,0,4,2571,8477,,,,0,4,4,4,4,4,4,4,4,4,4,4,4,4,4,4,4,4,4,4,4,4,4,4,4,4,4,4,4,4,4,4,4,100,,,,,,,,,,,,,,,,,,,,,,,,,,,,,,,,,,,,,,,,,,,,,,,,,,,,,,,,,,,,,,,,,,,,,,,,,,,,,,,,,,,,,,,,,,,,,,,,,,,,,,,,,,,,,,,,,,,,,,,,,,,,,,,,,,,,,,,,,,,,,,,,,,,,,,,,,,,,,,,,,,,,,,,,,,,,,,,,,,,,,,,,,,,,,,,,,,,,,,,,,,,,,,
1764669260.898995,27164,0,4389.615234,4387.820313,4500.512695,4515.128418,4400,4514.871582,4539.871582,4379.871582,4569.358887,4389.230957,4490.897461,4516.922852,4558.461426,4398.077148,4379.743652,4510.256348,4545,4531.025879,4508.205078,4391.794922,4390.897461,4576.922852,4513.717773,4499.743652,4416.538574,4563.077148,4395.128418,4560.897461,4508.461426,4399.743652,4515.512695,4498.077148,2645,0,4,2572,8485,,,,0,4,4,4,4,4,4,4,4,4,4,4,4,4,4,4,4,4,4,4,4,4,4,4,4,4,4,4,4,4,4,4,4,100,,,,,,,,,,,,,,,,,,,,,,,,,,,,,,,,,,,,,,,,,,,,,,,,,,,,,,,,,,,,,,,,,,,,,,,,,,,,,,,,,,,,,,,,,,,,,,,,,,,,,,,,,,,,,,,,,,,,,,,,,,,,,,,,,,,,,,,,,,,,,,,,,,,,,,,,,,,,,,,,,,,,,,,,,,,,,,,,,,,,,,,,,,,,,,,,,,,,,,,,,,,,,,
1764669260.902901,27165,0,4407.94873,4402.692383,4523.589844,4535,4415.897461,4532.05127,4555.769043,4395.256348,4587.05127,4419.743652,4506.794922,4535.512695,4576.153809,4410,4396.922852,4521.794922,4563.077148,4552.692383,4525.512695,4415.641113,4407.307617,4591.794922,4531.410156,4515.641113,4426.025879,4581.922852,4413.205078,4577.05127,4519.871582,4418.205078,4533.717773,4502.820313,2495,0,4,2572,8485,,,,0,4,4,4,4,4,4,4,4,4,4,4,4,4,4,4,4,4,4,4,4,4,4,4,4,4,4,4,4,4,4,4,4,100,,,,,,,,,,,,,,,,,,,,,,,,,,,,,,,,,,,23175,0,0.65688,-0.303894,-0.302673,0.620117,1.010866,0.049322,0.018069,16.5,37.5,-25.5,,,,,,,,,,,,,,,,,,,,,,,,,,,,,,,,,,,,,,,,,,,,,,,,,,,,,,,,,,,,,,,,,,,,,,,,,,,,,,,,,,,,,,,,,,,,,,,,,,,,,,,,,,,,,,,,,,,,,,,,,,,,,,,,,,,,,,,,,,,,,,,,,,,,,,,,,,,,,,,,
1764669260.906807,27166,0,4424.230957,4415.769043,4547.692383,4559.871582,4434.102539,4551.025879,4574.487305,4417.05127,4603.974121,4448.333496,4523.077148,4555,4597.692383,4422.307617,4416.538574,4534.230957,4581.794922,4577.563965,4547.436035,4435.384766,4426.538574,4603.846191,4548.461426,4526.410156,4432.05127,4599.871582,4425.128418,4591.410156,4529.615234,4429.230957,4552.307617,4515.897461,2765,0,4,2573,8492,,,,0,4,4,4,4,4,4,4,4,4,4,4,4,4,4,4,4,4,4,4,4,4,4,4,4,4,4,4,4,4,4,4,4,100,,,,,,,,,,,,,,,,,,,,,,,,,,,,,,,,,,,,,,,,,,,,,,,,,,,,,,,,,,,,,,,,,,,,,,,,,,,,,,,,,,,,,,,,,,,,,,,,,,,,,,,,,,,,,,,,,,,,,,,,,,,,,,,,,,,,,,,,,,,,,,,,,,,,,,,,,,,,,,,,,,,,,,,,,,,,,,,,,,,,,,,,,,,,,,,,,,,,,,,,,,,,,,
1764669260.910713,27167,0,4430,4420.384766,4559.487305,4576.538574,4443.589844,4560.641113,4585.641113,4432.179688,4611.410156,4458.974121,4530.769043,4564.743652,4610.769043,4427.307617,4426.538574,4540.512695,4590.128418,4588.717773,4558.205078,4438.589844,4438.717773,4606.410156,4554.358887,4526.282227,4428.717773,4606.410156,4423.974121,4595.384766,4533.077148,4428.461426,4561.153809,4528.333496,2769,0,4,2573,8492,,,,0,4,4,4,4,4,4,4,4,4,4,4,4,4,4,4,4,4,4,4,4,4,4,4,4,4,4,4,4,4,4,4,4,100,,,,,,,,,,,,,,,,,,,,,,,,,,,,,,,,,,,,,,,,,,,,,,,,,,,,,,,,,,,,,,,,,,,,,,,,,,,,,,,,,,,,,,,,,,,,,,,,,,,,,,,,,,,,,,,,,,,,,,,,,,,,,,,,,,,,,,,,,,,,,,,,,,,,,,,,,,,,,,,,,,,,,,,,,,,,,,,,,,,,,,,,,,,,,,,,,,,,,,,,,,,,,,
1764669260.914619,27168,0,4422.05127,4413.846191,4549.743652,4575.384766,4437.94873,4555.128418,4582.436035,4431.282227,4606.025879,4443.717773,4524.615234,4558.077148,4606.922852,4420.512695,4418.846191,4535.641113,4581.538574,4575.641113,4547.820313,4421.410156,4435.769043,4595.897461,4543.974121,4514.230957,4413.846191,4597.179688,4410.128418,4585.641113,4527.820313,4417.05127,4554.230957,4527.563965,2838,0,4,2574,8500,,,,0,4,4,4,4,4,4,4,4,4,4,4,4,4,4,4,4,4,4,4,4,4,4,4,4,4,4,4,4,4,4,4,4,100,,,,,,,,,,,,,,,,,,,,,,,,,,,,,,,,,,,,,,,,,,,,,,,,,,,,,,,,,,,,,,,,,,,,,,,,,,,,,,,,,,,,,,,,,,,,,,,,,,,,,,,,,,,,,,,,,,,,,,,,,,,,,,,,,,,,,,,,,,,,,,,,,,,,,,,,,,,,,,,,,,,,,,,,,,,,,,,,,,,,,,,,,,,,,,,,,,,,,,,,,,,,,,
1764669260.918525,27169,0,4403.461426,4397.436035,4519.358887,4556.794922,4419.230957,4536.410156,4564.102539,4413.846191,4590.384766,4407.692383,4506.922852,4536.666504,4586.153809,4403.333496,4395.641113,4521.025879,4558.077148,4542.563965,4519.871582,4390.897461,4416.922852,4574.102539,4520.128418,4494.102539,4392.692383,4576.666504,4389.615234,4565.256348,4514.743652,4399.102539,4532.563965,4506.282227,2944,0,4,2574,8500,,,,0,4,4,4,4,4,4,4,4,4,4,4,4,4,4,4,4,4,4,4,4,4,4,4,4,4,4,4,4,4,4,4,4,100,,,,,,,,,,,,,,,,,,,,,,,,,,,,,,,,,,,23176,0,0.656466,-0.303406,-0.302185,0.621033,1.013307,0.038579,0.021487,17.5,35.333332,-25.833334,,,,,,,,,,,,,,,,,,,,,,,,,,,,,,,,,,,,,,,,,,,,,,,,,,,,,,,,,,,,,,,,,,,,,,,,,,,,,,,,,,,,,,,,,,,,,,,,,,,,,,,,,,,,,,,,,,,,,,,,,,,,,,,,,,,,,,,,,,,,,,,,,,,,,,,,,,,,,,,,
1764669260.922431,27170,0,4382.436035,4377.179688,4480.897461,4530.641113,4396.282227,4513.589844,4538.333496,4389.615234,4571.153809,4368.333496,4486.282227,4510.641113,4558.205078,4383.461426,4367.94873,4502.692383,4530,4505.512695,4488.846191,4361.410156,4389.615234,4549.358887,4494.230957,4473.461426,4375.128418,4555.769043,4371.153809,4542.692383,4498.974121,4380.897461,4504.743652,4471.282227,2713,0,4,2575,8508,,,,0,4,4,4,4,4,4,4,4,4,4,4,4,4,4,4,4,4,4,4,4,4,4,4,4,4,4,4,4,4,4,4,4,100,,,,,,,,,,,,,,,,,,,,,,,,,,,,,,,,,,,,,,,,,,,,,,,,,,,,,,,,,,,,,,,,,,,,,,,,,,,,,,,,,,,,,,,,,,,,,,,,,,,,,,,,,,,,,,,,,,,,,,,,,,,,,,,,,,,,,,,,,,,,,,,,,,,,,,,,,,,,,,,,,,,,,,,,,,,,,,,,,,,,,,,,,,,,,,,,,,,,,,,,,,,,,,
1764669260.926337,27171,0,4368.589844,4361.922852,4452.692383,4511.282227,4380.512695,4497.820313,4517.563965,4372.563965,4556.153809,4345.769043,4472.94873,4492.820313,4537.820313,4370.256348,4349.615234,4488.589844,4510.256348,4482.05127,4469.871582,4345.512695,4366.025879,4533.333496,4478.974121,4461.666504,4367.563965,4545,4361.794922,4528.974121,4487.436035,4369.743652,4482.94873,4440.256348,2883,0,4,2575,8508,,,,0,4,4,4,4,4,4,4,4,4,4,4,4,4,4,4,4,4,4,4,4,4,4,4,4,4,4,4,4,4,4,4,4,100,,,,,,,,,,,,,,,,,,,,,,,,,,,,,,,,,,,,,,,,,,,,,,,,,,,,,,,,,,,,,,,,,,,,,,,,,,,,,,,,,,,,,,,,,,,,,,,,,,,,,,,,,,,,,,,,,,,,,,,,,,,,,,,,,,,,,,,,,,,,,,,,,,,,,,,,,,,,,,,,,,,,,,,,,,,,,,,,,,,,,,,,,,,,,,,,,,,,,,,,,,,,,,
1764669260.930243,27172,0,4368.461426,4358.974121,4448.077148,4507.820313,4379.871582,4495.641113,4512.05127,4372.05127,4551.282227,4351.410156,4472.692383,4491.282227,4535,4369.358887,4349.358887,4483.974121,4507.692383,4481.153809,4469.871582,4347.563965,4356.410156,4533.974121,4480.641113,4464.230957,4368.846191,4548.333496,4364.358887,4530.769043,4485.769043,4371.153809,4476.794922,4431.025879,2778,0,4,2576,8516,,,,0,4,4,4,4,4,4,4,4,4,4,4,4,4,4,4,4,4,4,4,4,4,4,4,4,4,4,4,4,4,4,4,4,100,,,,,,,,,,,,,,,,,,,,,,,,,,,,,,,,,,,,,,,,,,,,,,,,,,,,,,,,,,,,,,,,,,,,,,,,,,,,,,,,,,,,,,,,,,,,,,,,,,,,,,,,,,,,,,,,,,,,,,,,,,,,,,,,,,,,,,,,,,,,,,,,,,,,,,,,,,,,,,,,,,,,,,,,,,,,,,,,,,,,,,,,,,,,,,,,,,,,,,,,,,,,,,
1764669260.934149,27173,0,4380.641113,4369.615234,4467.307617,4519.487305,4394.358887,4506.025879,4523.205078,4386.922852,4557.563965,4379.487305,4484.358887,4504.743652,4549.358887,4379.230957,4365.769043,4488.846191,4521.538574,4498.461426,4484.358887,4362.179688,4362.692383,4549.615234,4495.897461,4479.102539,4372.820313,4561.282227,4376.410156,4546.538574,4494.487305,4384.230957,4486.922852,4449.358887,2862,0,4,2576,8516,,,,0,4,4,4,4,4,4,4,4,4,4,4,4,4,4,4,4,4,4,4,4,4,4,4,4,4,4,4,4,4,4,4,4,100,,,,,,,,,,,,,,,,,,,,,,,,,,,,,,,,,,,23177,0,0.656174,-0.303345,-0.302002,0.62146,1.013307,0.038579,0.021487,16.333334,37,-24.166666,,,,,,,,,,,,,,,,,,,,,,,,,,,,,,,,,,,,,,,,,,,,,,,,,,,,,,,,,,,,,,,,,,,,,,,,,,,,,,,,,,,,,,,,,,,,,,,,,,,,,,,,,,,,,,,,,,,,,,,,,,,,,,,,,,,,,,,,,,,,,,,,,,,,,,,,,,,,,,,,
1764669260.938055,27174,0,4397.179688,4387.307617,4498.077148,4536.922852,4415.256348,4521.666504,4543.205078,4407.05127,4570.769043,4410.769043,4500.384766,4523.974121,4569.871582,4392.692383,4388.589844,4498.717773,4542.179688,4521.666504,4502.436035,4379.102539,4378.589844,4569.487305,4513.846191,4497.436035,4375.256348,4574.358887,4391.410156,4566.282227,4508.077148,4401.153809,4505,4485.897461,2836,0,4,2576,8524,,,,0,4,4,4,4,4,4,4,4,4,4,4,4,4,4,4,4,4,4,4,4,4,4,4,4,4,4,4,4,4,4,4,4,100,,,,,,,,,,,,,,,,,,,,,,,,,,,,,,,,,,,,,,,,,,,,,,,,,,,,,,,,,,,,,,,,,,,,,,,,,,,,,,,,,,,,,,,,,,,,,,,,,,,,,,,,,,,,,,,,,,,,,,,,,,,,,,,,,,,,,,,,,,,,,,,,,,,,,,,,,,,,,,,,,,,,,,,,,,,,,,,,,,,,,,,,,,,,,,,,,,,,,,,,,,,,,,
1764669260.941961,27175,0,4408.846191,4402.307617,4523.589844,4549.358887,4430.384766,4534.230957,4559.487305,4420,4583.846191,4425,4512.436035,4537.94873,4584.102539,4402.307617,4405.769043,4508.077148,4557.820313,4538.974121,4515.256348,4390.256348,4394.487305,4582.179688,4524.615234,4508.846191,4376.410156,4580.128418,4402.692383,4578.974121,4518.974121,4411.410156,4520.897461,4522.563965,3011,0,4,2576,8524,,,,0,4,4,4,4,4,4,4,4,4,4,4,4,4,4,4,4,4,4,4,4,4,4,4,4,4,4,4,4,4,4,4,4,100,,,,,,,,,,,,,,,,,,,,,,,,,,,,,,,,,,,,,,,,,,,,,,,,,,,,,,,,,,,,,,,,,,,,,,,,,,,,,,,,,,,,,,,,,,,,,,,,,,,,,,,,,,,,,,,,,,,,,,,,,,,,,,,,,,,,,,,,,,,,,,,,,,,,,,,,,,,,,,,,,,,,,,,,,,,,,,,,,,,,,,,,,,,,,,,,,,,,,,,,,,,,,,
1764669260.945867,27176,0,4410.897461,4407.436035,4533.077148,4551.922852,4431.794922,4538.461426,4563.461426,4419.487305,4591.025879,4416.025879,4515.384766,4540.641113,4585.641113,4405,4410,4513.461426,4561.794922,4546.282227,4520.512695,4393.461426,4404.230957,4582.307617,4524.743652,4508.333496,4378.589844,4577.179688,4406.410156,4579.230957,4522.05127,4409.230957,4528.333496,4542.820313,2922,0,4,2576,8531,,,,0,4,4,4,4,4,4,4,4,4,4,4,4,4,4,4,4,4,4,4,4,4,4,4,4,4,4,4,4,4,4,4,4,100,,,,,,,,,,,,,,,,,,,,,,,,,,,,,,,,,,,,,,,,,,,,,,,,,,,,,,,,,,,,,,,,,,,,,,,,,,,,,,,,,,,,,,,,,,,,,,,,,,,,,,,,,,,,,,,,,,,,,,,,,,,,,,,,,,,,,,,,,,,,,,,,,,,,,,,,,,,,,,,,,,,,,,,,,,,,,,,,,,,,,,,,,,,,,,,,,,,,,,,,,,,,,,
1764669260.949773,27177,0,4404.615234,4402.563965,4527.179688,4546.794922,4421.410156,4534.230957,4555,4408.077148,4591.153809,4395.641113,4509.487305,4533.461426,4577.179688,4402.436035,4402.436035,4515,4555.769043,4546.922852,4521.282227,4391.922852,4407.307617,4572.94873,4517.692383,4498.589844,4381.922852,4570.128418,4402.94873,4569.743652,4517.436035,4397.179688,4527.94873,4540.128418,2802,0,4,2576,8531,,,,0,4,4,4,4,4,4,4,4,4,4,4,4,4,4,4,4,4,4,4,4,4,4,4,4,4,4,4,4,4,4,4,4,100,,,,,,,,,,,,,,,,,,,,,,,,,,,,,,,,,,,23178,0,0.656054,-0.303162,-0.301819,0.621765,0.998657,0.038091,0.023929,16.5,36.333332,-25.166666,,,,,,,,,,,,,,,,,,,,,,,,,,,,,,,,,,,,,,,,,,,,,,,,,,,,,,,,,,,,,,,,,,,,,,,,,,,,,,,,,,,,,,,,,,,,,,,,,,,,,,,,,,,,,,,,,,,,,,,,,,,,,,,,,,,,,,,,,,,,,,,,,,,,,,,,,,,,,,,,
1764669260.953679,27178,0,4394.743652,4392.436035,4514.230957,4539.871582,4407.820313,4525.512695,4541.282227,4393.846191,4587.436035,4383.974121,4499.487305,4521.922852,4566.666504,4397.94873,4389.871582,4514.615234,4546.538574,4545.384766,4520.256348,4389.487305,4405.769043,4562.692383,4509.743652,4488.077148,4383.846191,4564.487305,4395.512695,4558.077148,4509.102539,4383.077148,4524.358887,4519.358887,1384,0,4,2576,8539,,,,0,4,4,4,4,4,4,4,4,4,4,4,4,4,4,4,4,4,4,4,4,4,4,4,4,4,4,4,4,4,4,4,4,100,,,,,,,,,,,,,,,,,,,,,,,,,,,,,,,,,,,,,,,,,,,,,,,,,,,,,,,,,,,,,,,,,,,,,,,,,,,,,,,,,,,,,,,,,,,,,,,,,,,,,,,,,,,,,,,,,,,,,,,,,,,,,,,,,,,,,,,,,,,,,,,,,,,,,,,,,,,,,,,,,,,,,,,,,,,,,,,,,,,,,,,,,,,,,,,,,,,,,,,,,,,,,,
1764669260.957585,27179,0,4386.153809,4383.717773,4503.077148,4535.897461,4398.846191,4516.666504,4530.897461,4384.230957,4584.358887,4391.666504,4491.153809,4511.922852,4561.153809,4394.358887,4380.128418,4513.333496,4540.384766,4543.333496,4518.077148,4388.077148,4401.922852,4558.717773,4505.128418,4483.717773,4383.846191,4562.820313,4388.333496,4550.512695,4502.179688,4375.128418,4521.282227,4493.333496,2733,0,4,2576,8539,,,,0,4,4,4,4,4,4,4,4,4,4,4,4,4,4,4,4,4,4,4,4,4,4,4,4,4,4,4,4,4,4,4,4,100,,,,,,,,,,,,,,,,,,,,,,,,,,,,,,,,,,,,,,,,,,,,,,,,,,,,,,,,,,,,,,,,,,,,,,,,,,,,,,,,,,,,,,,,,,,,,,,,,,,,,,,,,,,,,,,,,,,,,,,,,,,,,,,,,,,,,,,,,,,,,,,,,,,,,,,,,,,,,,,,,,,,,,,,,,,,,,,,,,,,,,,,,,,,,,,,,,,,,,,,,,,,,,
1764669260.961491,27180,0,4381.794922,4380.512695,4497.563965,4536.410156,4397.179688,4511.538574,4528.717773,4382.436035,4583.846191,4411.794922,4488.333496,4507.307617,4563.077148,4392.94873,4377.436035,4511.410156,4539.743652,4541.025879,4515.256348,4387.94873,4397.692383,4562.692383,4505.256348,4487.436035,4385.256348,4565.256348,4385.128418,4549.615234,4499.615234,4377.307617,4520.384766,4475.256348,2486,0,4,2575,8547,,,,0,4,4,4,4,4,4,4,4,4,4,4,4,4,4,4,4,4,4,4,4,4,4,4,4,4,4,4,4,4,4,4,4,100,,,,,,,,,,,,,,,,,,,,,,,,,,,,,,,,,,,,,,,,,,,,,,,,,,,,,,,,,,,,,,,,,,,,,,,,,,,,,,,,,,,,,,,,,,,,,,,,,,,,,,,,,,,,,,,,,,,,,,,,,,,,,,,,,,,,,,,,,,,,,,,,,,,,,,,,,,,,,,,,,,,,,,,,,,,,,,,,,,,,,,,,,,,,,,,,,,,,,,,,,,,,,,
1764669260.965397,27181,0,4383.589844,4384.358887,4497.563965,4540.897461,4400.512695,4512.94873,4534.871582,4387.563965,4585.512695,4427.692383,4491.410156,4509.102539,4570.897461,4394.743652,4381.025879,4508.846191,4544.230957,4539.230957,4513.974121,4389.743652,4395.897461,4571.666504,4510.128418,4496.538574,4394.102539,4570.512695,4387.563965,4554.615234,4502.05127,4388.461426,4520.897461,4472.692383,2238,0,4,2575,8547,,,,0,4,4,4,4,4,4,4,4,4,4,4,4,4,4,4,4,4,4,4,4,4,4,4,4,4,4,4,4,4,4,4,4,100,,,,,,,,,,,,,,,,,,,,,,,,,,,,,,,,,,,23179,0,0.656046,-0.302856,-0.301514,0.62207,1.002075,0.0293,0.017092,16.333334,38.166668,-27,,,,,,,,,,,,,,,,,,,,,,,,,,,,,,,,,,,,,,,,,,,,,,,,,,,,,,,,,,,,,,,,,,,,,,,,,,,,,,,,,,,,,,,,,,,,,,,,,,,,,,,,,,,,,,,,,,,,,,,,,,,,,,,,,,,,,,,,,,,,,,,,,,,,,,,,,,,,,,,,
1764669260.969303,27182,0,4391.025879,4393.461426,4501.282227,4548.077148,4406.410156,4521.282227,4546.025879,4396.794922,4588.205078,4427.436035,4498.205078,4516.282227,4580.384766,4399.358887,4387.820313,4506.025879,4552.307617,4539.871582,4516.666504,4394.358887,4399.230957,4580.769043,4518.205078,4506.410156,4413.717773,4578.077148,4394.743652,4563.205078,4507.692383,4403.461426,4522.307617,4485.128418,2747,0,4,2570,8555,,,,0,4,4,4,4,4,4,4,4,4,4,4,4,4,4,4,4,4,4,4,4,4,4,4,4,4,4,4,4,4,4,4,4,100,,,,,,,,,,,,,,,,,,,,,,,,,,,,,,,,,,,,,,,,,,,,,,,,,,,,,,,,,,,,,,,,,,,,,,,,,,,,,,,,,,,,,,,,,,,,,,,,,,,,,,,,,,,,,,,,,,,,,,,,,,,,,,,,,,,,,,,,,,,,,,,,,,,,,,,,,,,,,,,,,,,,,,,,,,,,,,,,,,,,,,,,,,,,,,,,,,,,,,,,,,,,,,
1764669260.973209,27183,0,4400.897461,4403.077148,4507.436035,4555.128418,4412.94873,4532.94873,4557.179688,4406.410156,4591.410156,4412.820313,4505,4524.871582,4587.05127,4404.871582,4393.205078,4503.846191,4560.256348,4543.205078,4523.077148,4401.025879,4407.05127,4585.256348,4526.410156,4512.563965,4440.641113,4586.410156,4402.179688,4571.922852,4513.077148,4415,4524.871582,4505.512695,2458,0,4,2570,8555,,,,0,4,4,4,4,4,4,4,4,4,4,4,4,4,4,4,4,4,4,4,4,4,4,4,4,4,4,4,4,4,4,4,4,100,,,,,,,,,,,,,,,,,,,,,,,,,,,,,,,,,,,,,,,,,,,,,,,,,,,,,,,,,,,,,,,,,,,,,,,,,,,,,,,,,,,,,,,,,,,,,,,,,,,,,,,,,,,,,,,,,,,,,,,,,,,,,,,,,,,,,,,,,,,,,,,,,,,,,,,,,,,,,,,,,,,,,,,,,,,,,,,,,,,,,,,,,,,,,,,,,,,,,,,,,,,,,,
1764669260.977115,27184,0,4406.922852,4406.666504,4513.717773,4558.589844,4417.436035,4540.512695,4562.307617,4411.538574,4593.333496,4395,4507.179688,4528.846191,4587.05127,4407.94873,4393.974121,4502.692383,4563.077148,4546.025879,4528.461426,4405.769043,4414.487305,4582.307617,4529.743652,4511.410156,4462.179688,4591.666504,4404.743652,4575.897461,4514.743652,4416.794922,4528.333496,4523.974121,2908,0,4,2569,8563,,,,0,4,4,4,4,4,4,4,4,4,4,4,4,4,4,4,4,4,4,4,4,4,4,4,4,4,4,4,4,4,4,4,4,100,,,,,,,,,,,,,,,,,,,,,,,,,,,,,,,,,,,,,,,,,,,,,,,,,,,,,,,,,,,,,,,,,,,,,,,,,,,,,,,,,,,,,,,,,,,,,,,,,,,,,,,,,,,,,,,,,,,,,,,,,,,,,,,,,,,,,,,,,,,,,,,,,,,,,,,,,,,,,,,,,,,,,,,,,,,,,,,,,,,,,,,,,,,,,,,,,,,,,,,,,,,,,,
1764669260.981021,27185,0,4403.846191,4399.871582,4517.436035,4556.025879,4416.538574,4537.05127,4557.307617,4408.846191,4592.436035,4383.974121,4501.794922,4523.846191,4579.358887,4406.153809,4388.846191,4502.179688,4556.922852,4543.717773,4526.794922,4403.589844,4414.487305,4571.922852,4523.974121,4502.05127,4463.205078,4590.384766,4399.615234,4571.153809,4510.641113,4406.666504,4530.897461,4531.538574,2912,0,4,2569,8563,,,,0,4,4,4,4,4,4,4,4,4,4,4,4,4,4,4,4,4,4,4,4,4,4,4,4,4,4,4,4,4,4,4,4,100,,,,,,,,,,,,,,,,,,,,,,,,,,,,,,,,,,,23180,0,0.656123,-0.302612,-0.301086,0.622314,0.994262,0.033207,0.025882,15.833333,36.5,-25,,,,,,,,,,,,,,,,,,,,,,,,,,,,,,,,,,,,,,,,,,,,,,,,,,,,,,,,,,,,,,,,,,,,,,,,,,,,,,,,,,,,,,,,,,,,,,,,,,,,,,,,,,,,,,,,,,,,,,,,,,,,,,,,,,,,,,,,,,,,,,,,,,,,,,,,,,,,,,,,
1764669260.984927,27186,0,4391.922852,4385.384766,4518.205078,4548.717773,4409.102539,4523.077148,4543.333496,4399.615234,4588.974121,4383.333496,4491.153809,4511.025879,4567.563965,4401.282227,4380.256348,4502.179688,4543.717773,4535.897461,4517.563965,4393.589844,4404.871582,4558.333496,4510.641113,4487.94873,4437.436035,4582.179688,4389.487305,4558.589844,4502.820313,4389.230957,4530.128418,4523.846191,1795,0,4,2566,8570,,,,0,4,4,4,4,4,4,4,4,4,4,4,4,4,4,4,4,4,4,4,4,4,4,4,4,4,4,4,4,4,4,4,4,100,,,,,,,,,,,,,,,,,,,,,,,,,,,,,,,,,,,,,,,,,,,,,,,,,,,,,,,,,,,,,,,,,,,,,,,,,,,,,,,,,,,,,,,,,,,,,,,,,,,,,,,,,,,,,,,,,,,,,,,,,,,,,,,,,,,,,,,,,,,,,,,,,,,,,,,,,,,,,,,,,,,,,,,,,,,,,,,,,,,,,,,,,,,,,,,,,,,,,,,,,,,,,,
1764669260.988833,27187,0,4378.205078,4371.666504,4516.282227,4541.025879,4399.102539,4507.179688,4527.563965,4390.256348,4585.641113,4391.025879,4481.666504,4497.820313,4558.205078,4397.820313,4373.717773,4503.589844,4531.410156,4527.563965,4506.794922,4381.666504,4390.769043,4548.461426,4497.692383,4476.794922,4395.769043,4571.538574,4381.025879,4545.512695,4495.641113,4373.589844,4524.487305,4503.717773,2751,0,4,2566,8570,,,,0,4,4,4,4,4,4,4,4,4,4,4,4,4,4,4,4,4,4,4,4,4,4,4,4,4,4,4,4,4,4,4,4,100,,,,,,,,,,,,,,,,,,,,,,,,,,,,,,,,,,,,,,,,,,,,,,,,,,,,,,,,,,,,,,,,,,,,,,,,,,,,,,,,,,,,,,,,,,,,,,,,,,,,,,,,,,,,,,,,,,,,,,,,,,,,,,,,,,,,,,,,,,,,,,,,,,,,,,,,,,,,,,,,,,,,,,,,,,,,,,,,,,,,,,,,,,,,,,,,,,,,,,,,,,,,,,
1764669260.992739,27188,0,4370.897461,4366.153809,4511.794922,4536.794922,4392.563965,4499.102539,4518.589844,4386.922852,4584.487305,4401.153809,4479.871582,4492.05127,4556.794922,4398.974121,4373.077148,4507.179688,4527.307617,4525.897461,4502.436035,4376.025879,4381.025879,4546.922852,4493.333496,4474.487305,4360.384766,4563.205078,4378.077148,4539.358887,4492.94873,4367.436035,4514.102539,4478.846191,2616,0,4,2562,8578,,,,0,4,4,4,4,4,4,4,4,4,4,4,4,4,4,4,4,4,4,4,4,4,4,4,4,4,4,4,4,4,4,4,4,100,,,,,,,,,,,,,,,,,,,,,,,,,,,,,,,,,,,,,,,,,,,,,,,,,,,,,,,,,,,,,,,,,,,,,,,,,,,,,,,,,,,,,,,,,,,,,,,,,,,,,,,,,,,,,,,,,,,,,,,,,,,,,,,,,,,,,,,,,,,,,,,,,,,,,,,,,,,,,,,,,,,,,,,,,,,,,,,,,,,,,,,,,,,,,,,,,,,,,,,,,,,,,,
1764669260.996645,27189,0,4372.436035,4369.615234,4503.461426,4536.538574,4392.94873,4501.410156,4520.128418,4390.128418,4584.743652,4407.05127,4486.153809,4495.641113,4562.436035,4403.717773,4377.179688,4512.05127,4532.179688,4532.307617,4506.410156,4379.743652,4380.641113,4552.05127,4498.589844,4480.128418,4349.102539,4558.589844,4378.589844,4541.538574,4494.743652,4371.153809,4501.153809,4458.846191,2814,0,4,2562,8578,,,,0,4,4,4,4,4,4,4,4,4,4,4,4,4,4,4,4,4,4,4,4,4,4,4,4,4,4,4,4,4,4,4,4,100,,,,,,,,,,,,,,,,,,,,,,,,,,,,,,,,,,,23181,0,0.656192,-0.302185,-0.300354,0.622803,1.005494,0.025882,0.030765,15.5,35.833332,-25.833334,,,,,,,,,,,,,,,,,,,,,,,,,,,,,,,,,,,,,,,,,,,,,,,,,,,,,,,,,,,,,,,,,,,,,,,,,,,,,,,,,,,,,,,,,,,,,,,,,,,,,,,,,,,,,,,,,,,,,,,,,,,,,,,,,,,,,,,,,,,,,,,,,,,,,,,,,,,,,,,,
1764669261.000551,27190,0,4378.717773,4376.410156,4492.179688,4537.692383,4398.333496,4508.717773,4528.461426,4394.743652,4584.102539,4405.384766,4494.615234,4503.461426,4569.358887,4407.436035,4381.282227,4514.743652,4539.743652,4541.410156,4513.846191,4388.461426,4386.922852,4557.94873,4507.563965,4487.436035,4363.461426,4555.769043,4377.436035,4546.666504,4497.436035,4378.589844,4490.128418,4451.025879,2938,0,4,2562,8586,,,,0,4,4,4,4,4,4,4,4,4,4,4,4,4,4,4,4,4,4,4,4,4,4,4,4,4,4,4,4,4,4,4,4,100,,,,,,,,,,,,,,,,,,,,,,,,,,,,,,,,,,,,,,,,,,,,,,,,,,,,,,,,,,,,,,,,,,,,,,,,,,,,,,,,,,,,,,,,,,,,,,,,,,,,,,,,,,,,,,,,,,,,,,,,,,,,,,,,,,,,,,,,,,,,,,,,,,,,,,,,,,,,,,,,,,,,,,,,,,,,,,,,,,,,,,,,,,,,,,,,,,,,,,,,,,,,,,
1764669261.004457,27191,0,4383.974121,4380.512695,4483.205078,4538.461426,4404.358887,4513.846191,4536.538574,4396.410156,4581.666504,4398.461426,4499.102539,4508.846191,4572.692383,4407.179688,4382.307617,4513.461426,4543.333496,4545.897461,4517.820313,4393.846191,4393.717773,4560.769043,4513.205078,4491.153809,4391.025879,4554.358887,4372.94873,4549.102539,4497.692383,4382.692383,4485.512695,4457.692383,2865,0,4,2562,8586,,,,0,4,4,4,4,4,4,4,4,4,4,4,4,4,4,4,4,4,4,4,4,4,4,4,4,4,4,4,4,4,4,4,4,100,,,,,,,,,,,,,,,,,,,,,,,,,,,,,,,,,,,,,,,,,,,,,,,,,,,,,,,,,,,,,,,,,,,,,,,,,,,,,,,,,,,,,,,,,,,,,,,,,,,,,,,,,,,,,,,,,,,,,,,,,,,,,,,,,,,,,,,,,,,,,,,,,,,,,,,,,,,,,,,,,,,,,,,,,,,,,,,,,,,,,,,,,,,,,,,,,,,,,,,,,,,,,,
1764669261.008363,27192,0,4385.897461,4379.871582,4483.717773,4540.641113,4407.94873,4513.974121,4540.384766,4396.153809,4580.641113,4393.461426,4498.974121,4509.487305,4572.436035,4404.487305,4382.179688,4509.487305,4541.922852,4543.974121,4515.512695,4391.666504,4396.410156,4561.794922,4513.333496,4491.153809,4415,4555.641113,4368.974121,4547.820313,4496.025879,4382.05127,4490,4473.846191,2723,0,4,2563,8594,,,,0,4,4,4,4,4,4,4,4,4,4,4,4,4,4,4,4,4,4,4,4,4,4,4,4,4,4,4,4,4,4,4,4,100,0.957031,25,4,4,1,3,3,4,3,3,3,1,4,4,4,4,4,4,4,3,4,4,4,4,4,4,1,4,4,3,4,3,3,1,,,,,,,,,,,,,1.533977,0.847953,3.894461,2.23171,1.920785,1.610389,1.691392,4.692658,2.725097,2.154413,1.984479,3.454217,3.935623,3.63123,2.777205,1.030734,1.889581,3.343392,1.711717,2.372822,1.082282,0.685815,5.603732,2.42438,2.214688,1.345404,0.824563,4.26103,2.242988,1.916783,1.226999,1.306281,5.00338,2.439873,2.260643,0.8842,1.837428,4.789608,2.801407,2.311138,0.985127,2.556004,6.481342,2.930794,2.224143,0.866022,3.017565,7.823596,4.468229,4.420269,0.901045,1.04908,2.513319,1.531377,1.693018,0.842938,1.071042,2.935985,2.2146,1.91983,0.994708,1.405457,2.493189,1.672074,1.652571,0.649999,0.66797,1.181713,1.012971,1.38777,0.762175,1.042451,2.608935,1.5205,1.826967,0.525007,0.761361,1.338611,0.834722,0.845762,1.374991,2.132994,3.906947,2.430641,2.198892,1.363185,2.908162,3.05453,2.209185,2.382452,0.819514,2.289275,1.620625,1.466869,1.482838,1.112042,2.064447,3.064661,1.877826,2.185349,1.264072,3.308763,4.200935,2.951576,2.011504,0.947147,2.186165,3.458688,2.756667,1.933648,0.79286,0.814129,3.672613,2.200682,2.059792,0.930371,2.271099,3.013518,2.695278,2.052613,2.280008,5.705399,13.848675,4.988102,6.026963,1.493172,2.351498,4.463211,2.404642,2.112472,1.621976,2.075588,3.95749,2.34386,1.934622,1.061811,1.35921,3.725197,2.710814,2.262943,0.746957,0.68571,1.968721,1.1216,1.001092,1.361162,1.335433,4.830035,2.601309,2.324409,1.976074,2.8795,3.852238,2.812497,3.118038,1.969269,5.119357,3.700595,2.939079,3.899476
1764669261.012269,27193,0,4386.666504,4377.692383,4496.025879,4546.922852,4409.743652,4512.05127,4540.641113,4398.205078,4584.743652,4396.410156,4498.333496,4507.563965,4572.436035,4403.205078,4384.358887,4506.410156,4539.487305,4539.102539,4509.871582,4383.461426,4393.974121,4564.230957,4511.410156,4490.256348,4422.94873,4560.641113,4370.256348,4546.153809,4494.871582,4380.512695,4500.512695,4488.205078,2894,0,4,2563,8594,,,,0,4,4,4,4,4,4,4,4,4,4,4,4,4,4,4,4,4,4,4,4,4,4,4,4,4,4,4,4,4,4,4,4,100,,,,,,,,,,,,,,,,,,,,,,,,,,,,,,,,,,,23182,0,0.656192,-0.302185,-0.300354,0.622803,1.018191,0.034672,0.026859,17.5,36.5,-24.166666,,,,,,,,,,,,,,,,,,,,,,,,,,,,,,,,,,,,,,,,,,,,,,,,,,,,,,,,,,,,,,,,,,,,,,,,,,,,,,,,,,,,,,,,,,,,,,,,,,,,,,,,,,,,,,,,,,,,,,,,,,,,,,,,,,,,,,,,,,,,,,,,,,,,,,,,,,,,,,,,
1764669261.016175,27194,0,4388.077148,4376.922852,4513.333496,4555.897461,4411.025879,4511.282227,4539.871582,4403.974121,4592.692383,4406.666504,4500,4505.769043,4574.743652,4404.487305,4388.846191,4505.769043,4539.487305,4535.769043,4505.256348,4374.230957,4388.461426,4567.820313,4510.641113,4489.871582,4411.410156,4566.410156,4376.794922,4546.922852,4496.025879,4382.179688,4509.743652,4488.717773,1822,0,4,2564,8602,,,,0,4,4,4,4,4,4,4,4,4,4,4,4,4,4,4,4,4,4,4,4,4,4,4,4,4,4,4,4,4,4,4,4,100,,,,,,,,,,,,,,,,,,,,,,,,,,,,,,,,,,,,,,,,,,,,,,,,,,,,,,,,,,,,,,,,,,,,,,,,,,,,,,,,,,,,,,,,,,,,,,,,,,,,,,,,,,,,,,,,,,,,,,,,,,,,,,,,,,,,,,,,,,,,,,,,,,,,,,,,,,,,,,,,,,,,,,,,,,,,,,,,,,,,,,,,,,,,,,,,,,,,,,,,,,,,,,
1764669261.020081,27195,0,4389.358887,4377.94873,4522.692383,4561.025879,4412.307617,4512.307617,4539.230957,4409.615234,4598.077148,4415.897461,4502.563965,4504.487305,4577.179688,4405.256348,4391.025879,4506.025879,4541.025879,4534.871582,4504.230957,4368.589844,4382.692383,4568.846191,4510.641113,4487.692383,4388.333496,4568.077148,4382.820313,4549.487305,4498.589844,4387.436035,4511.025879,4472.307617,2448,0,4,2564,8602,,,,0,4,4,4,4,4,4,4,4,4,4,4,4,4,4,4,4,4,4,4,4,4,4,4,4,4,4,4,4,4,4,4,4,100,,,,,,,,,,,,,,,,,,,,,,,,,,,,,,,,,,,,,,,,,,,,,,,,,,,,,,,,,,,,,,,,,,,,,,,,,,,,,,,,,,,,,,,,,,,,,,,,,,,,,,,,,,,,,,,,,,,,,,,,,,,,,,,,,,,,,,,,,,,,,,,,,,,,,,,,,,,,,,,,,,,,,,,,,,,,,,,,,,,,,,,,,,,,,,,,,,,,,,,,,,,,,,
1764669261.023987,27196,0,4388.589844,4379.487305,4516.410156,4557.692383,4413.846191,4512.94873,4538.846191,4410.128418,4594.743652,4415.256348,4502.179688,4502.692383,4575.897461,4401.922852,4387.436035,4505.256348,4541.025879,4534.615234,4505.897461,4368.589844,4379.358887,4564.102539,4508.846191,4481.922852,4369.871582,4562.820313,4383.333496,4550.897461,4500,4392.820313,4503.974121,4449.358887,2623,0,4,2565,8610,,,,0,4,4,4,4,4,4,4,4,4,4,4,4,4,4,4,4,4,4,4,4,4,4,4,4,4,4,4,4,4,4,4,4,100,,,,,,,,,,,,,,,,,,,,,,,,,,,,,,,,,,,,,,,,,,,,,,,,,,,,,,,,,,,,,,,,,,,,,,,,,,,,,,,,,,,,,,,,,,,,,,,,,,,,,,,,,,,,,,,,,,,,,,,,,,,,,,,,,,,,,,,,,,,,,,,,,,,,,,,,,,,,,,,,,,,,,,,,,,,,,,,,,,,,,,,,,,,,,,,,,,,,,,,,,,,,,,
1764669261.027893,27197,0,4385.641113,4380.897461,4499.230957,4548.077148,4415.641113,4512.563965,4538.717773,4405.256348,4583.461426,4402.94873,4497.307617,4501.025879,4569.743652,4394.871582,4379.358887,4503.461426,4538.589844,4533.974121,4507.820313,4374.102539,4380.769043,4554.871582,4503.974121,4473.846191,4369.230957,4553.717773,4378.333496,4548.974121,4499.358887,4393.974121,4494.615234,4439.102539,2475,0,4,2565,8610,,,,0,4,4,4,4,4,4,4,4,4,4,4,4,4,4,4,4,4,4,4,4,4,4,4,4,4,4,4,4,4,4,4,4,100,,,,,,,,,,,,,,,,,,,,,,,,,,,,,,,,,,,23183,0,0.656154,-0.302063,-0.299927,0.623108,0.998657,0.028812,0.016604,19.5,38.166668,-25.333334,,,,,,,,,,,,,,,,,,,,,,,,,,,,,,,,,,,,,,,,,,,,,,,,,,,,,,,,,,,,,,,,,,,,,,,,,,,,,,,,,,,,,,,,,,,,,,,,,,,,,,,,,,,,,,,,,,,,,,,,,,,,,,,,,,,,,,,,,,,,,,,,,,,,,,,,,,,,,,,,
1764669261.031799,27198,0,4382.692383,4382.307617,4484.230957,4539.615234,4416.538574,4512.307617,4539.102539,4398.974121,4571.282227,4385.128418,4490.641113,4500.512695,4562.05127,4388.717773,4372.692383,4502.05127,4535.384766,4532.692383,4507.820313,4381.666504,4386.538574,4546.282227,4498.077148,4467.436035,4384.743652,4546.922852,4372.692383,4544.102539,4497.692383,4388.974121,4488.974121,4453.589844,2743,0,4,2566,8617,,,,0,4,4,4,4,4,4,4,4,4,4,4,4,4,4,4,4,4,4,4,4,4,4,4,4,4,4,4,4,4,4,4,4,100,,,,,,,,,,,,,,,,,,,,,,,,,,,,,,,,,,,,,,,,,,,,,,,,,,,,,,,,,,,,,,,,,,,,,,,,,,,,,,,,,,,,,,,,,,,,,,,,,,,,,,,,,,,,,,,,,,,,,,,,,,,,,,,,,,,,,,,,,,,,,,,,,,,,,,,,,,,,,,,,,,,,,,,,,,,,,,,,,,,,,,,,,,,,,,,,,,,,,,,,,,,,,,
1764669261.035705,27199,0,4381.922852,4382.820313,4481.410156,4537.94873,4413.077148,4512.94873,4539.487305,4395.128418,4565.128418,4371.025879,4485.641113,4501.666504,4557.436035,4388.333496,4371.538574,4501.666504,4533.846191,4531.410156,4506.025879,4385.641113,4393.333496,4543.717773,4494.615234,4465.256348,4399.871582,4546.025879,4370.128418,4538.717773,4496.666504,4379.615234,4488.461426,4485.897461,2746,0,4,2566,8617,,,,0,4,4,4,4,4,4,4,4,4,4,4,4,4,4,4,4,4,4,4,4,4,4,4,4,4,4,4,4,4,4,4,4,100,,,,,,,,,,,,,,,,,,,,,,,,,,,,,,,,,,,,,,,,,,,,,,,,,,,,,,,,,,,,,,,,,,,,,,,,,,,,,,,,,,,,,,,,,,,,,,,,,,,,,,,,,,,,,,,,,,,,,,,,,,,,,,,,,,,,,,,,,,,,,,,,,,,,,,,,,,,,,,,,,,,,,,,,,,,,,,,,,,,,,,,,,,,,,,,,,,,,,,,,,,,,,,
1764669261.039611,27200,0,4382.94873,4381.794922,4490.384766,4541.666504,4403.846191,4513.846191,4538.461426,4394.615234,4566.025879,4367.436035,4484.230957,4502.94873,4558.077148,4394.230957,4375.256348,4502.436035,4534.743652,4530.384766,4504.358887,4382.692383,4396.666504,4548.077148,4495.384766,4467.692383,4397.820313,4549.615234,4370.256348,4535.641113,4497.05127,4370.897461,4490,4514.487305,2823,0,4,2567,8625,,,,0,4,4,4,4,4,4,4,4,4,4,4,4,4,4,4,4,4,4,4,4,4,4,4,4,4,4,4,4,4,4,4,4,100,,,,,,,,,,,,,,,,,,,,,,,,,,,,,,,,,,,,,,,,,,,,,,,,,,,,,,,,,,,,,,,,,,,,,,,,,,,,,,,,,,,,,,,,,,,,,,,,,,,,,,,,,,,,,,,,,,,,,,,,,,,,,,,,,,,,,,,,,,,,,,,,,,,,,,,,,,,,,,,,,,,,,,,,,,,,,,,,,,,,,,,,,,,,,,,,,,,,,,,,,,,,,,
1764669261.043517,27201,0,4384.230957,4379.230957,4502.05127,4545.641113,4392.563965,4514.230957,4535.384766,4395.769043,4570.256348,4376.282227,4485.641113,4503.077148,4562.563965,4402.179688,4379.487305,4503.461426,4537.179688,4529.358887,4504.871582,4374.358887,4394.358887,4555.897461,4499.358887,4472.563965,4377.436035,4553.205078,4370.256348,4536.666504,4498.333496,4367.692383,4490.256348,4519.487305,2919,0,4,2567,8625,,,,0,4,4,4,4,4,4,4,4,4,4,4,4,4,4,4,4,4,4,4,4,4,4,4,4,4,4,4,4,4,4,4,4,100,,,,,,,,,,,,,,,,,,,,,,,,,,,,,,,,,,,23184,0,0.656124,-0.302063,-0.299866,0.623169,0.98889,0.0293,0.01172,16.333334,36.5,-25.333334,,,,,,,,,,,,,,,,,,,,,,,,,,,,,,,,,,,,,,,,,,,,,,,,,,,,,,,,,,,,,,,,,,,,,,,,,,,,,,,,,,,,,,,,,,,,,,,,,,,,,,,,,,,,,,,,,,,,,,,,,,,,,,,,,,,,,,,,,,,,,,,,,,,,,,,,,,,,,,,,
1764669261.047423,27202,0,4384.487305,4376.538574,4507.179688,4545.897461,4386.666504,4513.974121,4531.794922,4397.179688,4573.589844,4394.102539,4488.589844,4501.794922,4567.692383,4406.794922,4380.256348,4504.102539,4540.256348,4527.820313,4508.461426,4366.922852,4388.589844,4562.820313,4504.358887,4477.179688,4353.589844,4552.94873,4368.461426,4542.05127,4499.743652,4371.410156,4489.230957,4499.358887,2694,0,4,2568,8633,,,,0,4,4,4,4,4,4,4,4,4,4,4,4,4,4,4,4,4,4,4,4,4,4,4,4,4,4,4,4,4,4,4,4,100,,,,,,,,,,,,,,,,,,,,,,,,,,,,,,,,,,,,,,,,,,,,,,,,,,,,,,,,,,,,,,,,,,,,,,,,,,,,,,,,,,,,,,,,,,,,,,,,,,,,,,,,,,,,,,,,,,,,,,,,,,,,,,,,,,,,,,,,,,,,,,,,,,,,,,,,,,,,,,,,,,,,,,,,,,,,,,,,,,,,,,,,,,,,,,,,,,,,,,,,,,,,,,
1764669261.051329,27203,0,4384.358887,4375.641113,4502.94873,4543.077148,4391.025879,4513.717773,4530.128418,4398.717773,4574.871582,4413.589844,4491.922852,4500.769043,4571.153809,4405.897461,4377.820313,4504.102539,4543.205078,4526.794922,4513.077148,4365.897461,4384.102539,4566.538574,4508.717773,4480.128418,4345.384766,4549.615234,4366.666504,4550.384766,4501.153809,4379.871582,4489.871582,4470.512695,2867,0,4,2568,8633,,,,0,4,4,4,4,4,4,4,4,4,4,4,4,4,4,4,4,4,4,4,4,4,4,4,4,4,4,4,4,4,4,4,4,100,,,,,,,,,,,,,,,,,,,,,,,,,,,,,,,,,,,,,,,,,,,,,,,,,,,,,,,,,,,,,,,,,,,,,,,,,,,,,,,,,,,,,,,,,,,,,,,,,,,,,,,,,,,,,,,,,,,,,,,,,,,,,,,,,,,,,,,,,,,,,,,,,,,,,,,,,,,,,,,,,,,,,,,,,,,,,,,,,,,,,,,,,,,,,,,,,,,,,,,,,,,,,,
1764669261.055235,27204,0,4386.282227,4378.333496,4496.153809,4541.025879,4403.717773,4515.256348,4532.563965,4400.897461,4575.897461,4426.922852,4496.153809,4502.692383,4573.717773,4403.077148,4376.794922,4504.487305,4546.410156,4527.94873,4516.282227,4371.922852,4384.743652,4567.820313,4512.820313,4482.436035,4359.615234,4547.692383,4368.846191,4559.615234,4503.333496,4389.358887,4495.512695,4454.743652,2755,0,4,2569,8641,,,,0,4,4,4,4,4,4,4,4,4,4,4,4,4,4,4,4,4,4,4,4,4,4,4,4,4,4,4,4,4,4,4,4,100,,,,,,,,,,,,,,,,,,,,,,,,,,,,,,,,,,,,,,,,,,,,,,,,,,,,,,,,,,,,,,,,,,,,,,,,,,,,,,,,,,,,,,,,,,,,,,,,,,,,,,,,,,,,,,,,,,,,,,,,,,,,,,,,,,,,,,,,,,,,,,,,,,,,,,,,,,,,,,,,,,,,,,,,,,,,,,,,,,,,,,,,,,,,,,,,,,,,,,,,,,,,,,
1764669261.059141,27205,0,4392.05127,4385.128418,4496.538574,4543.461426,4418.333496,4520.256348,4539.358887,4404.743652,4579.615234,4430.128418,4502.436035,4509.102539,4577.820313,4403.589844,4381.538574,4506.666504,4551.666504,4532.820313,4516.538574,4380.384766,4390.512695,4569.487305,4518.077148,4486.538574,4386.282227,4551.666504,4377.307617,4567.820313,4507.436035,4398.077148,4507.179688,4463.461426,2836,0,4,2569,8641,,,,0,4,4,4,4,4,4,4,4,4,4,4,4,4,4,4,4,4,4,4,4,4,4,4,4,4,4,4,4,4,4,4,4,100,,,,,,,,,,,,,,,,,,,,,,,,,,,,,,,,,,,23185,0,0.656118,-0.30188,-0.299683,0.623352,0.98889,0.0293,0.01172,17.666666,36.833332,-26.333334,,,,,,,,,,,,,,,,,,,,,,,,,,,,,,,,,,,,,,,,,,,,,,,,,,,,,,,,,,,,,,,,,,,,,,,,,,,,,,,,,,,,,,,,,,,,,,,,,,,,,,,,,,,,,,,,,,,,,,,,,,,,,,,,,,,,,,,,,,,,,,,,,,,,,,,,,,,,,,,,
1764669261.063047,27206,0,4401.538574,4395,4508.461426,4551.666504,4428.461426,4528.461426,4548.974121,4410.769043,4587.436035,4425,4511.282227,4519.487305,4584.871582,4409.743652,4391.666504,4510.512695,4559.615234,4539.230957,4513.333496,4385.897461,4397.94873,4573.589844,4525.128418,4493.589844,4407.563965,4561.922852,4390.256348,4574.615234,4513.333496,4405.897461,4522.179688,4490.769043,2817,0,4,2570,8649,,,,0,4,4,4,4,4,4,4,4,4,4,4,4,4,4,4,4,4,4,4,4,4,4,4,4,4,4,4,4,4,4,4,4,100,,,,,,,,,,,,,,,,,,,,,,,,,,,,,,,,,,,,,,,,,,,,,,,,,,,,,,,,,,,,,,,,,,,,,,,,,,,,,,,,,,,,,,,,,,,,,,,,,,,,,,,,,,,,,,,,,,,,,,,,,,,,,,,,,,,,,,,,,,,,,,,,,,,,,,,,,,,,,,,,,,,,,,,,,,,,,,,,,,,,,,,,,,,,,,,,,,,,,,,,,,,,,,
1764669261.066953,27207,0,4410.641113,4403.717773,4526.025879,4561.538574,4430.384766,4536.794922,4557.436035,4416.922852,4595.641113,4414.615234,4519.615234,4528.846191,4592.692383,4417.179688,4400.256348,4512.94873,4566.666504,4541.282227,4507.05127,4385.128418,4401.922852,4578.077148,4531.282227,4500.641113,4411.153809,4572.563965,4401.538574,4578.461426,4518.333496,4410.897461,4533.846191,4518.333496,2993,0,4,2570,8649,,,,0,4,4,4,4,4,4,4,4,4,4,4,4,4,4,4,4,4,4,4,4,4,4,4,4,4,4,4,4,4,4,4,4,100,,,,,,,,,,,,,,,,,,,,,,,,,,,,,,,,,,,,,,,,,,,,,,,,,,,,,,,,,,,,,,,,,,,,,,,,,,,,,,,,,,,,,,,,,,,,,,,,,,,,,,,,,,,,,,,,,,,,,,,,,,,,,,,,,,,,,,,,,,,,,,,,,,,,,,,,,,,,,,,,,,,,,,,,,,,,,,,,,,,,,,,,,,,,,,,,,,,,,,,,,,,,,,
1764669261.070859,27208,0,4412.820313,4405.769043,4537.436035,4566.666504,4423.205078,4539.487305,4559.871582,4418.717773,4597.563965,4400.769043,4521.666504,4530.769043,4595.641113,4418.333496,4399.102539,4509.871582,4566.794922,4533.717773,4499.615234,4378.846191,4398.846191,4577.820313,4530.769043,4501.538574,4398.077148,4575.384766,4404.230957,4576.025879,4519.102539,4409.230957,4535.256348,4528.333496,2905,0,4,2571,8656,,,,0,4,4,4,4,4,4,4,4,4,4,4,4,4,4,4,4,4,4,4,4,4,4,4,4,4,4,4,4,4,4,4,4,100,,,,,,,,,,,,,,,,,,,,,,,,,,,,,,,,,,,,,,,,,,,,,,,,,,,,,,,,,,,,,,,,,,,,,,,,,,,,,,,,,,,,,,,,,,,,,,,,,,,,,,,,,,,,,,,,,,,,,,,,,,,,,,,,,,,,,,,,,,,,,,,,,,,,,,,,,,,,,,,,,,,,,,,,,,,,,,,,,,,,,,,,,,,,,,,,,,,,,,,,,,,,,,
1764669261.074765,27209,0,4404.871582,4399.230957,4535.128418,4562.436035,4410.256348,4533.589844,4553.846191,4413.461426,4589.871582,4385.384766,4514.230957,4522.820313,4590.256348,4409.743652,4386.794922,4501.666504,4557.563965,4518.846191,4494.615234,4371.025879,4391.025879,4570.384766,4521.538574,4493.205078,4382.179688,4567.563965,4396.025879,4566.153809,4513.974121,4399.615234,4524.102539,4516.410156,2786,0,4,2571,8656,,,,0,4,4,4,4,4,4,4,4,4,4,4,4,4,4,4,4,4,4,4,4,4,4,4,4,4,4,4,4,4,4,4,4,100,,,,,,,,,,,,,,,,,,,,,,,,,,,,,,,,,,,23186,0,0.65617,-0.301697,-0.2995,0.623474,0.995239,0.039067,0.022464,16.333334,37.333332,-27.833334,,,,,,,,,,,,,,,,,,,,,,,,,,,,,,,,,,,,,,,,,,,,,,,,,,,,,,,,,,,,,,,,,,,,,,,,,,,,,,,,,,,,,,,,,,,,,,,,,,,,,,,,,,,,,,,,,,,,,,,,,,,,,,,,,,,,,,,,,,,,,,,,,,,,,,,,,,,,,,,,
1764669261.078671,27210,0,4391.538574,4388.974121,4522.307617,4551.282227,4399.487305,4522.820313,4543.333496,4404.358887,4577.563965,4374.102539,4501.538574,4510.512695,4580.128418,4396.922852,4372.94873,4494.743652,4545.128418,4507.692383,4496.282227,4368.333496,4385.512695,4560.256348,4508.974121,4480.897461,4379.615234,4555.128418,4382.692383,4553.589844,4506.153809,4386.538574,4506.410156,4494.743652,1368,0,4,2566,8664,,,,0,4,4,4,4,4,4,4,4,4,4,4,4,4,4,4,4,4,4,4,4,4,4,4,4,4,4,4,4,4,4,4,4,100,,,,,,,,,,,,,,,,,,,,,,,,,,,,,,,,,,,,,,,,,,,,,,,,,,,,,,,,,,,,,,,,,,,,,,,,,,,,,,,,,,,,,,,,,,,,,,,,,,,,,,,,,,,,,,,,,,,,,,,,,,,,,,,,,,,,,,,,,,,,,,,,,,,,,,,,,,,,,,,,,,,,,,,,,,,,,,,,,,,,,,,,,,,,,,,,,,,,,,,,,,,,,,
1764669261.082577,27211,0,4382.692383,4382.692383,4507.94873,4541.282227,4398.333496,4514.743652,4536.153809,4397.820313,4569.743652,4375,4492.94873,4503.589844,4573.846191,4389.615234,4370.769043,4497.179688,4539.358887,4511.282227,4506.025879,4374.871582,4388.717773,4556.025879,4502.563965,4473.974121,4395.128418,4548.333496,4374.102539,4546.666504,4500.897461,4378.461426,4492.94873,4481.025879,2710,0,4,2566,8664,,,,0,4,4,4,4,4,4,4,4,4,4,4,4,4,4,4,4,4,4,4,4,4,4,4,4,4,4,4,4,4,4,4,4,100,,,,,,,,,,,,,,,,,,,,,,,,,,,,,,,,,,,,,,,,,,,,,,,,,,,,,,,,,,,,,,,,,,,,,,,,,,,,,,,,,,,,,,,,,,,,,,,,,,,,,,,,,,,,,,,,,,,,,,,,,,,,,,,,,,,,,,,,,,,,,,,,,,,,,,,,,,,,,,,,,,,,,,,,,,,,,,,,,,,,,,,,,,,,,,,,,,,,,,,,,,,,,,
1764669261.086483,27212,0,4383.461426,4383.717773,4498.461426,4539.358887,4406.025879,4513.974121,4536.666504,4397.692383,4570.512695,4390.384766,4494.358887,4506.666504,4576.538574,4392.820313,4383.974121,4509.871582,4544.487305,4529.358887,4519.102539,4387.179688,4399.615234,4560.769043,4506.282227,4477.179688,4415.641113,4551.410156,4374.358887,4548.461426,4500.897461,4379.358887,4491.153809,4482.692383,2471,0,4,2561,8672,,,,0,4,4,4,4,4,4,4,4,4,4,4,4,4,4,4,4,4,4,4,4,4,4,4,4,4,4,4,4,4,4,4,4,100,,,,,,,,,,,,,,,,,,,,,,,,,,,,,,,,,,,,,,,,,,,,,,,,,,,,,,,,,,,,,,,,,,,,,,,,,,,,,,,,,,,,,,,,,,,,,,,,,,,,,,,,,,,,,,,,,,,,,,,,,,,,,,,,,,,,,,,,,,,,,,,,,,,,,,,,,,,,,,,,,,,,,,,,,,,,,,,,,,,,,,,,,,,,,,,,,,,,,,,,,,,,,,
1764669261.090389,27213,0,4389.102539,4387.436035,4492.94873,4544.102539,4412.820313,4516.922852,4541.538574,4400.384766,4575.384766,4411.282227,4502.179688,4514.487305,4583.846191,4402.05127,4401.794922,4524.358887,4553.461426,4547.436035,4527.307617,4394.871582,4408.077148,4568.333496,4514.102539,4484.871582,4421.794922,4559.102539,4378.974121,4553.461426,4503.333496,4385.128418,4499.230957,4491.922852,2224,0,4,2561,8672,,,,0,4,4,4,4,4,4,4,4,4,4,4,4,4,4,4,4,4,4,4,4,4,4,4,4,4,4,4,4,4,4,4,4,100,,,,,,,,,,,,,,,,,,,,,,,,,,,,,,,,,,,23187,0,0.656438,-0.301147,-0.298828,0.623779,0.992309,0.039556,0.013674,16.333334,37.333332,-27.833334,,,,,,,,,,,,,,,,,,,,,,,,,,,,,,,,,,,,,,,,,,,,,,,,,,,,,,,,,,,,,,,,,,,,,,,,,,,,,,,,,,,,,,,,,,,,,,,,,,,,,,,,,,,,,,,,,,,,,,,,,,,,,,,,,,,,,,,,,,,,,,,,,,,,,,,,,,,,,,,,
1764669261.094295,27214,0,4390.512695,4386.922852,4487.563965,4548.333496,4408.974121,4517.05127,4542.94873,4399.487305,4576.410156,4423.333496,4506.410156,4517.307617,4586.794922,4407.179688,4407.94873,4528.846191,4555.384766,4549.615234,4524.871582,4389.487305,4405.384766,4569.102539,4516.153809,4487.94873,4405.512695,4563.077148,4379.743652,4553.461426,4503.077148,4387.94873,4507.94873,4494.358887,2729,0,4,2048,8680,,,,0,4,4,4,4,4,4,4,4,4,4,4,4,4,4,4,4,4,4,4,4,4,4,4,4,4,4,4,4,4,4,4,4,100,,,,,,,,,,,,,,,,,,,,,,,,,,,,,,,,,,,,,,,,,,,,,,,,,,,,,,,,,,,,,,,,,,,,,,,,,,,,,,,,,,,,,,,,,,,,,,,,,,,,,,,,,,,,,,,,,,,,,,,,,,,,,,,,,,,,,,,,,,,,,,,,,,,,,,,,,,,,,,,,,,,,,,,,,,,,,,,,,,,,,,,,,,,,,,,,,,,,,,,,,,,,,,
1764669261.098201,27215,0,4383.717773,4380,4481.538574,4546.025879,4394.487305,4511.025879,4536.282227,4392.436035,4570.769043,4418.205078,4500.512695,4510.384766,4580,4401.922852,4395.384766,4518.205078,4546.282227,4532.692383,4513.589844,4373.589844,4391.666504,4560.128418,4508.589844,4483.589844,4377.820313,4560,4374.615234,4546.282227,4498.846191,4383.974121,4509.743652,4483.461426,2444,0,4,2048,8680,,,,0,4,4,4,4,4,4,4,4,4,4,4,4,4,4,4,4,4,4,4,4,4,4,4,4,4,4,4,4,4,4,4,4,100,,,,,,,,,,,,,,,,,,,,,,,,,,,,,,,,,,,,,,,,,,,,,,,,,,,,,,,,,,,,,,,,,,,,,,,,,,,,,,,,,,,,,,,,,,,,,,,,,,,,,,,,,,,,,,,,,,,,,,,,,,,,,,,,,,,,,,,,,,,,,,,,,,,,,,,,,,,,,,,,,,,,,,,,,,,,,,,,,,,,,,,,,,,,,,,,,,,,,,,,,,,,,,
1764669261.102107,27216,0,4373.205078,4371.538574,4478.589844,4538.461426,4379.102539,4502.307617,4524.871582,4383.205078,4562.94873,4399.871582,4487.05127,4498.205078,4566.922852,4389.102539,4371.794922,4498.077148,4531.794922,4508.589844,4501.153809,4359.230957,4376.410156,4547.436035,4496.410156,4476.922852,4357.436035,4553.974121,4368.461426,4537.94873,4493.717773,4376.922852,4503.974121,4466.794922,2890,0,4,1536,8688,,,,0,4,4,4,4,4,4,4,4,4,4,4,4,4,4,4,4,4,4,4,4,4,4,4,4,4,4,4,4,4,4,4,4,100,,,,,,,,,,,,,,,,,,,,,,,,,,,,,,,,,,,,,,,,,,,,,,,,,,,,,,,,,,,,,,,,,,,,,,,,,,,,,,,,,,,,,,,,,,,,,,,,,,,,,,,,,,,,,,,,,,,,,,,,,,,,,,,,,,,,,,,,,,,,,,,,,,,,,,,,,,,,,,,,,,,,,,,,,,,,,,,,,,,,,,,,,,,,,,,,,,,,,,,,,,,,,,
1764669261.106013,27217,0,4367.05127,4367.94873,4482.820313,4532.307617,4373.461426,4497.307617,4516.666504,4378.461426,4559.743652,4380.384766,4475.128418,4489.102539,4555.641113,4377.436035,4353.717773,4481.025879,4522.05127,4493.461426,4494.743652,4357.179688,4369.615234,4540.897461,4488.333496,4475.769043,4355.128418,4551.538574,4368.717773,4536.410156,4492.563965,4373.846191,4497.05127,4458.205078,2894,0,4,1536,8688,,,,0,4,4,4,4,4,4,4,4,4,4,4,4,4,4,4,4,4,4,4,4,4,4,4,4,4,4,4,4,4,4,4,4,100,,,,,,,,,,,,,,,,,,,,,,,,,,,,,,,,,,,23188,0,0.656691,-0.300964,-0.298584,0.623718,0.986937,0.042974,0.01758,16.833334,37.166668,-26.333334,,,,,,,,,,,,,,,,,,,,,,,,,,,,,,,,,,,,,,,,,,,,,,,,,,,,,,,,,,,,,,,,,,,,,,,,,,,,,,,,,,,,,,,,,,,,,,,,,,,,,,,,,,,,,,,,,,,,,,,,,,,,,,,,,,,,,,,,,,,,,,,,,,,,,,,,,,,,,,,,
1764669261.109919,27218,0,4371.025879,4372.820313,4495.128418,4534.230957,4381.153809,4499.871582,4517.563965,4382.307617,4565.384766,4371.025879,4472.436035,4489.615234,4553.333496,4375.128418,4353.846191,4477.179688,4523.589844,4496.282227,4498.205078,4370,4375.384766,4546.282227,4490.512695,4483.974121,4368.077148,4556.794922,4378.461426,4545.641113,4497.307617,4380.128418,4497.307617,4466.794922,1786,0,4,1792,8695,,,,0,4,4,4,4,4,4,4,4,4,4,4,4,4,4,4,4,4,4,4,4,4,4,4,4,4,4,4,4,4,4,4,4,100,,,,,,,,,,,,,,,,,,,,,,,,,,,,,,,,,,,,,,,,,,,,,,,,,,,,,,,,,,,,,,,,,,,,,,,,,,,,,,,,,,,,,,,,,,,,,,,,,,,,,,,,,,,,,,,,,,,,,,,,,,,,,,,,,,,,,,,,,,,,,,,,,,,,,,,,,,,,,,,,,,,,,,,,,,,,,,,,,,,,,,,,,,,,,,,,,,,,,,,,,,,,,,
1764669261.113825,27219,0,4384.743652,4385,4512.436035,4545.641113,4398.077148,4509.871582,4528.717773,4393.717773,4578.205078,4376.153809,4481.410156,4501.153809,4561.538574,4384.743652,4372.820313,4488.589844,4536.153809,4514.871582,4510.512695,4391.794922,4391.282227,4562.307617,4503.461426,4499.230957,4386.410156,4569.102539,4394.230957,4562.436035,4506.666504,4395.384766,4508.717773,4490.512695,2739,0,4,1792,8695,,,,0,4,4,4,4,4,4,4,4,4,4,4,4,4,4,4,4,4,4,4,4,4,4,4,4,4,4,4,4,4,4,4,4,100,,,,,,,,,,,,,,,,,,,,,,,,,,,,,,,,,,,,,,,,,,,,,,,,,,,,,,,,,,,,,,,,,,,,,,,,,,,,,,,,,,,,,,,,,,,,,,,,,,,,,,,,,,,,,,,,,,,,,,,,,,,,,,,,,,,,,,,,,,,,,,,,,,,,,,,,,,,,,,,,,,,,,,,,,,,,,,,,,,,,,,,,,,,,,,,,,,,,,,,,,,,,,,
1764669261.117731,27220,0,4402.692383,4399.743652,4528.589844,4560.897461,4416.025879,4523.461426,4545.769043,4407.692383,4592.436035,4392.94873,4497.436035,4518.974121,4576.538574,4401.794922,4398.846191,4508.589844,4553.717773,4539.615234,4527.563965,4413.205078,4410.897461,4581.538574,4521.922852,4515,4402.436035,4584.102539,4409.230957,4579.487305,4516.282227,4412.820313,4527.436035,4517.94873,2605,0,4,2048,8703,,,,0,4,4,4,4,4,4,4,4,4,4,4,4,4,4,4,4,4,4,4,4,4,4,4,4,4,4,4,4,4,4,4,4,100,,,,,,,,,,,,,,,,,,,,,,,,,,,,,,,,,,,,,,,,,,,,,,,,,,,,,,,,,,,,,,,,,,,,,,,,,,,,,,,,,,,,,,,,,,,,,,,,,,,,,,,,,,,,,,,,,,,,,,,,,,,,,,,,,,,,,,,,,,,,,,,,,,,,,,,,,,,,,,,,,,,,,,,,,,,,,,,,,,,,,,,,,,,,,,,,,,,,,,,,,,,,,,
1764669261.121637,27221,0,4416.282227,4410.769043,4536.410156,4570.256348,4426.922852,4535.256348,4560.769043,4417.307617,4600.769043,4412.563965,4511.538574,4534.871582,4590.897461,4417.692383,4416.153809,4525.512695,4567.820313,4558.974121,4542.820313,4425.512695,4425.769043,4593.974121,4537.05127,4523.461426,4413.974121,4595.128418,4416.794922,4588.974121,4521.666504,4422.05127,4542.692383,4534.871582,2811,0,4,2048,8703,,,,0,4,4,4,4,4,4,4,4,4,4,4,4,4,4,4,4,4,4,4,4,4,4,4,4,4,4,4,4,4,4,4,4,100,,,,,,,,,,,,,,,,,,,,,,,,,,,,,,,,,,,23189,0,0.656777,-0.301025,-0.298462,0.623657,1.007936,0.042974,0.021487,17.166666,37.333332,-25.833334,,,,,,,,,,,,,,,,,,,,,,,,,,,,,,,,,,,,,,,,,,,,,,,,,,,,,,,,,,,,,,,,,,,,,,,,,,,,,,,,,,,,,,,,,,,,,,,,,,,,,,,,,,,,,,,,,,,,,,,,,,,,,,,,,,,,,,,,,,,,,,,,,,,,,,,,,,,,,,,,
1764669261.125543,27222,0,4418.461426,4412.307617,4531.282227,4565.512695,4426.025879,4539.102539,4565.128418,4416.282227,4598.333496,4423.846191,4515,4540.256348,4596.666504,4424.102539,4414.743652,4529.871582,4571.025879,4563.974121,4549.102539,4423.846191,4428.974121,4592.563965,4540.897461,4520.128418,4421.666504,4597.307617,4413.717773,4586.282227,4519.871582,4416.794922,4543.974121,4532.307617,2922,0,4,2304,8711,,,,0,4,4,4,4,4,4,4,4,4,4,4,4,4,4,4,4,4,4,4,4,4,4,4,4,4,4,4,4,4,4,4,4,100,,,,,,,,,,,,,,,,,,,,,,,,,,,,,,,,,,,,,,,,,,,,,,,,,,,,,,,,,,,,,,,,,,,,,,,,,,,,,,,,,,,,,,,,,,,,,,,,,,,,,,,,,,,,,,,,,,,,,,,,,,,,,,,,,,,,,,,,,,,,,,,,,,,,,,,,,,,,,,,,,,,,,,,,,,,,,,,,,,,,,,,,,,,,,,,,,,,,,,,,,,,,,,
1764669261.129449,27223,0,4407.94873,4402.563965,4515.384766,4546.538574,4413.846191,4532.179688,4555.641113,4403.461426,4585.769043,4419.615234,4505.641113,4531.794922,4590.641113,4418.077148,4397.179688,4520.256348,4561.538574,4552.436035,4542.307617,4409.102539,4418.333496,4578.077148,4531.410156,4505.897461,4426.025879,4589.358887,4401.410156,4572.692383,4511.666504,4399.358887,4529.743652,4512.179688,2860,0,4,2304,8711,,,,0,4,4,4,4,4,4,4,4,4,4,4,4,4,4,4,4,4,4,4,4,4,4,4,4,4,4,4,4,4,4,4,4,100,,,,,,,,,,,,,,,,,,,,,,,,,,,,,,,,,,,,,,,,,,,,,,,,,,,,,,,,,,,,,,,,,,,,,,,,,,,,,,,,,,,,,,,,,,,,,,,,,,,,,,,,,,,,,,,,,,,,,,,,,,,,,,,,,,,,,,,,,,,,,,,,,,,,,,,,,,,,,,,,,,,,,,,,,,,,,,,,,,,,,,,,,,,,,,,,,,,,,,,,,,,,,,
1764669261.133355,27224,0,4391.410156,4386.922852,4498.333496,4523.461426,4397.692383,4518.333496,4537.307617,4386.410156,4569.615234,4403.205078,4490,4514.615234,4576.410156,4403.461426,4375.769043,4504.358887,4545.128418,4530.769043,4525.384766,4388.461426,4399.487305,4559.358887,4514.743652,4488.974121,4425.769043,4575.769043,4385.897461,4555.641113,4501.666504,4380.128418,4510.128418,4486.666504,2708,0,4,2560,8719,,,,0,4,4,4,4,4,4,4,4,4,4,4,4,4,4,4,4,4,4,4,4,4,4,4,4,4,4,4,4,4,4,4,4,100,,,,,,,,,,,,,,,,,,,,,,,,,,,,,,,,,,,,,,,,,,,,,,,1.716054,0.689858,4.214819,2.082954,2.060745,1.259744,1.40818,5.20138,2.499543,2.341292,1.519371,3.136379,4.925192,3.891714,3.006901,0.815228,1.514467,3.457032,1.724549,2.647252,1.280377,0.591505,5.504478,2.193906,2.293963,1.314424,0.657717,4.511224,2.029633,2.035079,1.208381,1.052185,5.519764,2.472498,2.445122,0.916385,1.545392,5.238179,2.836668,2.416253,0.867128,2.261428,6.73422,2.745908,2.421956,0.748888,3.089589,8.131343,4.451632,4.78952,0.817814,0.864298,2.757979,1.475862,1.811897,1.172793,1.021113,3.28375,1.99516,2.03354,1.027838,1.136401,2.956014,1.647838,1.764427,0.649157,0.676211,1.226146,1.038325,1.522951,0.750192,0.839846,2.93738,1.560832,1.985966,0.550088,0.675403,1.450749,0.919823,0.874364,1.476175,1.762352,4.418825,2.465642,2.320847,1.518309,2.223798,3.114934,2.196425,2.480978,0.97147,1.745538,1.562208,1.41311,1.565417,0.99479,1.413582,3.00344,1.759991,2.286438,1.268626,2.426338,3.977288,2.971146,2.148117,0.906596,1.791212,3.76444,2.693639,2.032711,0.816956,0.743716,3.870352,2.087857,2.192848,0.946295,1.785937,3.328565,2.552815,2.164744,2.693803,4.196818,12.898882,5.643225,6.500484,1.337689,1.732186,4.594248,2.01948,2.261503,1.388915,1.742812,4.359242,2.063019,2.094557,1.033388,1.070246,4.355886,2.503745,2.477854,0.692872,0.55598,2.186969,1.034007,1.09087,1.106193,1.132487,5.215606,2.331906,2.507781,1.561466,2.687833,4.137153,2.625593,3.324778,1.562401,4.617054,4.969182,3.036432,4.262102
1764669261.137261,27225,0,4379.743652,4375.512695,4490.897461,4511.282227,4388.077148,4506.794922,4521.538574,4377.179688,4559.358887,4387.179688,4479.615234,4499.871582,4563.205078,4389.358887,4364.102539,4492.436035,4532.563965,4510.769043,4507.05127,4372.307617,4383.333496,4548.589844,4502.179688,4479.358887,4419.615234,4564.487305,4375.897461,4545.384766,4496.282227,4370.769043,4500.384766,4471.153809,2881,0,4,2560,8719,,,,0,4,4,4,4,4,4,4,4,4,4,4,4,4,4,4,4,4,4,4,4,4,4,4,4,4,4,4,4,4,4,4,4,100,,,,,,,,,,,,,,,,,,,,,,,,,,,,,,,,,,,23190,0,0.65686,-0.300964,-0.29834,0.623657,1.001099,0.022464,0.01465,15,35.833332,-25,,,,,,,,,,,,,,,,,,,,,,,,,,,,,,,,,,,,,,,,,,,,,,,,,,,,,,,,,,,,,,,,,,,,,,,,,,,,,,,,,,,,,,,,,,,,,,,,,,,,,,,,,,,,,,,,,,,,,,,,,,,,,,,,,,,,,,,,,,,,,,,,,,,,,,,,,,,,,,,,
1764669261.141167,27226,0,4380.769043,4376.153809,4497.692383,4518.461426,4391.794922,4506.025879,4518.846191,4383.974121,4561.666504,4384.358887,4482.436035,4497.05127,4559.743652,4383.717773,4367.436035,4490.897461,4532.307617,4504.230957,4497.820313,4368.077148,4379.230957,4553.205078,4503.077148,4483.461426,4408.461426,4562.05127,4377.94873,4548.461426,4498.974121,4376.410156,4508.974121,4474.358887,1815,0,4,2560,8727,,,,0,4,4,4,4,4,4,4,4,4,4,4,4,4,4,4,4,4,4,4,4,4,4,4,4,4,4,4,4,4,4,4,4,100,,,,,,,,,,,,,,,,,,,,,,,,,,,,,,,,,,,,,,,,,,,,,,,,,,,,,,,,,,,,,,,,,,,,,,,,,,,,,,,,,,,,,,,,,,,,,,,,,,,,,,,,,,,,,,,,,,,,,,,,,,,,,,,,,,,,,,,,,,,,,,,,,,,,,,,,,,,,,,,,,,,,,,,,,,,,,,,,,,,,,,,,,,,,,,,,,,,,,,,,,,,,,,
1764669261.145073,27227,0,4393.717773,4388.974121,4513.205078,4540.512695,4407.436035,4517.307617,4531.282227,4404.358887,4575.769043,4398.077148,4496.538574,4507.563965,4567.436035,4388.846191,4380.769043,4498.461426,4544.358887,4514.871582,4502.820313,4376.282227,4389.358887,4571.153809,4517.179688,4498.846191,4397.179688,4569.230957,4391.538574,4563.205078,4508.846191,4392.94873,4530.897461,4491.922852,2440,0,4,2560,8727,,,,0,4,4,4,4,4,4,4,4,4,4,4,4,4,4,4,4,4,4,4,4,4,4,4,4,4,4,4,4,4,4,4,4,100,,,,,,,,,,,,,,,,,,,,,,,,,,,,,,,,,,,,,,,,,,,,,,,,,,,,,,,,,,,,,,,,,,,,,,,,,,,,,,,,,,,,,,,,,,,,,,,,,,,,,,,,,,,,,,,,,,,,,,,,,,,,,,,,,,,,,,,,,,,,,,,,,,,,,,,,,,,,,,,,,,,,,,,,,,,,,,,,,,,,,,,,,,,,,,,,,,,,,,,,,,,,,,
1764669261.148979,27228,0,4409.487305,4405.384766,4526.025879,4562.692383,4426.282227,4533.461426,4550,4425.769043,4593.077148,4421.282227,4510.897461,4523.846191,4579.615234,4399.615234,4394.358887,4509.230957,4560.641113,4535.641113,4517.692383,4391.025879,4406.794922,4591.666504,4535.512695,4516.153809,4392.307617,4580.256348,4408.974121,4581.025879,4520.256348,4410.256348,4551.282227,4510,2614,0,4,2561,8735,,,,0,4,4,4,4,4,4,4,4,4,4,4,4,4,4,4,4,4,4,4,4,4,4,4,4,4,4,4,4,4,4,4,4,100,,,,,,,,,,,,,,,,,,,,,,,,,,,,,,,,,,,,,,,,,,,,,,,,,,,,,,,,,,,,,,,,,,,,,,,,,,,,,,,,,,,,,,,,,,,,,,,,,,,,,,,,,,,,,,,,,,,,,,,,,,,,,,,,,,,,,,,,,,,,,,,,,,,,,,,,,,,,,,,,,,,,,,,,,,,,,,,,,,,,,,,,,,,,,,,,,,,,,,,,,,,,,,
1764669261.152885,27229,0,4417.820313,4415.256348,4527.05127,4570.769043,4437.436035,4544.102539,4561.794922,4434.871582,4602.820313,4441.922852,4514.615234,4534.743652,4586.538574,4407.94873,4400.256348,4516.282227,4571.025879,4552.563965,4531.025879,4402.820313,4420.769043,4602.692383,4546.666504,4525.128418,4397.436035,4586.794922,4419.358887,4591.666504,4526.794922,4418.974121,4556.666504,4516.282227,2467,0,4,2561,8735,,,,0,4,4,4,4,4,4,4,4,4,4,4,4,4,4,4,4,4,4,4,4,4,4,4,4,4,4,4,4,4,4,4,4,100,,,,,,,,,,,,,,,,,,,,,,,,,,,,,,,,,,,23191,0,0.657025,-0.300781,-0.298035,0.623718,1.003541,0.046392,0.008302,17.166666,36.166668,-25.833334,,,,,,,,,,,,,,,,,,,,,,,,,,,,,,,,,,,,,,,,,,,,,,,,,,,,,,,,,,,,,,,,,,,,,,,,,,,,,,,,,,,,,,,,,,,,,,,,,,,,,,,,,,,,,,,,,,,,,,,,,,,,,,,,,,,,,,,,,,,,,,,,,,,,,,,,,,,,,,,,
1764669261.156791,27230,0,4414.230957,4413.589844,4516.666504,4562.436035,4435.769043,4542.692383,4558.974121,4426.922852,4600,4450.769043,4505.128418,4533.846191,4583.589844,4408.589844,4397.563965,4516.538574,4569.871582,4554.871582,4533.333496,4405.256348,4423.205078,4599.871582,4545.384766,4522.05127,4409.871582,4584.358887,4416.922852,4589.871582,4525.512695,4416.666504,4544.871582,4508.461426,2732,0,4,2562,8742,,,,0,4,4,4,4,4,4,4,4,4,4,4,4,4,4,4,4,4,4,4,4,4,4,4,4,4,4,4,4,4,4,4,4,100,,,,,,,,,,,,,,,,,,,,,,,,,,,,,,,,,,,,,,,,,,,,,,,,,,,,,,,,,,,,,,,,,,,,,,,,,,,,,,,,,,,,,,,,,,,,,,,,,,,,,,,,,,,,,,,,,,,,,,,,,,,,,,,,,,,,,,,,,,,,,,,,,,,,,,,,,,,,,,,,,,,,,,,,,,,,,,,,,,,,,,,,,,,,,,,,,,,,,,,,,,,,,,
1764669261.160697,27231,0,4403.589844,4404.230957,4505.128418,4547.05127,4423.717773,4532.05127,4545.384766,4408.974121,4588.846191,4445.769043,4490,4523.461426,4575,4403.333496,4391.025879,4511.922852,4560,4543.461426,4524.487305,4398.974121,4414.743652,4588.333496,4535.641113,4511.410156,4421.538574,4575.512695,4404.871582,4579.743652,4518.717773,4408.589844,4525.769043,4495.512695,2738,0,4,2562,8742,,,,0,4,4,4,4,4,4,4,4,4,4,4,4,4,4,4,4,4,4,4,4,4,4,4,4,4,4,4,4,4,4,4,4,100,,,,,,,,,,,,,,,,,,,,,,,,,,,,,,,,,,,,,,,,,,,,,,,,,,,,,,,,,,,,,,,,,,,,,,,,,,,,,,,,,,,,,,,,,,,,,,,,,,,,,,,,,,,,,,,,,,,,,,,,,,,,,,,,,,,,,,,,,,,,,,,,,,,,,,,,,,,,,,,,,,,,,,,,,,,,,,,,,,,,,,,,,,,,,,,,,,,,,,,,,,,,,,
1764669261.164603,27232,0,4395.641113,4396.282227,4504.871582,4538.717773,4410.769043,4521.666504,4532.820313,4395,4579.871582,4431.794922,4481.025879,4513.846191,4570,4398.589844,4388.461426,4507.820313,4550.769043,4530.128418,4514.102539,4391.282227,4403.589844,4578.717773,4527.94873,4502.692383,4424.487305,4567.05127,4392.692383,4570.256348,4512.563965,4402.563965,4513.846191,4489.743652,2804,0,4,2563,8750,,,,0,4,4,4,4,4,4,4,4,4,4,4,4,4,4,4,4,4,4,4,4,4,4,4,4,4,4,4,4,4,4,4,4,100,,,,,,,,,,,,,,,,,,,,,,,,,,,,,,,,,,,,,,,,,,,,,,,,,,,,,,,,,,,,,,,,,,,,,,,,,,,,,,,,,,,,,,,,,,,,,,,,,,,,,,,,,,,,,,,,,,,,,,,,,,,,,,,,,,,,,,,,,,,,,,,,,,,,,,,,,,,,,,,,,,,,,,,,,,,,,,,,,,,,,,,,,,,,,,,,,,,,,,,,,,,,,,
1764669261.168509,27233,0,4397.436035,4397.563965,4519.487305,4544.743652,4406.794922,4521.410156,4532.436035,4395.384766,4581.922852,4416.794922,4485.256348,4514.615234,4575,4400.641113,4394.487305,4509.487305,4550.897461,4528.589844,4513.333496,4390.897461,4400,4579.102539,4530.512695,4503.205078,4418.077148,4565.897461,4389.358887,4569.615234,4512.05127,4404.615234,4516.922852,4497.94873,2906,0,4,2563,8750,,,,0,4,4,4,4,4,4,4,4,4,4,4,4,4,4,4,4,4,4,4,4,4,4,4,4,4,4,4,4,4,4,4,4,100,,,,,,,,,,,,,,,,,,,,,,,,,,,,,,,,,,,23192,0,0.657126,-0.300476,-0.297607,0.623962,1.003541,0.046392,0.008302,15,36.5,-26.666666,,,,,,,,,,,,,,,,,,,,,,,,,,,,,,,,,,,,,,,,,,,,,,,,,,,,,,,,,,,,,,,,,,,,,,,,,,,,,,,,,,,,,,,,,,,,,,,,,,,,,,,,,,,,,,,,,,,,,,,,,,,,,,,,,,,,,,,,,,,,,,,,,,,,,,,,,,,,,,,,
1764669261.172415,27234,0,4407.94873,4407.436035,4539.871582,4560.384766,4415.256348,4532.436035,4545.256348,4409.615234,4595,4407.05127,4499.615234,4527.563965,4588.461426,4409.358887,4406.666504,4516.922852,4561.153809,4541.666504,4524.743652,4399.743652,4406.666504,4588.589844,4542.179688,4512.179688,4408.846191,4573.205078,4396.153809,4578.205078,4517.436035,4413.077148,4531.153809,4515.384766,2680,0,4,2564,8758,,,,0,4,4,4,4,4,4,4,4,4,4,4,4,4,4,4,4,4,4,4,4,4,4,4,4,4,4,4,4,4,4,4,4,100,,,,,,,,,,,,,,,,,,,,,,,,,,,,,,,,,,,,,,,,,,,,,,,,,,,,,,,,,,,,,,,,,,,,,,,,,,,,,,,,,,,,,,,,,,,,,,,,,,,,,,,,,,,,,,,,,,,,,,,,,,,,,,,,,,,,,,,,,,,,,,,,,,,,,,,,,,,,,,,,,,,,,,,,,,,,,,,,,,,,,,,,,,,,,,,,,,,,,,,,,,,,,,
1764669261.176321,27235,0,4417.692383,4417.307617,4550.256348,4572.692383,4428.846191,4546.153809,4561.794922,4426.282227,4608.333496,4403.077148,4513.077148,4542.820313,4600.256348,4416.410156,4415.512695,4523.333496,4572.692383,4557.94873,4538.461426,4410.897461,4416.410156,4597.179688,4551.666504,4520.769043,4403.717773,4583.333496,4405.128418,4587.692383,4523.205078,4420.256348,4542.94873,4528.205078,2844,0,4,2564,8758,,,,0,4,4,4,4,4,4,4,4,4,4,4,4,4,4,4,4,4,4,4,4,4,4,4,4,4,4,4,4,4,4,4,4,100,,,,,,,,,,,,,,,,,,,,,,,,,,,,,,,,,,,,,,,,,,,,,,,,,,,,,,,,,,,,,,,,,,,,,,,,,,,,,,,,,,,,,,,,,,,,,,,,,,,,,,,,,,,,,,,,,,,,,,,,,,,,,,,,,,,,,,,,,,,,,,,,,,,,,,,,,,,,,,,,,,,,,,,,,,,,,,,,,,,,,,,,,,,,,,,,,,,,,,,,,,,,,,
1764669261.180227,27236,0,4417.05127,4417.05127,4541.794922,4570.897461,4435.512695,4550.384766,4568.974121,4431.282227,4609.230957,4401.025879,4514.358887,4547.563965,4599.487305,4412.820313,4411.922852,4521.282227,4572.94873,4560.512695,4541.025879,4413.333496,4417.563965,4594.230957,4547.307617,4518.846191,4405.384766,4588.461426,4405.769043,4587.307617,4522.692383,4417.820313,4540,4523.974121,2739,0,4,2565,8766,,,,0,4,4,4,4,4,4,4,4,4,4,4,4,4,4,4,4,4,4,4,4,4,4,4,4,4,4,4,4,4,4,4,4,100,,,,,,,,,,,,,,,,,,,,,,,,,,,,,,,,,,,,,,,,,,,,,,,,,,,,,,,,,,,,,,,,,,,,,,,,,,,,,,,,,,,,,,,,,,,,,,,,,,,,,,,,,,,,,,,,,,,,,,,,,,,,,,,,,,,,,,,,,,,,,,,,,,,,,,,,,,,,,,,,,,,,,,,,,,,,,,,,,,,,,,,,,,,,,,,,,,,,,,,,,,,,,,
1764669261.184133,27237,0,4404.102539,4404.487305,4520.641113,4554.615234,4429.102539,4540.512695,4560.769043,4419.615234,4594.230957,4397.94873,4502.05127,4536.153809,4583.974121,4397.563965,4395.512695,4509.743652,4557.820313,4542.436035,4527.563965,4402.436035,4405.512695,4577.94873,4527.94873,4504.615234,4411.282227,4585.128418,4394.358887,4573.717773,4513.846191,4405.769043,4521.538574,4502.307617,2822,0,4,2565,8766,,,,0,4,4,4,4,4,4,4,4,4,4,4,4,4,4,4,4,4,4,4,4,4,4,4,4,4,4,4,4,4,4,4,4,100,,,,,,,,,,,,,,,,,,,,,,,,,,,,,,,,,,,23193,0,0.657276,-0.300293,-0.296692,0.624329,0.989379,0.026859,0.027835,15.833333,37.333332,-26.166666,,,,,,,,,,,,,,,,,,,,,,,,,,,,,,,,,,,,,,,,,,,,,,,,,,,,,,,,,,,,,,,,,,,,,,,,,,,,,,,,,,,,,,,,,,,,,,,,,,,,,,,,,,,,,,,,,,,,,,,,,,,,,,,,,,,,,,,,,,,,,,,,,,,,,,,,,,,,,,,,
1764669261.188039,27238,0,4387.05127,4387.563965,4502.179688,4534.487305,4414.615234,4522.94873,4542.94873,4399.743652,4572.692383,4395,4485.128418,4516.153809,4562.563965,4379.871582,4377.05127,4496.922852,4536.153809,4514.487305,4505.897461,4385,4387.179688,4557.563965,4505.128418,4487.179688,4417.307617,4576.666504,4378.077148,4554.615234,4502.436035,4392.94873,4500,4477.94873,2800,0,4,2566,8774,,,,0,4,4,4,4,4,4,4,4,4,4,4,4,4,4,4,4,4,4,4,4,4,4,4,4,4,4,4,4,4,4,4,4,100,,,,,,,,,,,,,,,,,,,,,,,,,,,,,,,,,,,,,,,,,,,,,,,,,,,,,,,,,,,,,,,,,,,,,,,,,,,,,,,,,,,,,,,,,,,,,,,,,,,,,,,,,,,,,,,,,,,,,,,,,,,,,,,,,,,,,,,,,,,,,,,,,,,,,,,,,,,,,,,,,,,,,,,,,,,,,,,,,,,,,,,,,,,,,,,,,,,,,,,,,,,,,,
1764669261.191945,27239,0,4377.563965,4378.077148,4497.563965,4522.820313,4402.179688,4510,4527.436035,4385.512695,4559.102539,4395.256348,4475.897461,4501.410156,4549.358887,4372.05127,4369.230957,4491.922852,4522.820313,4496.153809,4490.384766,4372.563965,4375.256348,4545.897461,4493.589844,4478.077148,4418.846191,4570.256348,4368.846191,4542.94873,4496.025879,4388.717773,4491.282227,4469.487305,2978,0,4,2566,8774,,,,0,4,4,4,4,4,4,4,4,4,4,4,4,4,4,4,4,4,4,4,4,4,4,4,4,4,4,4,4,4,4,4,4,100,,,,,,,,,,,,,,,,,,,,,,,,,,,,,,,,,,,,,,,,,,,,,,,,,,,,,,,,,,,,,,,,,,,,,,,,,,,,,,,,,,,,,,,,,,,,,,,,,,,,,,,,,,,,,,,,,,,,,,,,,,,,,,,,,,,,,,,,,,,,,,,,,,,,,,,,,,,,,,,,,,,,,,,,,,,,,,,,,,,,,,,,,,,,,,,,,,,,,,,,,,,,,,
1764669261.195851,27240,0,4380,4380.641113,4503.205078,4524.743652,4397.563965,4509.102539,4522.820313,4384.358887,4560.897461,4398.717773,4479.743652,4500.512695,4551.794922,4378.589844,4375.769043,4497.436035,4525.384766,4498.974121,4489.102539,4371.666504,4376.922852,4548.205078,4498.077148,4481.538574,4413.077148,4569.871582,4372.820313,4544.743652,4497.94873,4395,4501.538574,4483.333496,2889,0,4,2565,8781,,,,0,4,4,4,4,4,4,4,4,4,4,4,4,4,4,4,4,4,4,4,4,4,4,4,4,4,4,4,4,4,4,4,4,100,,,,,,,,,,,,,,,,,,,,,,,,,,,,,,,,,,,,,,,,,,,,,,,,,,,,,,,,,,,,,,,,,,,,,,,,,,,,,,,,,,,,,,,,,,,,,,,,,,,,,,,,,,,,,,,,,,,,,,,,,,,,,,,,,,,,,,,,,,,,,,,,,,,,,,,,,,,,,,,,,,,,,,,,,,,,,,,,,,,,,,,,,,,,,,,,,,,,,,,,,,,,,,
1764669261.199757,27241,0,4388.846191,4389.871582,4506.153809,4534.487305,4397.94873,4517.179688,4527.307617,4392.436035,4573.205078,4401.153809,4490.897461,4510.128418,4564.871582,4392.179688,4388.333496,4507.436035,4537.692383,4516.922852,4499.358887,4379.230957,4387.820313,4558.461426,4510.641113,4490.897461,4400.897461,4573.333496,4385.641113,4554.358887,4504.230957,4405.384766,4521.666504,4507.563965,2770,0,4,2565,8781,,,,0,4,4,4,4,4,4,4,4,4,4,4,4,4,4,4,4,4,4,4,4,4,4,4,4,4,4,4,4,4,4,4,4,100,,,,,,,,,,,,,,,,,,,,,,,,,,,,,,,,,,,23194,0,0.657103,-0.300598,-0.296509,0.624451,0.989379,0.026859,0.027835,17.166666,38.5,-25,,,,,,,,,,,,,,,,,,,,,,,,,,,,,,,,,,,,,,,,,,,,,,,,,,,,,,,,,,,,,,,,,,,,,,,,,,,,,,,,,,,,,,,,,,,,,,,,,,,,,,,,,,,,,,,,,,,,,,,,,,,,,,,,,,,,,,,,,,,,,,,,,,,,,,,,,,,,,,,,
1764669261.203663,27242,0,4393.717773,4395.256348,4497.94873,4541.282227,4396.794922,4524.230957,4532.563965,4399.358887,4583.974121,4398.589844,4498.461426,4519.230957,4576.153809,4400.128418,4394.743652,4513.461426,4546.282227,4533.717773,4510.897461,4387.179688,4398.461426,4566.538574,4518.333496,4495.769043,4388.077148,4575.769043,4396.922852,4560.384766,4508.333496,4411.666504,4535.641113,4522.307617,1350,0,4,2565,8789,,,,0,4,4,4,4,4,4,4,4,4,4,4,4,4,4,4,4,4,4,4,4,4,4,4,4,4,4,4,4,4,4,4,4,100,,,,,,,,,,,,,,,,,,,,,,,,,,,,,,,,,,,,,,,,,,,,,,,,,,,,,,,,,,,,,,,,,,,,,,,,,,,,,,,,,,,,,,,,,,,,,,,,,,,,,,,,,,,,,,,,,,,,,,,,,,,,,,,,,,,,,,,,,,,,,,,,,,,,,,,,,,,,,,,,,,,,,,,,,,,,,,,,,,,,,,,,,,,,,,,,,,,,,,,,,,,,,,
1764669261.207569,27243,0,4389.102539,4391.282227,4482.820313,4538.077148,4390.769043,4522.307617,4531.282227,4397.563965,4584.358887,4391.153809,4496.153809,4519.358887,4575.769043,4395.897461,4389.102539,4511.153809,4542.94873,4536.922852,4515.769043,4390.256348,4402.692383,4566.922852,4514.743652,4491.538574,4382.563965,4573.589844,4398.846191,4556.025879,4506.410156,4410.384766,4533.205078,4516.666504,2698,0,4,2565,8789,,,,0,4,4,4,4,4,4,4,4,4,4,4,4,4,4,4,4,4,4,4,4,4,4,4,4,4,4,4,4,4,4,4,4,100,,,,,,,,,,,,,,,,,,,,,,,,,,,,,,,,,,,,,,,,,,,,,,,,,,,,,,,,,,,,,,,,,,,,,,,,,,,,,,,,,,,,,,,,,,,,,,,,,,,,,,,,,,,,,,,,,,,,,,,,,,,,,,,,,,,,,,,,,,,,,,,,,,,,,,,,,,,,,,,,,,,,,,,,,,,,,,,,,,,,,,,,,,,,,,,,,,,,,,,,,,,,,,
1764669261.211475,27244,0,4378.589844,4381.025879,4473.461426,4526.410156,4382.692383,4512.436035,4523.333496,4388.077148,4575.256348,4384.102539,4486.538574,4510.512695,4564.743652,4383.974121,4375.897461,4503.333496,4530.641113,4527.307617,4512.692383,4388.846191,4401.538574,4562.05127,4504.102539,4482.692383,4387.179688,4568.461426,4391.922852,4544.230957,4500.641113,4403.974121,4518.589844,4497.692383,2459,0,4,2566,8797,,,,0,4,4,4,4,4,4,4,4,4,4,4,4,4,4,4,4,4,4,4,4,4,4,4,4,4,4,4,4,4,4,4,4,100,,,,,,,,,,,,,,,,,,,,,,,,,,,,,,,,,,,,,,,,,,,,,,,,,,,,,,,,,,,,,,,,,,,,,,,,,,,,,,,,,,,,,,,,,,,,,,,,,,,,,,,,,,,,,,,,,,,,,,,,,,,,,,,,,,,,,,,,,,,,,,,,,,,,,,,,,,,,,,,,,,,,,,,,,,,,,,,,,,,,,,,,,,,,,,,,,,,,,,,,,,,,,,
1764669261.215381,27245,0,4370.256348,4372.307617,4478.077148,4514.487305,4378.333496,4502.436035,4514.871582,4378.846191,4565.128418,4383.077148,4477.307617,4500.384766,4552.179688,4375.256348,4366.025879,4496.153809,4519.487305,4515.128418,4506.922852,4386.922852,4400.128418,4558.589844,4495.769043,4477.692383,4396.666504,4564.615234,4383.461426,4534.871582,4496.282227,4397.05127,4505.128418,4482.179688,2216,0,4,2566,8797,,,,0,4,4,4,4,4,4,4,4,4,4,4,4,4,4,4,4,4,4,4,4,4,4,4,4,4,4,4,4,4,4,4,4,100,,,,,,,,,,,,,,,,,,,,,,,,,,,,,,,,,,,23195,0,0.656981,-0.300659,-0.296204,0.624695,0.998657,0.033207,0.025882,17.5,37,-25.833334,,,,,,,,,,,,,,,,,,,,,,,,,,,,,,,,,,,,,,,,,,,,,,,,,,,,,,,,,,,,,,,,,,,,,,,,,,,,,,,,,,,,,,,,,,,,,,,,,,,,,,,,,,,,,,,,,,,,,,,,,,,,,,,,,,,,,,,,,,,,,,,,,,,,,,,,,,,,,,,,
1764669261.219287,27246,0,4370.256348,4371.282227,4493.333496,4510.256348,4381.922852,4499.871582,4512.307617,4377.179688,4562.820313,4389.358887,4474.615234,4497.179688,4546.922852,4376.538574,4366.410156,4494.230957,4517.05127,4510.897461,4504.102539,4388.333496,4402.563965,4560,4496.410156,4481.153809,4401.410156,4565.897461,4380.897461,4535.384766,4497.179688,4393.077148,4503.974121,4481.794922,2718,0,4,2567,8805,,,,0,4,4,4,4,4,4,4,4,4,4,4,4,4,4,4,4,4,4,4,4,4,4,4,4,4,4,4,4,4,4,4,4,100,,,,,,,,,,,,,,,,,,,,,,,,,,,,,,,,,,,,,,,,,,,,,,,,,,,,,,,,,,,,,,,,,,,,,,,,,,,,,,,,,,,,,,,,,,,,,,,,,,,,,,,,,,,,,,,,,,,,,,,,,,,,,,,,,,,,,,,,,,,,,,,,,,,,,,,,,,,,,,,,,,,,,,,,,,,,,,,,,,,,,,,,,,,,,,,,,,,,,,,,,,,,,,
1764669261.223193,27247,0,4377.563965,4378.077148,4507.94873,4516.282227,4392.436035,4506.025879,4517.179688,4384.743652,4570,4399.358887,4478.846191,4502.94873,4551.025879,4386.282227,4375.897461,4497.820313,4523.589844,4517.179688,4506.666504,4393.589844,4408.333496,4564.743652,4504.358887,4491.025879,4395.641113,4572.179688,4385.512695,4545.769043,4503.461426,4392.692383,4515,4493.974121,2435,0,4,2567,8805,,,,0,4,4,4,4,4,4,4,4,4,4,4,4,4,4,4,4,4,4,4,4,4,4,4,4,4,4,4,4,4,4,4,4,100,,,,,,,,,,,,,,,,,,,,,,,,,,,,,,,,,,,,,,,,,,,,,,,,,,,,,,,,,,,,,,,,,,,,,,,,,,,,,,,,,,,,,,,,,,,,,,,,,,,,,,,,,,,,,,,,,,,,,,,,,,,,,,,,,,,,,,,,,,,,,,,,,,,,,,,,,,,,,,,,,,,,,,,,,,,,,,,,,,,,,,,,,,,,,,,,,,,,,,,,,,,,,,
1764669261.227099,27248,0,4386.794922,4388.077148,4513.077148,4528.205078,4404.102539,4516.282227,4526.794922,4396.794922,4581.025879,4408.077148,4486.410156,4512.94873,4560,4396.922852,4386.666504,4503.461426,4533.589844,4528.846191,4512.94873,4400.384766,4413.846191,4568.717773,4513.205078,4501.025879,4383.461426,4580.512695,4393.717773,4559.230957,4511.538574,4395,4528.589844,4506.538574,2883,0,4,2568,8813,,,,0,4,4,4,4,4,4,4,4,4,4,4,4,4,4,4,4,4,4,4,4,4,4,4,4,4,4,4,4,4,4,4,4,100,,,,,,,,,,,,,,,,,,,,,,,,,,,,,,,,,,,,,,,,,,,,,,,,,,,,,,,,,,,,,,,,,,,,,,,,,,,,,,,,,,,,,,,,,,,,,,,,,,,,,,,,,,,,,,,,,,,,,,,,,,,,,,,,,,,,,,,,,,,,,,,,,,,,,,,,,,,,,,,,,,,,,,,,,,,,,,,,,,,,,,,,,,,,,,,,,,,,,,,,,,,,,,
1764669261.231005,27249,0,4392.820313,4396.153809,4509.487305,4538.974121,4411.666504,4524.487305,4535.897461,4406.794922,4588.717773,4411.538574,4493.846191,4520.512695,4567.94873,4402.179688,4391.410156,4507.692383,4541.025879,4538.333496,4519.743652,4405.769043,4416.025879,4570.384766,4517.692383,4506.666504,4377.307617,4587.692383,4401.025879,4568.461426,4517.179688,4399.230957,4534.615234,4509.743652,2907,0,4,2568,8813,,,,0,4,4,4,4,4,4,4,4,4,4,4,4,4,4,4,4,4,4,4,4,4,4,4,4,4,4,4,4,4,4,4,4,100,,,,,,,,,,,,,,,,,,,,,,,,,,,,,,,,,,,23196,0,0.656944,-0.300659,-0.295898,0.624878,0.995239,0.024905,0.018557,17.333334,36.333332,-24.333334,,,,,,,,,,,,,,,,,,,,,,,,,,,,,,,,,,,,,,,,,,,,,,,,,,,,,,,,,,,,,,,,,,,,,,,,,,,,,,,,,,,,,,,,,,,,,,,,,,,,,,,,,,,,,,,,,,,,,,,,,,,,,,,,,,,,,,,,,,,,,,,,,,,,,,,,,,,,,,,,
1764669261.234912,27250,0,4395.128418,4399.743652,4504.615234,4543.717773,4413.974121,4528.205078,4541.282227,4410.512695,4589.871582,4409.487305,4499.743652,4522.179688,4572.94873,4401.153809,4389.358887,4509.487305,4544.102539,4541.922852,4525.256348,4408.461426,4415.256348,4571.538574,4518.333496,4508.846191,4387.05127,4592.692383,4405.256348,4571.410156,4518.717773,4404.743652,4531.282227,4503.589844,1779,0,4,2569,8820,,,,0,4,4,4,4,4,4,4,4,4,4,4,4,4,4,4,4,4,4,4,4,4,4,4,4,4,4,4,4,4,4,4,4,100,,,,,,,,,,,,,,,,,,,,,,,,,,,,,,,,,,,,,,,,,,,,,,,,,,,,,,,,,,,,,,,,,,,,,,,,,,,,,,,,,,,,,,,,,,,,,,,,,,,,,,,,,,,,,,,,,,,,,,,,,,,,,,,,,,,,,,,,,,,,,,,,,,,,,,,,,,,,,,,,,,,,,,,,,,,,,,,,,,,,,,,,,,,,,,,,,,,,,,,,,,,,,,
1764669261.238818,27251,0,4396.282227,4400,4505.641113,4542.563965,4413.205078,4528.717773,4542.05127,4408.846191,4585.512695,4404.615234,4503.589844,4519.615234,4575.641113,4398.077148,4385.512695,4510,4544.358887,4540.641113,4528.717773,4408.333496,4413.461426,4574.230957,4518.205078,4510.512695,4410.128418,4595.641113,4406.025879,4570.769043,4517.436035,4409.230957,4524.871582,4495.128418,2736,0,4,2569,8820,,,,0,4,4,4,4,4,4,4,4,4,4,4,4,4,4,4,4,4,4,4,4,4,4,4,4,4,4,4,4,4,4,4,4,100,,,,,,,,,,,,,,,,,,,,,,,,,,,,,,,,,,,,,,,,,,,,,,,,,,,,,,,,,,,,,,,,,,,,,,,,,,,,,,,,,,,,,,,,,,,,,,,,,,,,,,,,,,,,,,,,,,,,,,,,,,,,,,,,,,,,,,,,,,,,,,,,,,,,,,,,,,,,,,,,,,,,,,,,,,,,,,,,,,,,,,,,,,,,,,,,,,,,,,,,,,,,,,
1764669261.242724,27252,0,4397.436035,4398.461426,4512.05127,4538.205078,4411.282227,4527.94873,4538.717773,4403.974121,4578.077148,4400.769043,4504.102539,4515.897461,4576.410156,4396.153809,4384.230957,4509.487305,4543.589844,4536.922852,4529.102539,4404.743652,4410.897461,4576.922852,4518.717773,4511.794922,4430,4595.256348,4402.692383,4569.102539,4515.128418,4409.487305,4522.563965,4489.358887,2594,0,4,2570,8828,,,,0,4,4,4,4,4,4,4,4,4,4,4,4,4,4,4,4,4,4,4,4,4,4,4,4,4,4,4,4,4,4,4,4,100,,,,,,,,,,,,,,,,,,,,,,,,,,,,,,,,,,,,,,,,,,,,,,,,,,,,,,,,,,,,,,,,,,,,,,,,,,,,,,,,,,,,,,,,,,,,,,,,,,,,,,,,,,,,,,,,,,,,,,,,,,,,,,,,,,,,,,,,,,,,,,,,,,,,,,,,,,,,,,,,,,,,,,,,,,,,,,,,,,,,,,,,,,,,,,,,,,,,,,,,,,,,,,
1764669261.246630,27253,0,4397.05127,4396.794922,4517.179688,4532.94873,4408.717773,4526.538574,4532.436035,4398.333496,4570.128418,4399.358887,4500,4513.077148,4574.358887,4394.871582,4385.769043,4507.692383,4541.282227,4531.922852,4525.128418,4396.282227,4405.769043,4575.897461,4518.077148,4510.128418,4429.743652,4590.384766,4395.641113,4566.666504,4512.94873,4405.128418,4526.282227,4486.794922,2800,0,4,2570,8828,,,,0,4,4,4,4,4,4,4,4,4,4,4,4,4,4,4,4,4,4,4,4,4,4,4,4,4,4,4,4,4,4,4,4,100,,,,,,,,,,,,,,,,,,,,,,,,,,,,,,,,,,,23197,0,0.656907,-0.30072,-0.295532,0.625061,0.989379,0.03223,0.024417,18.333334,36.5,-25.833334,,,,,,,,,,,,,,,,,,,,,,,,,,,,,,,,,,,,,,,,,,,,,,,,,,,,,,,,,,,,,,,,,,,,,,,,,,,,,,,,,,,,,,,,,,,,,,,,,,,,,,,,,,,,,,,,,,,,,,,,,,,,,,,,,,,,,,,,,,,,,,,,,,,,,,,,,,,,,,,,
1764669261.250536,27254,1,4394.603516,4395.466309,4515.943848,4531.946289,4405.407715,4524.720215,4530.198242,4396.421875,4568.939453,4396.211914,4498.100098,4511.386719,4572.237793,4393.041992,4383.729492,4506.562012,4538.788086,4530.291504,4522.552246,4392.575684,4402.680664,4572.109375,4515.349609,4506.083984,4420.58252,4586.293945,4393.98584,4563.98584,4511.678223,4402.855469,4524.172363,4485.804199,0,0,4,0,0,,,,0,4,4,4,4,4,4,4,4,4,4,4,4,4,4,4,4,4,4,4,4,4,4,4,4,4,4,4,4,4,4,4,4,100,,,,,,,,,,,,,,,,,,,,,,,,,,,,,,,,,,,,,,,,,,,,,,,,,,,,,,,,,,,,,,,,,,,,,,,,,,,,,,,,,,,,,,,,,,,,,,,,,,,,,,,,,,,,,,,,,,,,,,,,,,,,,,,,,,,,,,,,,,,,,,,,,,,,,,,,,,,,,,,,,,,,,,,,,,,,,,,,,,,,,,,,,,,,,,,,,,,,,,,,,,,,,,
1764669261.254442,27255,1,4392.15625,4394.137695,4514.708496,4530.943848,4402.098145,4522.901855,4527.960449,4394.510254,4567.750488,4393.06543,4496.200684,4509.696777,4570.116699,4391.211914,4381.689941,4505.431152,4536.293945,4528.659668,4519.976563,4388.869629,4399.592285,4568.321777,4512.622559,4502.039551,4411.421875,4582.202637,4392.331055,4561.305176,4510.407715,4400.58252,4522.062988,4484.813477,0,0,4,0,0,,,,0,4,4,4,4,4,4,4,4,4,4,4,4,4,4,4,4,4,4,4,4,4,4,4,4,4,4,4,4,4,4,4,4,100,,,,,,,,,,,,,,,,,,,,,,,,,,,,,,,,,,,,,,,,,,,,,,,,,,,,,,,,,,,,,,,,,,,,,,,,,,,,,,,,,,,,,,,,,,,,,,,,,,,,,,,,,,,,,,,,,,,,,,,,,,,,,,,,,,,,,,,,,,,,,,,,,,,,,,,,,,,,,,,,,,,,,,,,,,,,,,,,,,,,,,,,,,,,,,,,,,,,,,,,,,,,,,
1764669261.258348,27256,1,4389.708496,4392.809082,4513.473145,4529.941895,4398.788086,4521.083984,4525.722656,4392.599121,4566.562012,4389.918457,4494.300781,4508.006836,4567.995117,4389.382324,4379.650391,4504.300781,4533.799316,4527.027832,4517.400879,4385.163086,4396.503418,4564.533691,4509.89502,4497.995117,4402.26123,4578.111816,4390.675781,4558.624512,4509.137695,4398.310059,4519.953613,4483.822754,0,0,4,0,0,,,,0,4,4,4,4,4,4,4,4,4,4,4,4,4,4,4,4,4,4,4,4,4,4,4,4,4,4,4,4,4,4,4,4,100,,,,,,,,,,,,,,,,,,,,,,,,,,,,,,,,,,,,,,,,,,,,,,,1.878328,0.660634,4.304097,2.055753,2.129421,1.095815,1.202011,5.361698,2.428652,2.458461,1.263822,3.327081,5.775105,4.358995,3.147383,0.703442,1.294406,3.522718,1.974883,2.813332,1.665896,0.659226,5.192718,2.183937,2.337448,1.395682,0.589182,4.46611,1.976993,2.094665,1.288551,0.982492,5.75899,2.660042,2.554612,1.147179,1.252011,5.359671,2.977487,2.45926,0.812583,1.964554,6.417406,2.724638,2.556137,0.70792,3.199048,8.066525,4.539267,4.987547,0.761322,0.723217,2.818096,1.538312,1.865931,1.574866,1.127705,3.493948,1.968583,2.095753,1.075066,1.068781,3.36652,1.767945,1.825367,0.590748,0.675532,1.342364,1.125507,1.585115,0.686509,0.733216,3.128147,1.672307,2.04158,0.623398,0.653269,1.605649,1.015056,0.870476,1.625497,1.678643,4.81728,2.664323,2.357342,1.804074,1.818857,3.398014,2.327393,2.475698,1.238297,1.396092,1.708261,1.443408,1.57386,0.950128,0.99909,2.995485,1.80241,2.259772,1.428161,1.846677,3.822226,2.993882,2.159119,0.999648,1.638742,3.99428,2.689344,2.052128,0.871255,0.833612,3.839045,2.130917,2.245279,1.09156,1.561483,3.52805,2.496761,2.207308,3.109075,3.474751,11.817751,6.228963,6.631138,1.301237,1.381891,4.405288,1.743464,2.306231,1.27621,1.607218,4.440106,1.879876,2.24683,1.09704,0.963545,4.745257,2.477448,2.613868,0.690815,0.483464,2.279842,1.019515,1.146451,0.976709,1.046865,5.203698,2.215634,2.643045,1.346275,2.78003,4.259648,2.578947,3.376358,1.331376,4.877598,6.169953,3.395123,4.464119
1764669261.262254,27257,1,4387.26123,4391.47998,4512.237793,4528.939453,4395.478027,4519.265625,4523.484863,4390.6875,4565.373047,4386.771484,4492.400879,4506.316895,4565.874023,4387.552246,4377.61084,4503.169922,4531.305176,4525.396484,4514.825195,4381.457031,4393.415039,4560.746094,4507.167969,4493.951172,4393.100098,4574.020996,4389.020996,4555.943848,4507.867188,4396.037109,4517.84375,4482.832031,0,0,4,0,0,,,,0,4,4,4,4,4,4,4,4,4,4,4,4,4,4,4,4,4,4,4,4,4,4,4,4,4,4,4,4,4,4,4,4,100,,,,,,,,,,,,,,,,,,,,,,,,,,,,,,,,,,,,,,,,,,,,,,,,,,,,,,,,,,,,,,,,,,,,,,,,,,,,,,,,,,,,,,,,,,,,,,,,,,,,,,,,,,,,,,,,,,,,,,,,,,,,,,,,,,,,,,,,,,,,,,,,,,,,,,,,,,,,,,,,,,,,,,,,,,,,,,,,,,,,,,,,,,,,,,,,,,,,,,,,,,,,,,
1764669261.266160,27258,1,4384.813477,4390.151367,4511.002441,4527.937012,4392.167969,4517.447754,4521.24707,4388.776367,4564.184082,4383.624512,4490.500977,4504.626953,4563.75293,4385.722656,4375.571289,4502.039551,4528.811035,4523.764648,4512.249512,4377.750488,4390.326172,4556.958008,4504.44043,4489.906738,4383.939453,4569.930176,4387.366211,4553.263184,4506.59668,4393.764648,4515.734375,4481.841309,0,0,4,0,0,,,,0,4,4,4,4,4,4,4,4,4,4,4,4,4,4,4,4,4,4,4,4,4,4,4,4,4,4,4,4,4,4,4,4,100,,,,,,,,,,,,,,,,,,,,,,,,,,,,,,,,,,,,,,,,,,,,,,,,,,,,,,,,,,,,,,,,,,,,,,,,,,,,,,,,,,,,,,,,,,,,,,,,,,,,,,,,,,,,,,,,,,,,,,,,,,,,,,,,,,,,,,,,,,,,,,,,,,,,,,,,,,,,,,,,,,,,,,,,,,,,,,,,,,,,,,,,,,,,,,,,,,,,,,,,,,,,,,
1764669261.270066,27259,1,4382.366211,4388.822754,4509.76709,4526.93457,4388.85791,4515.629395,4519.009277,4386.864746,4562.995117,4380.478027,4488.601563,4502.937012,4561.631836,4383.892578,4373.53125,4500.90918,4526.316895,4522.132813,4509.673828,4374.044434,4387.237793,4553.169922,4501.713379,4485.862305,4374.77832,4565.839355,4385.710938,4550.58252,4505.326172,4391.491699,4513.624512,4480.850586,0,0,4,0,0,,,,0,4,4,4,4,4,4,4,4,4,4,4,4,4,4,4,4,4,4,4,4,4,4,4,4,4,4,4,4,4,4,4,4,100,,,,,,,,,,,,,,,,,,,,,,,,,,,,,,,,,,,,,,,,,,,,,,,,,,,,,,,,,,,,,,,,,,,,,,,,,,,,,,,,,,,,,,,,,,,,,,,,,,,,,,,,,,,,,,,,,,,,,,,,,,,,,,,,,,,,,,,,,,,,,,,,,,,,,,,,,,,,,,,,,,,,,,,,,,,,,,,,,,,,,,,,,,,,,,,,,,,,,,,,,,,,,,
1764669261.273972,27260,1,4379.918457,4387.494141,4508.53125,4525.932617,4385.547852,4513.811035,4516.771484,4384.953613,4561.806641,4377.331055,4486.70166,4501.24707,4559.510254,4382.062988,4371.491699,4499.77832,4523.822754,4520.500977,4507.098145,4370.337891,4384.149414,4549.382324,4498.98584,4481.818359,4365.617676,4561.748047,4384.056152,4547.901855,4504.056152,4389.219238,4511.515137,4479.860352,0,0,4,0,0,,,,0,4,4,4,4,4,4,4,4,4,4,4,4,4,4,4,4,4,4,4,4,4,4,4,4,4,4,4,4,4,4,4,4,100,,,,,,,,,,,,,,,,,,,,,,,,,,,,,,,,,,,,,,,,,,,,,,,,,,,,,,,,,,,,,,,,,,,,,,,,,,,,,,,,,,,,,,,,,,,,,,,,,,,,,,,,,,,,,,,,,,,,,,,,,,,,,,,,,,,,,,,,,,,,,,,,,,,,,,,,,,,,,,,,,,,,,,,,,,,,,,,,,,,,,,,,,,,,,,,,,,,,,,,,,,,,,,
1764669261.277878,27261,1,4377.470703,4386.165527,4507.295898,4524.930176,4382.237793,4511.993164,4514.533691,4383.041992,4560.617676,4374.184082,4484.801758,4499.557129,4557.38916,4380.23291,4369.452148,4498.647949,4521.328613,4518.869629,4504.521973,4366.631836,4381.060547,4545.594238,4496.258789,4477.773926,4356.457031,4557.657227,4382.400879,4545.22168,4502.785645,4386.946289,4509.405762,4478.869629,0,0,4,0,0,,,,0,4,4,4,4,4,4,4,4,4,4,4,4,4,4,4,4,4,4,4,4,4,4,4,4,4,4,4,4,4,4,4,4,100,,,,,,,,,,,,,,,,,,,,,,,,,,,,,,,,,,,23198,1,0.656996,-0.300659,-0.294922,0.625285,0.992146,0.028975,0.025231,17.444445,36.611111,-26,,,,,,,,,,,,,,,,,,,,,,,,,,,,,,,,,,,,,,,,,,,,,,,,,,,,,,,,,,,,,,,,,,,,,,,,,,,,,,,,,,,,,,,,,,,,,,,,,,,,,,,,,,,,,,,,,,,,,,,,,,,,,,,,,,,,,,,,,,,,,,,,,,,,,,,,,,,,,,,,
1764669261.281784,27262,1,4375.023438,4384.836914,4506.060547,4523.927734,4378.927734,4510.174805,4512.295898,4381.130371,4559.428711,4371.037109,4482.901855,4497.867188,4555.268066,4378.40332,4367.412598,4497.517578,4518.834473,4517.237793,4501.946289,4362.925293,4377.972168,4541.806641,4493.53125,4473.729492,4347.295898,4553.566406,4380.746094,4542.541016,4501.515137,4384.673828,4507.295898,4477.878906,0,0,4,0,0,,,,0,4,4,4,4,4,4,4,4,4,4,4,4,4,4,4,4,4,4,4,4,4,4,4,4,4,4,4,4,4,4,4,4,100,,,,,,,,,,,,,,,,,,,,,,,,,,,,,,,,,,,,,,,,,,,,,,,,,,,,,,,,,,,,,,,,,,,,,,,,,,,,,,,,,,,,,,,,,,,,,,,,,,,,,,,,,,,,,,,,,,,,,,,,,,,,,,,,,,,,,,,,,,,,,,,,,,,,,,,,,,,,,,,,,,,,,,,,,,,,,,,,,,,,,,,,,,,,,,,,,,,,,,,,,,,,,,
1764669261.285690,27263,1,4372.575684,4383.508301,4504.825195,4522.925293,4375.617676,4508.356445,4510.058105,4379.219238,4558.240234,4367.890625,4481.002441,4496.177246,4553.146973,4376.573242,4365.373047,4496.386719,4516.340332,4515.605957,4499.370605,4359.219238,4374.883301,4538.018555,4490.804199,4469.685547,4338.135254,4549.475586,4379.09082,4539.860352,4500.244629,4382.400879,4505.186523,4476.888184,0,0,4,0,0,,,,0,4,4,4,4,4,4,4,4,4,4,4,4,4,4,4,4,4,4,4,4,4,4,4,4,4,4,4,4,4,4,4,4,100,,,,,,,,,,,,,,,,,,,,,,,,,,,,,,,,,,,23199,1,0.657084,-0.300598,-0.294312,0.625509,0.994913,0.025719,0.026045,16.555555,36.722221,-26.166666,,,,,,,,,,,,,,,,,,,,,,,,,,,,,,,,,,,,,,,,,,,,,,,,,,,,,,,,,,,,,,,,,,,,,,,,,,,,,,,,,,,,,,,,,,,,,,,,,,,,,,,,,,,,,,,,,,,,,,,,,,,,,,,,,,,,,,,,,,,,,,,,,,,,,,,,,,,,,,,,
1764669261.289596,27264,0,4370.128418,4382.179688,4503.589844,4521.922852,4372.307617,4506.538574,4507.820313,4377.307617,4557.05127,4364.743652,4479.102539,4494.487305,4551.025879,4374.743652,4363.333496,4495.256348,4513.846191,4513.974121,4496.794922,4355.512695,4371.794922,4534.230957,4488.077148,4465.641113,4328.974121,4545.384766,4377.436035,4537.179688,4498.974121,4380.128418,4503.077148,4475.897461,2798,0,4,2570,8875,,,,0,4,4,4,4,4,4,4,4,4,4,4,4,4,4,4,4,4,4,4,4,4,4,4,4,4,4,4,4,4,4,4,4,100,,,,,,,,,,,,,,,,,,,,,,,,,,,,,,,,,,,,,,,,,,,,,,,,,,,,,,,,,,,,,,,,,,,,,,,,,,,,,,,,,,,,,,,,,,,,,,,,,,,,,,,,,,,,,,,,,,,,,,,,,,,,,,,,,,,,,,,,,,,,,,,,,,,,,,,,,,,,,,,,,,,,,,,,,,,,,,,,,,,,,,,,,,,,,,,,,,,,,,,,,,,,,,
1764669261.293502,27265,0,4375.769043,4384.102539,4496.282227,4527.307617,4386.153809,4512.563965,4520.256348,4386.922852,4567.692383,4366.282227,4490.384766,4504.487305,4562.563965,4383.846191,4373.717773,4500.641113,4522.436035,4520.384766,4503.461426,4372.820313,4386.666504,4547.307617,4497.820313,4474.102539,4382.820313,4550.769043,4380.641113,4541.538574,4502.307617,4377.436035,4501.410156,4487.563965,2905,0,4,2570,8875,,,,0,4,4,4,4,4,4,4,4,4,4,4,4,4,4,4,4,4,4,4,4,4,4,4,4,4,4,4,4,4,4,4,4,100,,,,,,,,,,,,,,,,,,,,,,,,,,,,,,,,,,,23200,0,0.657173,-0.300537,-0.293701,0.625732,0.99768,0.022464,0.026859,15.666667,36.833332,-26.333334,,,,,,,,,,,,,,,,,,,,,,,,,,,,,,,,,,,,,,,,,,,,,,,,,,,,,,,,,,,,,,,,,,,,,,,,,,,,,,,,,,,,,,,,,,,,,,,,,,,,,,,,,,,,,,,,,,,,,,,,,,,,,,,,,,,,,,,,,,,,,,,,,,,,,,,,,,,,,,,,
1764669261.297408,27266,1,4374.102539,4382.512695,4494.589844,4527.307617,4385.846191,4510.487305,4517.641113,4385.794922,4567.641113,4368.589844,4487.102539,4503.230957,4560.128418,4382.769043,4370.538574,4498.692383,4519.94873,4516.307617,4499.743652,4366.358887,4381.743652,4544.922852,4495.153809,4471.922852,4375.871582,4550.102539,4375.692383,4538.871582,4500.05127,4378.102539,4499.487305,4480.230957,2719,0,4,0,0,,,,0,4,4,4,4,4,4,4,4,4,4,4,4,4,4,4,4,4,4,4,4,4,4,4,4,4,4,4,4,4,4,4,4,100,,,,,,,,,,,,,,,,,,,,,,,,,,,,,,,,,,,,,,,,,,,,,,,,,,,,,,,,,,,,,,,,,,,,,,,,,,,,,,,,,,,,,,,,,,,,,,,,,,,,,,,,,,,,,,,,,,,,,,,,,,,,,,,,,,,,,,,,,,,,,,,,,,,,,,,,,,,,,,,,,,,,,,,,,,,,,,,,,,,,,,,,,,,,,,,,,,,,,,,,,,,,,,
1764669261.301314,27267,1,4372.436035,4380.922852,4492.897461,4527.307617,4385.538574,4508.410156,4515.025879,4384.666504,4567.589844,4370.897461,4483.820313,4501.974121,4557.692383,4381.692383,4367.358887,4496.743652,4517.461426,4512.230957,4496.025879,4359.897461,4376.820313,4542.538574,4492.487305,4469.743652,4368.922852,4549.436035,4370.743652,4536.205078,4497.794922,4378.769043,4497.563965,4472.897461,2890,0,4,0,0,,,,0,4,4,4,4,4,4,4,4,4,4,4,4,4,4,4,4,4,4,4,4,4,4,4,4,4,4,4,4,4,4,4,4,100,,,,,,,,,,,,,,,,,,,,,,,,,,,,,,,,,,,,,,,,,,,,,,,,,,,,,,,,,,,,,,,,,,,,,,,,,,,,,,,,,,,,,,,,,,,,,,,,,,,,,,,,,,,,,,,,,,,,,,,,,,,,,,,,,,,,,,,,,,,,,,,,,,,,,,,,,,,,,,,,,,,,,,,,,,,,,,,,,,,,,,,,,,,,,,,,,,,,,,,,,,,,,,
1764669261.305220,27268,1,4370.769043,4379.333496,4491.205078,4527.307617,4385.230957,4506.333496,4512.410156,4383.538574,4567.538574,4373.205078,4480.538574,4500.717773,4555.256348,4380.615234,4364.179688,4494.794922,4514.974121,4508.153809,4492.307617,4353.436035,4371.897461,4540.153809,4489.820313,4467.563965,4361.974121,4548.769043,4365.794922,4533.538574,4495.538574,4379.436035,4495.641113,4465.563965,2742,0,4,0,0,,,,0,4,4,4,4,4,4,4,4,4,4,4,4,4,4,4,4,4,4,4,4,4,4,4,4,4,4,4,4,4,4,4,4,100,,,,,,,,,,,,,,,,,,,,,,,,,,,,,,,,,,,,,,,,,,,,,,,,,,,,,,,,,,,,,,,,,,,,,,,,,,,,,,,,,,,,,,,,,,,,,,,,,,,,,,,,,,,,,,,,,,,,,,,,,,,,,,,,,,,,,,,,,,,,,,,,,,,,,,,,,,,,,,,,,,,,,,,,,,,,,,,,,,,,,,,,,,,,,,,,,,,,,,,,,,,,,,
1764669261.309126,27269,1,4369.102539,4377.743652,4489.512695,4527.307617,4384.922852,4504.256348,4509.794922,4382.410156,4567.487305,4375.512695,4477.256348,4499.461426,4552.820313,4379.538574,4361,4492.846191,4512.487305,4504.077148,4488.589844,4346.974121,4366.974121,4537.769043,4487.153809,4465.384766,4355.025879,4548.102539,4360.846191,4530.871582,4493.282227,4380.102539,4493.717773,4458.230957,2829,0,4,0,0,,,,0,4,4,4,4,4,4,4,4,4,4,4,4,4,4,4,4,4,4,4,4,4,4,4,4,4,4,4,4,4,4,4,4,100,,,,,,,,,,,,,,,,,,,,,,,,,,,,,,,,,,,,,,,,,,,,,,,,,,,,,,,,,,,,,,,,,,,,,,,,,,,,,,,,,,,,,,,,,,,,,,,,,,,,,,,,,,,,,,,,,,,,,,,,,,,,,,,,,,,,,,,,,,,,,,,,,,,,,,,,,,,,,,,,,,,,,,,,,,,,,,,,,,,,,,,,,,,,,,,,,,,,,,,,,,,,,,
1764669261.313032,27270,0,4367.436035,4376.153809,4487.820313,4527.307617,4384.615234,4502.179688,4507.179688,4381.282227,4567.436035,4377.820313,4473.974121,4498.205078,4550.384766,4378.461426,4357.820313,4490.897461,4510,4500,4484.871582,4340.512695,4362.05127,4535.384766,4484.487305,4463.205078,4348.077148,4547.436035,4355.897461,4528.205078,4491.025879,4380.769043,4491.794922,4450.897461,2802,0,4,2569,8899,,,,0,4,4,4,4,4,4,4,4,4,4,4,4,4,4,4,4,4,4,4,4,4,4,4,4,4,4,4,4,4,4,4,4,100,,,,,,,,,,,,,,,,,,,,,,,,,,,,,,,,,,,,,,,,,,,,,,,,,,,,,,,,,,,,,,,,,,,,,,,,,,,,,,,,,,,,,,,,,,,,,,,,,,,,,,,,,,,,,,,,,,,,,,,,,,,,,,,,,,,,,,,,,,,,,,,,,,,,,,,,,,,,,,,,,,,,,,,,,,,,,,,,,,,,,,,,,,,,,,,,,,,,,,,,,,,,,,
1764669261.316938,27271,0,4383.461426,4395.384766,4505.512695,4541.794922,4405,4518.205078,4524.871582,4397.820313,4581.538574,4373.205078,4485.641113,4510.897461,4563.589844,4388.717773,4369.358887,4495.641113,4523.333496,4511.538574,4493.333496,4358.461426,4374.743652,4549.487305,4503.077148,4479.615234,4351.666504,4564.230957,4379.743652,4548.846191,4503.846191,4404.230957,4507.820313,4470.897461,2971,0,4,2569,8899,,,,0,4,4,4,4,4,4,4,4,4,4,4,4,4,4,4,4,4,4,4,4,4,4,4,4,4,4,4,4,4,4,4,4,100,,,,,,,,,,,,,,,,,,,,,,,,,,,,,,,,,,,,,,,,,,,,,,,,,,,,,,,,,,,,,,,,,,,,,,,,,,,,,,,,,,,,,,,,,,,,,,,,,,,,,,,,,,,,,,,,,,,,,,,,,,,,,,,,,,,,,,,,,,,,,,,,,,,,,,,,,,,,,,,,,,,,,,,,,,,,,,,,,,,,,,,,,,,,,,,,,,,,,,,,,,,,,,
1764669261.320844,27272,0,4403.333496,4416.410156,4527.436035,4560,4428.077148,4538.589844,4549.487305,4418.717773,4598.205078,4389.102539,4503.717773,4529.615234,4581.922852,4404.487305,4387.94873,4505.384766,4545.128418,4531.153809,4509.102539,4387.563965,4398.461426,4570.128418,4527.179688,4500.897461,4381.410156,4585.512695,4402.692383,4572.563965,4519.487305,4426.025879,4520.512695,4497.436035,2888,0,4,2570,8906,,,,0,4,4,4,4,4,4,4,4,4,4,4,4,4,4,4,4,4,4,4,4,4,4,4,4,4,4,4,4,4,4,4,4,100,,,,,,,,,,,,,,,,,,,,,,,,,,,,,,,,,,,,,,,,,,,,,,,,,,,,,,,,,,,,,,,,,,,,,,,,,,,,,,,,,,,,,,,,,,,,,,,,,,,,,,,,,,,,,,,,,,,,,,,,,,,,,,,,,,,,,,,,,,,,,,,,,,,,,,,,,,,,,,,,,,,,,,,,,,,,,,,,,,,,,,,,,,,,,,,,,,,,,,,,,,,,,,
1764669261.324750,27273,0,4416.666504,4428.717773,4546.538574,4572.05127,4439.871582,4552.692383,4567.179688,4432.820313,4608.846191,4416.282227,4517.05127,4543.333496,4594.358887,4415.384766,4400.384766,4515,4563.589844,4548.461426,4524.230957,4410.641113,4418.717773,4586.153809,4543.717773,4516.410156,4416.794922,4599.358887,4415.384766,4587.563965,4530,4437.563965,4524.871582,4518.974121,2767,0,4,2570,8906,,,,0,4,4,4,4,4,4,4,4,4,4,4,4,4,4,4,4,4,4,4,4,4,4,4,4,4,4,4,4,4,4,4,4,100,,,,,,,,,,,,,,,,,,,,,,,,,,,,,,,,,,,23202,0,0.657786,-0.300537,-0.292847,0.625488,1.003052,0.0293,0.040044,18.166666,36,-23.5,,,,,,,,,,,,,,,,,,,,,,,,,,,,,,,,,,,,,,,,,,,,,,,,,,,,,,,,,,,,,,,,,,,,,,,,,,,,,,,,,,,,,,,,,,,,,,,,,,,,,,,,,,,,,,,,,,,,,,,,,,,,,,,,,,,,,,,,,,,,,,,,,,,,,,,,,,,,,,,,
1764669261.328656,27274,1,4415.611328,4426.538574,4544.201172,4570.601563,4439.526855,4551.163574,4565.897461,4430.867676,4607.05127,4415.976563,4515.739746,4542.633301,4593.303711,4413.599609,4398.747559,4514.280273,4562.623047,4547.613281,4522.889648,4409.043457,4417.169434,4584.487305,4542.317383,4514.920898,4412.850098,4598.500977,4414.102539,4585.759277,4528.717773,4434.32959,4524.487305,4519.240723,1364,0,4,0,0,,,,0,4,4,4,4,4,4,4,4,4,4,4,4,4,4,4,4,4,4,4,4,4,4,4,4,4,4,4,4,4,4,4,4,100,,,,,,,,,,,,,,,,,,,,,,,,,,,,,,,,,,,,,,,,,,,,,,,,,,,,,,,,,,,,,,,,,,,,,,,,,,,,,,,,,,,,,,,,,,,,,,,,,,,,,,,,,,,,,,,,,,,,,,,,,,,,,,,,,,,,,,,,,,,,,,,,,,,,,,,,,,,,,,,,,,,,,,,,,,,,,,,,,,,,,,,,,,,,,,,,,,,,,,,,,,,,,,
1764669261.332562,27275,1,4414.556152,4424.358887,4541.86377,4569.151855,4439.181641,4549.635254,4564.615234,4428.915039,4605.256348,4415.67041,4514.428223,4541.933105,4592.248535,4411.814453,4397.110352,4513.560059,4561.656738,4546.765137,4521.54834,4407.445801,4415.621094,4582.820313,4540.916992,4513.432129,4408.905273,4597.643066,4412.820313,4583.95459,4527.436035,4431.094727,4524.102539,4519.506836,2709,0,4,0,0,,,,0,4,4,4,4,4,4,4,4,4,4,4,4,4,4,4,4,4,4,4,4,4,4,4,4,4,4,4,4,4,4,4,4,100,,,,,,,,,,,,,,,,,,,,,,,,,,,,,,,,,,,,,,,,,,,,,,,,,,,,,,,,,,,,,,,,,,,,,,,,,,,,,,,,,,,,,,,,,,,,,,,,,,,,,,,,,,,,,,,,,,,,,,,,,,,,,,,,,,,,,,,,,,,,,,,,,,,,,,,,,,,,,,,,,,,,,,,,,,,,,,,,,,,,,,,,,,,,,,,,,,,,,,,,,,,,,,
1764669261.336468,27276,1,4413.500977,4422.179688,4539.526855,4567.702148,4438.836426,4548.106445,4563.333496,4426.962402,4603.461426,4415.364746,4513.116211,4541.23291,4591.193359,4410.029785,4395.473145,4512.840332,4560.69043,4545.916992,4520.207031,4405.848145,4414.072754,4581.153809,4539.516602,4511.942871,4404.960449,4596.785156,4411.538574,4582.149902,4526.153809,4427.859863,4523.717773,4519.772949,2502,0,4,0,0,,,,0,4,4,4,4,4,4,4,4,4,4,4,4,4,4,4,4,4,4,4,4,4,4,4,4,4,4,4,4,4,4,4,4,100,,,,,,,,,,,,,,,,,,,,,,,,,,,,,,,,,,,,,,,,,,,,,,,,,,,,,,,,,,,,,,,,,,,,,,,,,,,,,,,,,,,,,,,,,,,,,,,,,,,,,,,,,,,,,,,,,,,,,,,,,,,,,,,,,,,,,,,,,,,,,,,,,,,,,,,,,,,,,,,,,,,,,,,,,,,,,,,,,,,,,,,,,,,,,,,,,,,,,,,,,,,,,,
1764669261.340374,27277,1,4412.445801,4420,4537.189453,4566.252441,4438.491211,4546.578125,4562.05127,4425.009766,4601.666504,4415.059082,4511.804688,4540.532715,4590.138184,4408.244629,4393.836426,4512.120117,4559.723633,4545.068848,4518.865723,4404.250488,4412.524414,4579.487305,4538.116211,4510.453613,4401.015625,4595.927246,4410.256348,4580.345215,4524.871582,4424.625488,4523.333496,4520.039551,2258,0,4,0,0,,,,0,4,4,4,4,4,4,4,4,4,4,4,4,4,4,4,4,4,4,4,4,4,4,4,4,4,4,4,4,4,4,4,4,100,,,,,,,,,,,,,,,,,,,,,,,,,,,,,,,,,,,,,,,,,,,,,,,,,,,,,,,,,,,,,,,,,,,,,,,,,,,,,,,,,,,,,,,,,,,,,,,,,,,,,,,,,,,,,,,,,,,,,,,,,,,,,,,,,,,,,,,,,,,,,,,,,,,,,,,,,,,,,,,,,,,,,,,,,,,,,,,,,,,,,,,,,,,,,,,,,,,,,,,,,,,,,,
1764669261.344280,27278,1,4411.390625,4417.820313,4534.852051,4564.802734,4438.145996,4545.049316,4560.769043,4423.057129,4599.871582,4414.753418,4510.493164,4539.83252,4589.083008,4406.459473,4392.199219,4511.400391,4558.757324,4544.220703,4517.524414,4402.652832,4410.976563,4577.820313,4536.71582,4508.964355,4397.070801,4595.068848,4408.974121,4578.540527,4523.589844,4421.390625,4522.94873,4520.305664,2768,0,4,0,0,,,,0,4,4,4,4,4,4,4,4,4,4,4,4,4,4,4,4,4,4,4,4,4,4,4,4,4,4,4,4,4,4,4,4,100,,,,,,,,,,,,,,,,,,,,,,,,,,,,,,,,,,,,,,,,,,,,,,,,,,,,,,,,,,,,,,,,,,,,,,,,,,,,,,,,,,,,,,,,,,,,,,,,,,,,,,,,,,,,,,,,,,,,,,,,,,,,,,,,,,,,,,,,,,,,,,,,,,,,,,,,,,,,,,,,,,,,,,,,,,,,,,,,,,,,,,,,,,,,,,,,,,,,,,,,,,,,,,
1764669261.348186,27279,1,4410.335449,4415.641113,4532.514648,4563.353027,4437.800781,4543.520508,4559.487305,4421.104492,4598.077148,4414.447754,4509.181641,4539.132324,4588.027832,4404.674316,4390.562012,4510.680664,4557.791016,4543.372559,4516.183594,4401.055176,4409.428223,4576.153809,4535.31543,4507.475586,4393.126465,4594.210938,4407.692383,4576.73584,4522.307617,4418.155762,4522.563965,4520.571777,2477,0,4,0,0,,,,0,4,4,4,4,4,4,4,4,4,4,4,4,4,4,4,4,4,4,4,4,4,4,4,4,4,4,4,4,4,4,4,4,100,,,,,,,,,,,,,,,,,,,,,,,,,,,,,,,,,,,,,,,,,,,,,,,,,,,,,,,,,,,,,,,,,,,,,,,,,,,,,,,,,,,,,,,,,,,,,,,,,,,,,,,,,,,,,,,,,,,,,,,,,,,,,,,,,,,,,,,,,,,,,,,,,,,,,,,,,,,,,,,,,,,,,,,,,,,,,,,,,,,,,,,,,,,,,,,,,,,,,,,,,,,,,,
1764669261.352092,27280,1,4409.280273,4413.461426,4530.177734,4561.90332,4437.455566,4541.992188,4558.205078,4419.151855,4596.282227,4414.14209,4507.869629,4538.432129,4586.972168,4402.889648,4388.925293,4509.960449,4556.824219,4542.524414,4514.842285,4399.45752,4407.879883,4574.487305,4533.915039,4505.986328,4389.181641,4593.353027,4406.410156,4574.931152,4521.025879,4414.920898,4522.179688,4520.838379,2928,0,4,0,0,,,,0,4,4,4,4,4,4,4,4,4,4,4,4,4,4,4,4,4,4,4,4,4,4,4,4,4,4,4,4,4,4,4,4,100,,,,,,,,,,,,,,,,,,,,,,,,,,,,,,,,,,,,,,,,,,,,,,,,,,,,,,,,,,,,,,,,,,,,,,,,,,,,,,,,,,,,,,,,,,,,,,,,,,,,,,,,,,,,,,,,,,,,,,,,,,,,,,,,,,,,,,,,,,,,,,,,,,,,,,,,,,,,,,,,,,,,,,,,,,,,,,,,,,,,,,,,,,,,,,,,,,,,,,,,,,,,,,
1764669261.355998,27281,1,4408.224609,4411.282227,4527.840332,4560.453613,4437.110352,4540.463379,4556.922852,4417.199219,4594.487305,4413.836426,4506.558105,4537.731934,4585.916992,4401.104492,4387.288086,4509.240723,4555.85791,4541.676758,4513.500977,4397.859863,4406.331543,4572.820313,4532.514648,4504.49707,4385.236816,4592.495117,4405.128418,4573.126465,4519.743652,4411.686523,4521.794922,4521.104492,2924,0,4,0,0,,,,0,4,4,4,4,4,4,4,4,4,4,4,4,4,4,4,4,4,4,4,4,4,4,4,4,4,4,4,4,4,4,4,4,100,,,,,,,,,,,,,,,,,,,,,,,,,,,,,,,,,,,,,,,,,,,,,,,,,,,,,,,,,,,,,,,,,,,,,,,,,,,,,,,,,,,,,,,,,,,,,,,,,,,,,,,,,,,,,,,,,,,,,,,,,,,,,,,,,,,,,,,,,,,,,,,,,,,,,,,,,,,,,,,,,,,,,,,,,,,,,,,,,,,,,,,,,,,,,,,,,,,,,,,,,,,,,,
1764669261.359904,27282,1,4407.169434,4409.102539,4525.50293,4559.003906,4436.765137,4538.935059,4555.641113,4415.246582,4592.692383,4413.530762,4505.246582,4537.031738,4584.861816,4399.319336,4385.650879,4508.520508,4554.891602,4540.828613,4512.159668,4396.262207,4404.783203,4571.153809,4531.114258,4503.007813,4381.291992,4591.637207,4403.846191,4571.321289,4518.461426,4408.45166,4521.410156,4521.370605,1809,0,4,0,0,,,,0,4,4,4,4,4,4,4,4,4,4,4,4,4,4,4,4,4,4,4,4,4,4,4,4,4,4,4,4,4,4,4,4,100,,,,,,,,,,,,,,,,,,,,,,,,,,,,,,,,,,,,,,,,,,,,,,,,,,,,,,,,,,,,,,,,,,,,,,,,,,,,,,,,,,,,,,,,,,,,,,,,,,,,,,,,,,,,,,,,,,,,,,,,,,,,,,,,,,,,,,,,,,,,,,,,,,,,,,,,,,,,,,,,,,,,,,,,,,,,,,,,,,,,,,,,,,,,,,,,,,,,,,,,,,,,,,
1764669261.363810,27283,1,4406.114258,4406.922852,4523.165527,4557.554199,4436.419922,4537.40625,4554.358887,4413.293945,4590.897461,4413.224609,4503.935059,4536.331543,4583.806641,4397.534668,4384.013672,4507.800781,4553.925293,4539.980469,4510.818359,4394.664551,4403.234863,4569.487305,4529.713867,4501.518555,4377.347168,4590.779297,4402.563965,4569.516602,4517.179688,4405.216797,4521.025879,4521.637207,2774,0,4,0,0,,,,0,4,4,4,4,4,4,4,4,4,4,4,4,4,4,4,4,4,4,4,4,4,4,4,4,4,4,4,4,4,4,4,4,100,,,,,,,,,,,,,,,,,,,,,,,,,,,,,,,,,,,,,,,,,,,,,,,,,,,,,,,,,,,,,,,,,,,,,,,,,,,,,,,,,,,,,,,,,,,,,,,,,,,,,,,,,,,,,,,,,,,,,,,,,,,,,,,,,,,,,,,,,,,,,,,,,,,,,,,,,,,,,,,,,,,,,,,,,,,,,,,,,,,,,,,,,,,,,,,,,,,,,,,,,,,,,,
1764669261.367716,27284,1,4405.059082,4404.743652,4520.828613,4556.104492,4436.074707,4535.87793,4553.077148,4411.341309,4589.102539,4412.918945,4502.623047,4535.631348,4582.751465,4395.749512,4382.376953,4507.081055,4552.958496,4539.132324,4509.477539,4393.066895,4401.686523,4567.820313,4528.313477,4500.029785,4373.402344,4589.920898,4401.282227,4567.711914,4515.897461,4401.982422,4520.641113,4521.90332,2636,0,4,0,0,,,,0,4,4,4,4,4,4,4,4,4,4,4,4,4,4,4,4,4,4,4,4,4,4,4,4,4,4,4,4,4,4,4,4,100,,,,,,,,,,,,,,,,,,,,,,,,,,,,,,,,,,,,,,,,,,,,,,,,,,,,,,,,,,,,,,,,,,,,,,,,,,,,,,,,,,,,,,,,,,,,,,,,,,,,,,,,,,,,,,,,,,,,,,,,,,,,,,,,,,,,,,,,,,,,,,,,,,,,,,,,,,,,,,,,,,,,,,,,,,,,,,,,,,,,,,,,,,,,,,,,,,,,,,,,,,,,,,
1764669261.371622,27285,1,4404.003906,4402.563965,4518.491211,4554.654785,4435.72998,4534.349121,4551.794922,4409.388672,4587.307617,4412.613281,4501.311523,4534.931152,4581.696289,4393.964355,4380.739746,4506.36084,4551.992188,4538.28418,4508.13623,4391.469238,4400.138184,4566.153809,4526.913086,4498.540527,4369.45752,4589.062988,4400,4565.907227,4514.615234,4398.747559,4520.256348,4522.169434,2845,0,4,0,0,,,,0,4,4,4,4,4,4,4,4,4,4,4,4,4,4,4,4,4,4,4,4,4,4,4,4,4,4,4,4,4,4,4,4,100,,,,,,,,,,,,,,,,,,,,,,,,,,,,,,,,,,,,,,,,,,,,,,,,,,,,,,,,,,,,,,,,,,,,,,,,,,,,,,,,,,,,,,,,,,,,,,,,,,,,,,,,,,,,,,,,,,,,,,,,,,,,,,,,,,,,,,,,,,,,,,,,,,,,,,,,,,,,,,,,,,,,,,,,,,,,,,,,,,,,,,,,,,,,,,,,,,,,,,,,,,,,,,
1764669261.375528,27286,0,4402.94873,4400.384766,4516.153809,4553.205078,4435.384766,4532.820313,4550.512695,4407.436035,4585.512695,4412.307617,4500,4534.230957,4580.641113,4392.179688,4379.102539,4505.641113,4551.025879,4537.436035,4506.794922,4389.871582,4398.589844,4564.487305,4525.512695,4497.05127,4365.512695,4588.205078,4398.717773,4564.102539,4513.333496,4395.512695,4519.871582,4522.436035,2918,0,4,2576,8961,,,,0,4,4,4,4,4,4,4,4,4,4,4,4,4,4,4,4,4,4,4,4,4,4,4,4,4,4,4,4,4,4,4,4,100,,,,,,,,,,,,,,,,,,,,,,,,,,,,,,,,,,,,,,,,,,,,,,,,,,,,,,,,,,,,,,,,,,,,,,,,,,,,,,,,,,,,,,,,,,,,,,,,,,,,,,,,,,,,,,,,,,,,,,,,,,,,,,,,,,,,,,,,,,,,,,,,,,,,,,,,,,,,,,,,,,,,,,,,,,,,,,,,,,,,,,,,,,,,,,,,,,,,,,,,,,,,,,
1764669261.379434,27287,0,4404.615234,4400.769043,4522.563965,4560.641113,4433.589844,4534.615234,4553.205078,4413.077148,4599.358887,4427.307617,4503.205078,4535.769043,4583.461426,4396.794922,4390.512695,4511.153809,4557.94873,4552.179688,4518.077148,4393.846191,4404.743652,4567.179688,4528.974121,4497.307617,4391.794922,4594.230957,4402.436035,4564.102539,4515.897461,4402.94873,4526.794922,4532.05127,2858,0,4,2576,8961,,,,0,4,4,4,4,4,4,4,4,4,4,4,4,4,4,4,4,4,4,4,4,4,4,4,4,4,4,4,4,4,4,4,4,100,,,,,,,,,,,,,,,,,,,,,,,,,,,,,,,,,,,,,,,,,,,,,,,,,,,,,,,,,,,,,,,,,,,,,,,,,,,,,,,,,,,,,,,,,,,,,,,,,,,,,,,,,,,,,,,,,,,,,,,,,,,,,,,,,,,,,,,,,,,,,,,,,,,,,,,,,,,,,,,,,,,,,,,,,,,,,,,,,,,,,,,,,,,,,,,,,,,,,,,,,,,,,,
1764669261.383340,27288,0,4401.922852,4399.358887,4524.230957,4563.589844,4427.179688,4533.077148,4553.205078,4415.641113,4607.820313,4428.461426,4506.153809,4534.743652,4583.077148,4398.717773,4397.05127,4518.461426,4561.025879,4563.974121,4526.922852,4397.820313,4411.282227,4571.794922,4527.820313,4496.794922,4422.05127,4594.102539,4402.05127,4560.769043,4514.871582,4407.179688,4536.666504,4532.94873,2694,0,4,2576,8969,,,,0,4,4,4,4,4,4,4,4,4,4,4,4,4,4,4,4,4,4,4,4,4,4,4,4,4,4,4,4,4,4,4,4,100,,,,,,,,,,,,,,,,,,,,,,,,,,,,,,,,,,,,,,,,,,,,,,,1.974834,0.783836,4.036161,2.084377,2.129063,1.053677,1.112373,5.034619,2.450154,2.493039,1.162051,3.8863,6.161801,4.861417,3.223636,0.673682,1.210513,3.41648,2.333025,2.85346,2.050836,0.866994,4.559259,2.317313,2.364248,1.512632,0.658804,4.065464,2.013428,2.103562,1.390936,1.10442,5.539538,2.871342,2.583079,1.447656,1.014656,5.059449,3.08855,2.44985,0.80093,1.740338,5.597953,2.794467,2.59983,0.711684,3.326819,7.528905,4.62381,5.008884,0.732543,0.668934,2.619954,1.653405,1.851431,1.965527,1.346838,3.415114,2.055123,2.114839,1.094819,1.224393,3.499282,1.945495,1.843967,0.505337,0.690812,1.442046,1.234091,1.561669,0.586596,0.702374,3.019012,1.773492,2.002626,0.71003,0.687768,1.668612,1.092858,0.834493,1.739385,1.900381,4.843412,2.889703,2.323798,2.137755,1.633595,3.592128,2.477688,2.396369,1.541542,1.210232,1.911213,1.480451,1.527086,0.952598,0.867676,2.933224,1.920156,2.134518,1.66502,1.57488,3.552456,2.954984,2.056727,1.184178,1.743758,3.928895,2.660739,2.012686,0.915207,1.096418,3.516685,2.253002,2.223575,1.309007,1.614025,3.449629,2.460089,2.176305,3.516303,3.589431,10.231897,6.52607,6.381705,1.372743,1.329717,3.86235,1.565986,2.241567,1.284268,1.75505,4.155107,1.778732,2.364074,1.225411,1.10526,4.704779,2.539747,2.655851,0.728835,0.492645,2.174225,1.051355,1.162051,0.946368,1.109559,4.770142,2.211658,2.714753,1.368675,3.182326,4.046404,2.631418,3.277903,1.283893,5.845466,6.907467,3.860728,4.554387
1764669261.387246,27289,0,4395.512695,4396.410156,4516.538574,4560.128418,4419.743652,4528.205078,4550.256348,4413.077148,4607.692383,4416.666504,4506.282227,4531.410156,4578.717773,4397.820313,4396.794922,4523.333496,4557.563965,4567.307617,4528.717773,4399.358887,4413.974121,4573.974121,4522.307617,4494.871582,4439.871582,4587.820313,4398.461426,4555.128418,4509.743652,4404.102539,4543.717773,4528.974121,2876,0,4,2576,8969,,,,0,4,4,4,4,4,4,4,4,4,4,4,4,4,4,4,4,4,4,4,4,4,4,4,4,4,4,4,4,4,4,4,4,100,,,,,,,,,,,,,,,,,,,,,,,,,,,,,,,,,,,23206,0,0.659139,-0.300781,-0.292419,0.624146,1.005494,0.039556,0.046392,16,37.166668,-25.166666,,,,,,,,,,,,,,,,,,,,,,,,,,,,,,,,,,,,,,,,,,,,,,,,,,,,,,,,,,,,,,,,,,,,,,,,,,,,,,,,,,,,,,,,,,,,,,,,,,,,,,,,,,,,,,,,,,,,,,,,,,,,,,,,,,,,,,,,,,,,,,,,,,,,,,,,,,,,,,,,
1764669261.391152,27290,0,4387.563965,4391.666504,4502.820313,4551.025879,4411.922852,4521.538574,4544.615234,4405.641113,4600,4401.410156,4501.666504,4525.769043,4572.307617,4395.641113,4391.282227,4522.563965,4549.102539,4561.410156,4523.461426,4397.692383,4411.922852,4572.563965,4515.128418,4492.94873,4438.846191,4579.615234,4393.589844,4550,4502.436035,4394.871582,4542.179688,4522.436035,1803,0,4,2576,8977,,,,0,4,4,4,4,4,4,4,4,4,4,4,4,4,4,4,4,4,4,4,4,4,4,4,4,4,4,4,4,4,4,4,4,100,,,,,,,,,,,,,,,,,,,,,,,,,,,,,,,,,,,,,,,,,,,,,,,,,,,,,,,,,,,,,,,,,,,,,,,,,,,,,,,,,,,,,,,,,,,,,,,,,,,,,,,,,,,,,,,,,,,,,,,,,,,,,,,,,,,,,,,,,,,,,,,,,,,,,,,,,,,,,,,,,,,,,,,,,,,,,,,,,,,,,,,,,,,,,,,,,,,,,,,,,,,,,,
1764669261.395058,27291,0,4380.256348,4385.256348,4490.128418,4538.333496,4402.436035,4514.871582,4536.666504,4395.769043,4588.077148,4391.666504,4492.94873,4518.077148,4566.025879,4393.717773,4384.487305,4515.384766,4539.230957,4550.128418,4515.128418,4392.94873,4406.025879,4569.871582,4509.230957,4492.563965,4422.563965,4573.846191,4389.102539,4546.794922,4496.282227,4383.461426,4531.153809,4512.436035,2433,0,4,2576,8977,,,,0,4,4,4,4,4,4,4,4,4,4,4,4,4,4,4,4,4,4,4,4,4,4,4,4,4,4,4,4,4,4,4,4,100,,,,,,,,,,,,,,,,,,,,,,,,,,,,,,,,,,,,,,,,,,,,,,,,,,,,,,,,,,,,,,,,,,,,,,,,,,,,,,,,,,,,,,,,,,,,,,,,,,,,,,,,,,,,,,,,,,,,,,,,,,,,,,,,,,,,,,,,,,,,,,,,,,,,,,,,,,,,,,,,,,,,,,,,,,,,,,,,,,,,,,,,,,,,,,,,,,,,,,,,,,,,,,
1764669261.398964,27292,0,4375.641113,4379.358887,4484.615234,4526.538574,4393.333496,4510.384766,4528.333496,4387.692383,4577.307617,4391.666504,4484.615234,4510.384766,4562.820313,4393.974121,4381.153809,4505.641113,4532.307617,4539.615234,4509.102539,4388.077148,4399.743652,4569.230957,4507.820313,4494.487305,4400.769043,4572.436035,4385.512695,4546.794922,4494.230957,4375.512695,4516.538574,4499.615234,2608,0,4,2576,8985,,,,0,4,4,4,4,4,4,4,4,4,4,4,4,4,4,4,4,4,4,4,4,4,4,4,4,4,4,4,4,4,4,4,4,100,,,,,,,,,,,,,,,,,,,,,,,,,,,,,,,,,,,,,,,,,,,,,,,,,,,,,,,,,,,,,,,,,,,,,,,,,,,,,,,,,,,,,,,,,,,,,,,,,,,,,,,,,,,,,,,,,,,,,,,,,,,,,,,,,,,,,,,,,,,,,,,,,,,,,,,,,,,,,,,,,,,,,,,,,,,,,,,,,,,,,,,,,,,,,,,,,,,,,,,,,,,,,,
1764669261.402870,27293,0,4375.384766,4378.205078,4488.974121,4522.436035,4390.512695,4510.641113,4523.589844,4386.025879,4573.205078,4401.153809,4483.205078,4506.666504,4564.487305,4398.333496,4384.230957,4500.128418,4531.666504,4535.769043,4508.974121,4386.922852,4396.922852,4572.563965,4511.538574,4498.589844,4386.153809,4575.256348,4383.974121,4550.384766,4497.436035,4375.128418,4507.307617,4488.717773,2467,0,4,2576,8985,,,,0,4,4,4,4,4,4,4,4,4,4,4,4,4,4,4,4,4,4,4,4,4,4,4,4,4,4,4,4,4,4,4,4,100,,,,,,,,,,,,,,,,,,,,,,,,,,,,,,,,,,,23207,0,0.659307,-0.300903,-0.292175,0.624023,1.005982,0.03223,0.0293,16.666666,35.833332,-27.5,,,,,,,,,,,,,,,,,,,,,,,,,,,,,,,,,,,,,,,,,,,,,,,,,,,,,,,,,,,,,,,,,,,,,,,,,,,,,,,,,,,,,,,,,,,,,,,,,,,,,,,,,,,,,,,,,,,,,,,,,,,,,,,,,,,,,,,,,,,,,,,,,,,,,,,,,,,,,,,,
1764669261.406776,27294,0,4379.358887,4383.077148,4501.666504,4530.384766,4397.436035,4515.128418,4525.512695,4392.179688,4577.94873,4415.128418,4491.153809,4508.974121,4570.641113,4406.410156,4392.820313,4502.820313,4536.922852,4540.641113,4514.230957,4390.512695,4398.974121,4577.179688,4517.692383,4502.94873,4386.794922,4579.487305,4384.358887,4556.153809,4503.846191,4381.794922,4508.717773,4486.794922,2736,0,4,2576,8992,,,,0,4,4,4,4,4,4,4,4,4,4,4,4,4,4,4,4,4,4,4,4,4,4,4,4,4,4,4,4,4,4,4,4,100,,,,,,,,,,,,,,,,,,,,,,,,,,,,,,,,,,,,,,,,,,,,,,,,,,,,,,,,,,,,,,,,,,,,,,,,,,,,,,,,,,,,,,,,,,,,,,,,,,,,,,,,,,,,,,,,,,,,,,,,,,,,,,,,,,,,,,,,,,,,,,,,,,,,,,,,,,,,,,,,,,,,,,,,,,,,,,,,,,,,,,,,,,,,,,,,,,,,,,,,,,,,,,
1764669261.410682,27295,0,4383.974121,4390,4517.94873,4547.179688,4409.358887,4519.743652,4532.563965,4401.538574,4587.179688,4424.743652,4503.205078,4514.615234,4577.05127,4413.846191,4401.666504,4510.897461,4543.461426,4549.487305,4520.256348,4395,4402.436035,4577.692383,4520.897461,4504.102539,4401.025879,4581.282227,4384.743652,4559.871582,4508.589844,4390.641113,4517.436035,4495.512695,2735,0,4,2576,8992,,,,0,4,4,4,4,4,4,4,4,4,4,4,4,4,4,4,4,4,4,4,4,4,4,4,4,4,4,4,4,4,4,4,4,100,,,,,,,,,,,,,,,,,,,,,,,,,,,,,,,,,,,,,,,,,,,,,,,,,,,,,,,,,,,,,,,,,,,,,,,,,,,,,,,,,,,,,,,,,,,,,,,,,,,,,,,,,,,,,,,,,,,,,,,,,,,,,,,,,,,,,,,,,,,,,,,,,,,,,,,,,,,,,,,,,,,,,,,,,,,,,,,,,,,,,,,,,,,,,,,,,,,,,,,,,,,,,,
1764669261.414588,27296,0,4384.487305,4392.563965,4530.769043,4562.820313,4415.769043,4518.974121,4538.717773,4406.666504,4593.589844,4422.436035,4509.615234,4517.179688,4578.205078,4414.871582,4403.717773,4517.05127,4545.384766,4554.615234,4522.05127,4395.384766,4402.179688,4571.282227,4516.666504,4499.871582,4417.563965,4577.692383,4382.820313,4557.307617,4508.077148,4395.256348,4524.743652,4507.307617,2799,0,4,2575,9000,,,,0,4,4,4,4,4,4,4,4,4,4,4,4,4,4,4,4,4,4,4,4,4,4,4,4,4,4,4,4,4,4,4,4,100,,,,,,,,,,,,,,,,,,,,,,,,,,,,,,,,,,,,,,,,,,,,,,,,,,,,,,,,,,,,,,,,,,,,,,,,,,,,,,,,,,,,,,,,,,,,,,,,,,,,,,,,,,,,,,,,,,,,,,,,,,,,,,,,,,,,,,,,,,,,,,,,,,,,,,,,,,,,,,,,,,,,,,,,,,,,,,,,,,,,,,,,,,,,,,,,,,,,,,,,,,,,,,
1764669261.418494,27297,0,4379.615234,4388.077148,4533.077148,4567.563965,4410.384766,4511.922852,4537.94873,4403.461426,4592.179688,4408.461426,4504.230957,4512.692383,4571.794922,4407.307617,4396.282227,4515.512695,4540.512695,4551.282227,4518.077148,4389.615234,4396.666504,4560.512695,4506.410156,4491.538574,4422.820313,4570.128418,4378.461426,4548.974121,4502.307617,4393.461426,4523.461426,4509.487305,2905,0,4,2575,9000,,,,0,4,4,4,4,4,4,4,4,4,4,4,4,4,4,4,4,4,4,4,4,4,4,4,4,4,4,4,4,4,4,4,4,100,,,,,,,,,,,,,,,,,,,,,,,,,,,,,,,,,,,23208,0,0.659587,-0.300964,-0.29187,0.62384,1.015749,0.050787,0.0293,16.333334,35.333332,-24.5,,,,,,,,,,,,,,,,,,,,,,,,,,,,,,,,,,,,,,,,,,,,,,,,,,,,,,,,,,,,,,,,,,,,,,,,,,,,,,,,,,,,,,,,,,,,,,,,,,,,,,,,,,,,,,,,,,,,,,,,,,,,,,,,,,,,,,,,,,,,,,,,,,,,,,,,,,,,,,,,
1764669261.422400,27298,0,4372.05127,4379.871582,4522.307617,4559.358887,4397.563965,4503.461426,4530.128418,4394.615234,4583.974121,4390.512695,4490.384766,4503.077148,4561.538574,4395.512695,4383.461426,4507.307617,4531.666504,4541.538574,4511.153809,4380.769043,4388.717773,4551.410156,4496.153809,4484.230957,4411.538574,4562.820313,4373.974121,4539.615234,4495.384766,4388.461426,4514.358887,4495.256348,2678,0,4,2576,9008,,,,0,4,4,4,4,4,4,4,4,4,4,4,4,4,4,4,4,4,4,4,4,4,4,4,4,4,4,4,4,4,4,4,4,100,,,,,,,,,,,,,,,,,,,,,,,,,,,,,,,,,,,,,,,,,,,,,,,,,,,,,,,,,,,,,,,,,,,,,,,,,,,,,,,,,,,,,,,,,,,,,,,,,,,,,,,,,,,,,,,,,,,,,,,,,,,,,,,,,,,,,,,,,,,,,,,,,,,,,,,,,,,,,,,,,,,,,,,,,,,,,,,,,,,,,,,,,,,,,,,,,,,,,,,,,,,,,,
1764669261.426306,27299,0,4366.794922,4373.717773,4503.974121,4545.256348,4388.717773,4499.743652,4521.410156,4387.179688,4575,4379.487305,4478.589844,4495.512695,4554.230957,4386.538574,4373.846191,4499.230957,4525.256348,4532.307617,4505.641113,4374.230957,4383.846191,4549.230957,4492.563965,4482.05127,4389.743652,4560.128418,4372.820313,4535.128418,4492.179688,4385.128418,4504.358887,4471.282227,2839,0,4,2576,9008,,,,0,4,4,4,4,4,4,4,4,4,4,4,4,4,4,4,4,4,4,4,4,4,4,4,4,4,4,4,4,4,4,4,4,100,,,,,,,,,,,,,,,,,,,,,,,,,,,,,,,,,,,,,,,,,,,,,,,,,,,,,,,,,,,,,,,,,,,,,,,,,,,,,,,,,,,,,,,,,,,,,,,,,,,,,,,,,,,,,,,,,,,,,,,,,,,,,,,,,,,,,,,,,,,,,,,,,,,,,,,,,,,,,,,,,,,,,,,,,,,,,,,,,,,,,,,,,,,,,,,,,,,,,,,,,,,,,,
1764669261.430212,27300,0,4366.922852,4373.589844,4488.589844,4535.641113,4391.922852,4502.94873,4518.717773,4386.794922,4571.282227,4381.153809,4477.692383,4495.897461,4554.743652,4385.641113,4374.358887,4498.077148,4525.641113,4529.871582,4504.615234,4373.846191,4385.512695,4554.102539,4497.563965,4485.769043,4371.025879,4562.563965,4376.025879,4537.692383,4494.615234,4386.025879,4500.256348,4453.846191,2734,0,4,2576,9016,,,,0,4,4,4,4,4,4,4,4,4,4,4,4,4,4,4,4,4,4,4,4,4,4,4,4,4,4,4,4,4,4,4,4,100,,,,,,,,,,,,,,,,,,,,,,,,,,,,,,,,,,,,,,,,,,,,,,,,,,,,,,,,,,,,,,,,,,,,,,,,,,,,,,,,,,,,,,,,,,,,,,,,,,,,,,,,,,,,,,,,,,,,,,,,,,,,,,,,,,,,,,,,,,,,,,,,,,,,,,,,,,,,,,,,,,,,,,,,,,,,,,,,,,,,,,,,,,,,,,,,,,,,,,,,,,,,,,
1764669261.434118,27301,0,4371.282227,4378.205078,4483.974121,4535.256348,4404.871582,4509.871582,4523.205078,4392.94873,4574.230957,4394.358887,4487.179688,4504.615234,4561.538574,4392.563965,4384.230957,4505.641113,4532.05127,4535.897461,4508.333496,4379.871582,4393.717773,4561.666504,4506.922852,4492.436035,4366.666504,4566.922852,4381.794922,4545,4500.256348,4389.230957,4504.230957,4456.538574,2822,0,4,2576,9016,,,,0,4,4,4,4,4,4,4,4,4,4,4,4,4,4,4,4,4,4,4,4,4,4,4,4,4,4,4,4,4,4,4,4,100,,,,,,,,,,,,,,,,,,,,,,,,,,,,,,,,,,,23209,0,0.659645,-0.301208,-0.291748,0.623718,1.015749,0.050787,0.0293,15.666667,37.5,-25.5,,,,,,,,,,,,,,,,,,,,,,,,,,,,,,,,,,,,,,,,,,,,,,,,,,,,,,,,,,,,,,,,,,,,,,,,,,,,,,,,,,,,,,,,,,,,,,,,,,,,,,,,,,,,,,,,,,,,,,,,,,,,,,,,,,,,,,,,,,,,,,,,,,,,,,,,,,,,,,,,
