title:Anxiety4, start timestamp:1764669524.353525, stop timestamp:1764669534.384362, headset type:FLEX2, headset serial:F30002B4, headset firmware:2f10, channels:283, sampling rate:eeg_256;mot_64;pow_8, samples:2569      , version:2.2, ,,,,,,,,,,,,,,,,,,,,,,,,,,,,,,,,,,,,,,,,,,,,,,,,,,,,,,,,,,,,,,,,,,,,,,,,,,,,,,,,,,,,,,,,,,,,,,,,,,,,,,,,,,,,,,,,,,,,,,,,,,,,,,,,,,,,,,,,,,,,,,,,,,,,,,,,,,,,,,,,,,,,,,,,,,,,,,,,,,,,,,,,,,,,,,,,,,,,,,,,,,,,,,,,,,,,,,,,,,,,,,,,,,,,,,,,,,,,,,,,,,,,,,,,,,,,,,,,,,,,,,,,,,,,,,,,
Timestamp,EEG.Counter,EEG.Interpolated,EEG.Cz,EEG.Fz,EEG.Fp1,EEG.F7,EEG.F3,EEG.FC1,EEG.C3,EEG.FC5,EEG.FT9,EEG.T7,EEG.CP5,EEG.CP1,EEG.P3,EEG.P7,EEG.PO9,EEG.O1,EEG.Pz,EEG.Oz,EEG.O2,EEG.PO10,EEG.P8,EEG.P4,EEG.CP2,EEG.CP6,EEG.T8,EEG.FT10,EEG.FC6,EEG.C4,EEG.FC2,EEG.F4,EEG.F8,EEG.Fp2,EEG.RawCq,EEG.Battery,EEG.BatteryPercent,EEG.FwBufferSize,EEG.FwClockTime,MarkerIndex,MarkerType,MarkerValueInt,EEG.MarkerHardware,CQ.Cz,CQ.Fz,CQ.Fp1,CQ.F7,CQ.F3,CQ.FC1,CQ.C3,CQ.FC5,CQ.FT9,CQ.T7,CQ.CP5,CQ.CP1,CQ.P3,CQ.P7,CQ.PO9,CQ.O1,CQ.Pz,CQ.Oz,CQ.O2,CQ.PO10,CQ.P8,CQ.P4,CQ.CP2,CQ.CP6,CQ.T8,CQ.FT10,CQ.FC6,CQ.C4,CQ.FC2,CQ.F4,CQ.F8,CQ.Fp2,CQ.Overall,EQ.SampleRateQuality,EQ.OVERALL,EQ.Cz,EQ.Fz,EQ.Fp1,EQ.F7,EQ.F3,EQ.FC1,EQ.C3,EQ.FC5,EQ.FT9,EQ.T7,EQ.CP5,EQ.CP1,EQ.P3,EQ.P7,EQ.PO9,EQ.O1,EQ.Pz,EQ.Oz,EQ.O2,EQ.PO10,EQ.P8,EQ.P4,EQ.CP2,EQ.CP6,EQ.T8,EQ.FT10,EQ.FC6,EQ.C4,EQ.FC2,EQ.F4,EQ.F8,EQ.Fp2,MOT.CounterMems,MOT.InterpolatedMems,MOT.Q0,MOT.Q1,MOT.Q2,MOT.Q3,MOT.AccX,MOT.AccY,MOT.AccZ,MOT.MagX,MOT.MagY,MOT.MagZ,POW.Cz.Theta,POW.Cz.Alpha,POW.Cz.BetaL,POW.Cz.BetaH,POW.Cz.Gamma,POW.Fz.Theta,POW.Fz.Alpha,POW.Fz.BetaL,POW.Fz.BetaH,POW.Fz.Gamma,POW.Fp1.Theta,POW.Fp1.Alpha,POW.Fp1.BetaL,POW.Fp1.BetaH,POW.Fp1.Gamma,POW.F7.Theta,POW.F7.Alpha,POW.F7.BetaL,POW.F7.BetaH,POW.F7.Gamma,POW.F3.Theta,POW.F3.Alpha,POW.F3.BetaL,POW.F3.BetaH,POW.F3.Gamma,POW.FC1.Theta,POW.FC1.Alpha,POW.FC1.BetaL,POW.FC1.BetaH,POW.FC1.Gamma,POW.C3.Theta,POW.C3.Alpha,POW.C3.BetaL,POW.C3.BetaH,POW.C3.Gamma,POW.FC5.Theta,POW.FC5.Alpha,POW.FC5.BetaL,POW.FC5.BetaH,POW.FC5.Gamma,POW.FT9.Theta,POW.FT9.Alpha,POW.FT9.BetaL,POW.FT9.BetaH,POW.FT9.Gamma,POW.T7.Theta,POW.T7.Alpha,POW.T7.BetaL,POW.T7.BetaH,POW.T7.Gamma,POW.CP5.Theta,POW.CP5.Alpha,POW.CP5.BetaL,POW.CP5.BetaH,POW.CP5.Gamma,POW.CP1.Theta,POW.CP1.Alpha,POW.CP1.BetaL,POW.CP1.BetaH,POW.CP1.Gamma,POW.P3.Theta,POW.P3.Alpha,POW.P3.BetaL,POW.P3.BetaH,POW.P3.Gamma,POW.P7.Theta,POW.P7.Alpha,POW.P7.BetaL,POW.P7.BetaH,POW.P7.Gamma,POW.PO9.Theta,POW.PO9.Alpha,POW.PO9.BetaL,POW.PO9.BetaH,POW.PO9.Gamma,POW.O1.Theta,POW.O1.Alpha,POW.O1.BetaL,POW.O1.BetaH,POW.O1.Gamma,POW.Pz.Theta,POW.Pz.Alpha,POW.Pz.BetaL,POW.Pz.BetaH,POW.Pz.Gamma,POW.Oz.Theta,POW.Oz.Alpha,POW.Oz.BetaL,POW.Oz.BetaH,POW.Oz.Gamma,POW.O2.Theta,POW.O2.Alpha,POW.O2.BetaL,POW.O2.BetaH,POW.O2.Gamma,POW.PO10.Theta,POW.PO10.Alpha,POW.PO10.BetaL,POW.PO10.BetaH,POW.PO10.Gamma,POW.P8.Theta,POW.P8.Alpha,POW.P8.BetaL,POW.P8.BetaH,POW.P8.Gamma,POW.P4.Theta,POW.P4.Alpha,POW.P4.BetaL,POW.P4.BetaH,POW.P4.Gamma,POW.CP2.Theta,POW.CP2.Alpha,POW.CP2.BetaL,POW.CP2.BetaH,POW.CP2.Gamma,POW.CP6.Theta,POW.CP6.Alpha,POW.CP6.BetaL,POW.CP6.BetaH,POW.CP6.Gamma,POW.T8.Theta,POW.T8.Alpha,POW.T8.BetaL,POW.T8.BetaH,POW.T8.Gamma,POW.FT10.Theta,POW.FT10.Alpha,POW.FT10.BetaL,POW.FT10.BetaH,POW.FT10.Gamma,POW.FC6.Theta,POW.FC6.Alpha,POW.FC6.BetaL,POW.FC6.BetaH,POW.FC6.Gamma,POW.C4.Theta,POW.C4.Alpha,POW.C4.BetaL,POW.C4.BetaH,POW.C4.Gamma,POW.FC2.Theta,POW.FC2.Alpha,POW.FC2.BetaL,POW.FC2.BetaH,POW.FC2.Gamma,POW.F4.Theta,POW.F4.Alpha,POW.F4.BetaL,POW.F4.BetaH,POW.F4.Gamma,POW.F8.Theta,POW.F8.Alpha,POW.F8.BetaL,POW.F8.BetaH,POW.F8.Gamma,POW.Fp2.Theta,POW.Fp2.Alpha,POW.Fp2.BetaL,POW.Fp2.BetaH,POW.Fp2.Gamma
1764669526.837848,29715,0,4441.538574,4458.077148,4574.487305,4569.230957,4440.769043,4570.641113,4585.256348,4442.692383,4611.025879,4451.282227,4542.179688,4565.897461,4612.05127,4423.077148,4423.589844,4532.436035,4593.077148,4575.897461,4546.538574,4433.461426,4439.230957,4613.077148,4562.820313,4552.179688,4448.461426,4627.563965,4425.384766,4602.94873,4548.717773,4439.487305,4565.384766,4572.05127,2734,0,3,2571,12262,1,1,7,0,4,4,4,4,4,4,4,4,4,4,4,4,4,4,4,4,4,4,4,4,4,4,4,4,4,4,4,4,4,4,4,4,100,,,,,,,,,,,,,,,,,,,,,,,,,,,,,,,,,,,,,,,,,,,,,,,,,,,,,,,,,,,,,,,,,,,,,,,,,,,,,,,,,,,,,,,,,,,,,,,,,,,,,,,,,,,,,,,,,,,,,,,,,,,,,,,,,,,,,,,,,,,,,,,,,,,,,,,,,,,,,,,,,,,,,,,,,,,,,,,,,,,,,,,,,,,,,,,,,,,,,,,,,,,,,,
1764669526.841754,29716,0,4453.205078,4468.333496,4589.487305,4581.410156,4452.436035,4584.358887,4598.461426,4456.153809,4621.794922,4462.692383,4547.05127,4576.666504,4621.025879,4431.666504,4434.743652,4551.025879,4608.589844,4595,4558.461426,4438.589844,4449.743652,4628.333496,4573.077148,4561.794922,4447.436035,4635.512695,4433.461426,4613.846191,4556.410156,4450.256348,4579.102539,4581.794922,2588,0,3,2570,12270,,,,0,4,4,4,4,4,4,4,4,4,4,4,4,4,4,4,4,4,4,4,4,4,4,4,4,4,4,4,4,4,4,4,4,100,,,,,,,,,,,,,,,,,,,,,,,,,,,,,,,,,,,,,,,,,,,,,,,,,,,,,,,,,,,,,,,,,,,,,,,,,,,,,,,,,,,,,,,,,,,,,,,,,,,,,,,,,,,,,,,,,,,,,,,,,,,,,,,,,,,,,,,,,,,,,,,,,,,,,,,,,,,,,,,,,,,,,,,,,,,,,,,,,,,,,,,,,,,,,,,,,,,,,,,,,,,,,,
1764669526.845660,29717,0,4454.358887,4465.769043,4590.384766,4581.794922,4456.282227,4587.436035,4600.897461,4458.974121,4623.077148,4463.589844,4545.256348,4576.794922,4622.820313,4434.358887,4443.717773,4569.487305,4616.282227,4611.410156,4564.743652,4432.436035,4449.102539,4636.538574,4574.358887,4562.94873,4433.974121,4628.846191,4433.205078,4615.384766,4555.769043,4449.487305,4577.94873,4578.333496,2813,0,3,2570,12270,,,,0,4,4,4,4,4,4,4,4,4,4,4,4,4,4,4,4,4,4,4,4,4,4,4,4,4,4,4,4,4,4,4,4,100,,,,,,,,,,,,,,,,,,,,,,,,,,,,,,,,,,,40197,0,0.472713,-0.402161,-0.24115,0.746094,0.901477,-0.428763,0.037114,0.5,38.833332,-24.333334,,,,,,,,,,,,,,,,,,,,,,,,,,,,,,,,,,,,,,,,,,,,,,,,,,,,,,,,,,,,,,,,,,,,,,,,,,,,,,,,,,,,,,,,,,,,,,,,,,,,,,,,,,,,,,,,,,,,,,,,,,,,,,,,,,,,,,,,,,,,,,,,,,,,,,,,,,,,,,,,
1764669526.849566,29718,0,4444.358887,4451.025879,4575.769043,4569.487305,4449.230957,4577.436035,4589.743652,4448.077148,4612.692383,4452.307617,4535.128418,4565,4614.871582,4429.358887,4443.205078,4576.410156,4610.512695,4613.333496,4559.743652,4418.461426,4436.153809,4633.205078,4565.512695,4553.974121,4416.538574,4611.282227,4423.589844,4606.794922,4547.179688,4437.307617,4561.666504,4562.563965,2920,0,3,2564,12278,,,,0,4,4,4,4,4,4,4,4,4,4,4,4,4,4,4,4,4,4,4,4,4,4,4,4,4,4,4,4,4,4,4,4,100,,,,,,,,,,,,,,,,,,,,,,,,,,,,,,,,,,,,,,,,,,,,,,,,,,,,,,,,,,,,,,,,,,,,,,,,,,,,,,,,,,,,,,,,,,,,,,,,,,,,,,,,,,,,,,,,,,,,,,,,,,,,,,,,,,,,,,,,,,,,,,,,,,,,,,,,,,,,,,,,,,,,,,,,,,,,,,,,,,,,,,,,,,,,,,,,,,,,,,,,,,,,,,
1764669526.853472,29719,0,4429.615234,4432.436035,4554.615234,4551.666504,4435.384766,4560,4571.794922,4429.615234,4596.666504,4434.358887,4520.769043,4548.077148,4601.153809,4419.615234,4431.282227,4566.794922,4594.102539,4597.307617,4545.256348,4405.641113,4418.717773,4621.410156,4552.692383,4540.256348,4405.769043,4593.333496,4410.641113,4593.589844,4536.666504,4421.538574,4540.256348,4543.589844,2835,0,3,2564,12278,,,,0,4,4,4,4,4,4,4,4,4,4,4,4,4,4,4,4,4,4,4,4,4,4,4,4,4,4,4,4,4,4,4,4,100,,,,,,,,,,,,,,,,,,,,,,,,,,,,,,,,,,,,,,,,,,,,,,,,,,,,,,,,,,,,,,,,,,,,,,,,,,,,,,,,,,,,,,,,,,,,,,,,,,,,,,,,,,,,,,,,,,,,,,,,,,,,,,,,,,,,,,,,,,,,,,,,,,,,,,,,,,,,,,,,,,,,,,,,,,,,,,,,,,,,,,,,,,,,,,,,,,,,,,,,,,,,,,
1764669526.857378,29720,0,4418.846191,4419.230957,4539.871582,4538.205078,4422.94873,4545,4557.820313,4414.358887,4583.846191,4418.846191,4508.974121,4534.871582,4588.461426,4410.256348,4412.820313,4544.743652,4576.025879,4570,4528.205078,4401.153809,4406.410156,4607.179688,4543.717773,4528.717773,4406.410156,4585,4401.794922,4583.205078,4530.256348,4411.025879,4527.179688,4531.282227,2715,0,3,2565,12286,,,,0,4,4,4,4,4,4,4,4,4,4,4,4,4,4,4,4,4,4,4,4,4,4,4,4,4,4,4,4,4,4,4,4,100,,,,,,,,,,,,,,,,,,,,,,,,,,,,,,,,,,,,,,,,,,,,,,,3.02729,3.174551,1.845011,0.882906,0.674957,2.593379,2.728513,1.735914,1.059609,0.840522,6.201432,3.263047,2.746523,0.956456,1.026822,1.740003,3.445032,1.645071,1.040845,0.697079,2.674805,3.355307,1.506394,1.200707,0.680678,1.889022,3.124584,1.485951,0.994862,0.660104,1.318188,2.662213,1.030558,1.073888,0.64287,1.078115,3.584018,1.566543,1.016576,0.703881,0.88115,1.867875,1.047279,0.881901,0.917857,1.115919,1.923094,0.605877,1.832205,1.380611,1.420515,1.748897,0.573704,0.814259,0.539895,1.405712,2.034714,1.703238,1.106199,0.853675,0.979224,1.028191,0.774662,1.028829,0.876063,0.496752,0.442143,1.173059,0.880177,0.661713,0.987198,1.600146,1.269254,1.307415,1.333701,0.984314,2.203064,1.773568,2.009495,1.658798,1.984408,1.929132,1.58276,1.294482,0.929984,1.538213,1.830076,1.785124,2.370313,2.170963,0.627576,1.020322,1.074505,1.600714,1.414292,0.738974,2.804592,1.138684,1.028667,0.744225,0.909275,4.203641,2.508813,1.663136,1.134141,1.61607,2.240644,1.872696,1.804838,1.17865,2.23372,2.648325,1.67548,1.312388,0.763563,1.562259,3.698457,1.887631,1.779215,0.957543,1.812519,6.533883,7.461459,4.191214,3.723172,2.128766,3.415041,1.858354,1.270705,0.624846,1.533176,3.71,2.141771,1.591809,0.767917,1.953178,3.314452,1.953989,1.378074,0.762445,1.473146,1.345853,0.878458,0.512937,0.358067,1.640186,2.420191,1.937098,1.497845,0.836763,1.910819,5.206793,2.657533,1.54977,0.908923,4.375017,4.178313,2.293524,1.155794,0.760176
1764669526.861284,29721,0,4415.641113,4416.282227,4538.205078,4535.128418,4417.820313,4538.461426,4554.358887,4409.871582,4580.128418,4412.436035,4504.230957,4530.641113,4581.666504,4405.256348,4396.410156,4521.153809,4563.974121,4543.974121,4515.769043,4404.871582,4403.974121,4595.897461,4541.410156,4522.820313,4413.461426,4588.333496,4400.769043,4579.487305,4529.487305,4409.743652,4528.974121,4529.487305,2876,0,3,2565,12286,,,,0,4,4,4,4,4,4,4,4,4,4,4,4,4,4,4,4,4,4,4,4,4,4,4,4,4,4,4,4,4,4,4,4,100,,,,,,,,,,,,,,,,,,,,,,,,,,,,,,,,,,,40198,0,0.472275,-0.401855,-0.24176,0.746338,0.916616,-0.434135,0.025394,0.5,39.5,-21.833334,,,,,,,,,,,,,,,,,,,,,,,,,,,,,,,,,,,,,,,,,,,,,,,,,,,,,,,,,,,,,,,,,,,,,,,,,,,,,,,,,,,,,,,,,,,,,,,,,,,,,,,,,,,,,,,,,,,,,,,,,,,,,,,,,,,,,,,,,,,,,,,,,,,,,,,,,,,,,,,,
1764669526.865190,29722,0,4417.820313,4421.282227,4547.05127,4541.794922,4420.897461,4540.512695,4559.358887,4415.897461,4585.256348,4415,4505.897461,4533.974121,4581.410156,4405.256348,4388.333496,4506.794922,4561.410156,4530.769043,4512.179688,4411.794922,4409.230957,4590,4543.846191,4522.05127,4417.94873,4597.94873,4406.025879,4581.666504,4532.05127,4414.871582,4541.538574,4534.871582,1817,0,3,2566,12294,,,,0,4,4,4,4,4,4,4,4,4,4,4,4,4,4,4,4,4,4,4,4,4,4,4,4,4,4,4,4,4,4,4,4,100,,,,,,,,,,,,,,,,,,,,,,,,,,,,,,,,,,,,,,,,,,,,,,,,,,,,,,,,,,,,,,,,,,,,,,,,,,,,,,,,,,,,,,,,,,,,,,,,,,,,,,,,,,,,,,,,,,,,,,,,,,,,,,,,,,,,,,,,,,,,,,,,,,,,,,,,,,,,,,,,,,,,,,,,,,,,,,,,,,,,,,,,,,,,,,,,,,,,,,,,,,,,,,
1764669526.869096,29723,0,4420.512695,4428.717773,4557.692383,4552.179688,4428.205078,4546.794922,4566.025879,4426.538574,4593.846191,4420.769043,4510.512695,4540,4585.256348,4408.589844,4389.871582,4506.666504,4566.410156,4534.615234,4517.05127,4416.025879,4416.282227,4590.256348,4547.307617,4524.615234,4415.384766,4606.153809,4412.563965,4586.410156,4534.743652,4421.153809,4554.358887,4541.410156,2442,0,3,2566,12294,,,,0,4,4,4,4,4,4,4,4,4,4,4,4,4,4,4,4,4,4,4,4,4,4,4,4,4,4,4,4,4,4,4,4,100,,,,,,,,,,,,,,,,,,,,,,,,,,,,,,,,,,,,,,,,,,,,,,,,,,,,,,,,,,,,,,,,,,,,,,,,,,,,,,,,,,,,,,,,,,,,,,,,,,,,,,,,,,,,,,,,,,,,,,,,,,,,,,,,,,,,,,,,,,,,,,,,,,,,,,,,,,,,,,,,,,,,,,,,,,,,,,,,,,,,,,,,,,,,,,,,,,,,,,,,,,,,,,
1764669526.873002,29724,0,4420.897461,4433.589844,4562.820313,4559.615234,4434.230957,4552.436035,4569.102539,4434.487305,4600.384766,4424.487305,4514.358887,4545,4590.256348,4412.563965,4396.794922,4517.94873,4575,4550.512695,4526.153809,4415.897461,4420.641113,4595.384766,4549.615234,4528.974121,4409.487305,4608.589844,4416.025879,4590.769043,4536.025879,4424.743652,4559.487305,4544.358887,2661,0,3,2567,12301,,,,0,4,4,4,4,4,4,4,4,4,4,4,4,4,4,4,4,4,4,4,4,4,4,4,4,4,4,4,4,4,4,4,4,100,,,,,,,,,,,,,,,,,,,,,,,,,,,,,,,,,,,,,,,,,,,,,,,,,,,,,,,,,,,,,,,,,,,,,,,,,,,,,,,,,,,,,,,,,,,,,,,,,,,,,,,,,,,,,,,,,,,,,,,,,,,,,,,,,,,,,,,,,,,,,,,,,,,,,,,,,,,,,,,,,,,,,,,,,,,,,,,,,,,,,,,,,,,,,,,,,,,,,,,,,,,,,,
1764669526.876908,29725,0,4418.717773,4433.717773,4559.871582,4560.769043,4434.615234,4554.487305,4567.179688,4435.512695,4602.307617,4424.615234,4516.153809,4547.05127,4594.230957,4415.384766,4402.820313,4531.410156,4582.05127,4567.179688,4533.974121,4413.846191,4421.410156,4601.922852,4550.384766,4533.846191,4407.307617,4606.025879,4414.743652,4591.794922,4535.512695,4424.358887,4554.871582,4542.820313,2475,0,3,2567,12301,,,,0,4,4,4,4,4,4,4,4,4,4,4,4,4,4,4,4,4,4,4,4,4,4,4,4,4,4,4,4,4,4,4,4,100,,,,,,,,,,,,,,,,,,,,,,,,,,,,,,,,,,,40199,0,0.47174,-0.401733,-0.242065,0.746643,0.909291,-0.425345,0.030765,2,39.333332,-23.333334,,,,,,,,,,,,,,,,,,,,,,,,,,,,,,,,,,,,,,,,,,,,,,,,,,,,,,,,,,,,,,,,,,,,,,,,,,,,,,,,,,,,,,,,,,,,,,,,,,,,,,,,,,,,,,,,,,,,,,,,,,,,,,,,,,,,,,,,,,,,,,,,,,,,,,,,,,,,,,,,
1764669526.880814,29726,0,4415.384766,4429.102539,4550.897461,4556.025879,4428.974121,4552.436035,4561.794922,4429.743652,4600.128418,4422.179688,4516.153809,4546.025879,4595.897461,4415.641113,4404.102539,4537.692383,4583.717773,4574.487305,4536.538574,4412.692383,4420.641113,4604.743652,4548.974121,4536.282227,4412.179688,4600.641113,4409.487305,4587.94873,4533.846191,4420.128418,4544.358887,4537.436035,2728,0,3,2568,12309,,,,0,4,4,4,4,4,4,4,4,4,4,4,4,4,4,4,4,4,4,4,4,4,4,4,4,4,4,4,4,4,4,4,4,100,,,,,,,,,,,,,,,,,,,,,,,,,,,,,,,,,,,,,,,,,,,,,,,,,,,,,,,,,,,,,,,,,,,,,,,,,,,,,,,,,,,,,,,,,,,,,,,,,,,,,,,,,,,,,,,,,,,,,,,,,,,,,,,,,,,,,,,,,,,,,,,,,,,,,,,,,,,,,,,,,,,,,,,,,,,,,,,,,,,,,,,,,,,,,,,,,,,,,,,,,,,,,,
1764669526.884720,29727,0,4412.05127,4421.025879,4539.615234,4548.461426,4420.128418,4547.436035,4555.897461,4420.256348,4596.025879,4417.692383,4515,4541.922852,4595.384766,4413.461426,4401.538574,4534.230957,4579.102539,4570.384766,4534.487305,4413.717773,4420.641113,4601.025879,4545.128418,4533.846191,4419.743652,4594.743652,4402.436035,4578.717773,4530.769043,4412.94873,4533.589844,4529.487305,2721,0,3,2568,12309,,,,0,4,4,4,4,4,4,4,4,4,4,4,4,4,4,4,4,4,4,4,4,4,4,4,4,4,4,4,4,4,4,4,4,100,,,,,,,,,,,,,,,,,,,,,,,,,,,,,,,,,,,,,,,,,,,,,,,,,,,,,,,,,,,,,,,,,,,,,,,,,,,,,,,,,,,,,,,,,,,,,,,,,,,,,,,,,,,,,,,,,,,,,,,,,,,,,,,,,,,,,,,,,,,,,,,,,,,,,,,,,,,,,,,,,,,,,,,,,,,,,,,,,,,,,,,,,,,,,,,,,,,,,,,,,,,,,,
1764669526.888626,29728,0,4409.230957,4411.922852,4529.615234,4541.410156,4412.436035,4541.153809,4551.794922,4410.897461,4591.794922,4411.282227,4513.461426,4535.769043,4593.717773,4409.743652,4399.358887,4526.025879,4570.769043,4561.153809,4531.282227,4414.871582,4421.282227,4592.563965,4539.743652,4526.153809,4422.692383,4588.974121,4395.769043,4567.436035,4526.410156,4404.102539,4526.666504,4520.769043,2811,0,3,2569,12317,,,,0,4,4,4,4,4,4,4,4,4,4,4,4,4,4,4,4,4,4,4,4,4,4,4,4,4,4,4,4,4,4,4,4,100,,,,,,,,,,,,,,,,,,,,,,,,,,,,,,,,,,,,,,,,,,,,,,,,,,,,,,,,,,,,,,,,,,,,,,,,,,,,,,,,,,,,,,,,,,,,,,,,,,,,,,,,,,,,,,,,,,,,,,,,,,,,,,,,,,,,,,,,,,,,,,,,,,,,,,,,,,,,,,,,,,,,,,,,,,,,,,,,,,,,,,,,,,,,,,,,,,,,,,,,,,,,,,
1764669526.892532,29729,0,4406.794922,4404.358887,4522.820313,4537.05127,4408.333496,4536.025879,4550,4404.615234,4588.077148,4403.846191,4512.05127,4529.358887,4591.666504,4406.410156,4401.025879,4521.538574,4563.205078,4555.769043,4529.743652,4413.717773,4420.384766,4584.487305,4534.871582,4516.538574,4418.717773,4583.461426,4390.769043,4558.846191,4521.922852,4395.769043,4524.102539,4512.94873,2900,0,3,2569,12317,,,,0,4,4,4,4,4,4,4,4,4,4,4,4,4,4,4,4,4,4,4,4,4,4,4,4,4,4,4,4,4,4,4,4,100,,,,,,,,,,,,,,,,,,,,,,,,,,,,,,,,,,,40200,0,0.471173,-0.401611,-0.242432,0.746948,0.890734,-0.453669,0.015139,0,39.333332,-23.666666,,,,,,,,,,,,,,,,,,,,,,,,,,,,,,,,,,,,,,,,,,,,,,,,,,,,,,,,,,,,,,,,,,,,,,,,,,,,,,,,,,,,,,,,,,,,,,,,,,,,,,,,,,,,,,,,,,,,,,,,,,,,,,,,,,,,,,,,,,,,,,,,,,,,,,,,,,,,,,,,
1764669526.896438,29730,0,4405,4400.512695,4519.743652,4535.641113,4407.563965,4533.333496,4549.743652,4402.436035,4585,4397.692383,4511.025879,4525,4589.358887,4405.128418,4406.282227,4525,4559.871582,4557.692383,4529.743652,4409.230957,4415.128418,4581.410156,4532.820313,4509.358887,4411.922852,4578.461426,4386.922852,4556.794922,4518.589844,4390.256348,4523.205078,4507.563965,2694,0,3,2570,12325,,,,0,4,4,4,4,4,4,4,4,4,4,4,4,4,4,4,4,4,4,4,4,4,4,4,4,4,4,4,4,4,4,4,4,100,,,,,,,,,,,,,,,,,,,,,,,,,,,,,,,,,,,,,,,,,,,,,,,,,,,,,,,,,,,,,,,,,,,,,,,,,,,,,,,,,,,,,,,,,,,,,,,,,,,,,,,,,,,,,,,,,,,,,,,,,,,,,,,,,,,,,,,,,,,,,,,,,,,,,,,,,,,,,,,,,,,,,,,,,,,,,,,,,,,,,,,,,,,,,,,,,,,,,,,,,,,,,,
1764669526.900344,29731,0,4403.974121,4401.025879,4519.615234,4536.282227,4407.307617,4532.94873,4549.743652,4403.717773,4583.077148,4393.974121,4510.256348,4524.102539,4586.666504,4405.769043,4411.025879,4533.461426,4560.897461,4562.820313,4528.846191,4402.94873,4405.641113,4584.102539,4533.846191,4507.692383,4406.922852,4575.128418,4383.077148,4560.256348,4517.820313,4388.974121,4521.153809,4504.487305,2842,0,3,2570,12325,,,,0,4,4,4,4,4,4,4,4,4,4,4,4,4,4,4,4,4,4,4,4,4,4,4,4,4,4,4,4,4,4,4,4,100,,,,,,,,,,,,,,,,,,,,,,,,,,,,,,,,,,,,,,,,,,,,,,,,,,,,,,,,,,,,,,,,,,,,,,,,,,,,,,,,,,,,,,,,,,,,,,,,,,,,,,,,,,,,,,,,,,,,,,,,,,,,,,,,,,,,,,,,,,,,,,,,,,,,,,,,,,,,,,,,,,,,,,,,,,,,,,,,,,,,,,,,,,,,,,,,,,,,,,,,,,,,,,
1764669526.904250,29732,0,4403.589844,4404.230957,4520.769043,4537.05127,4405.256348,4533.077148,4549.102539,4406.025879,4582.94873,4391.922852,4509.230957,4525.769043,4582.692383,4406.538574,4411.025879,4539.102539,4562.94873,4563.974121,4525,4396.922852,4395,4588.077148,4535.256348,4509.871582,4402.692383,4573.717773,4378.589844,4564.743652,4519.358887,4391.025879,4517.436035,4502.692383,2740,0,3,2571,12333,,,,0,4,4,4,4,4,4,4,4,4,4,4,4,4,4,4,4,4,4,4,4,4,4,4,4,4,4,4,4,4,4,4,4,100,,,,,,,,,,,,,,,,,,,,,,,,,,,,,,,,,,,,,,,,,,,,,,,,,,,,,,,,,,,,,,,,,,,,,,,,,,,,,,,,,,,,,,,,,,,,,,,,,,,,,,,,,,,,,,,,,,,,,,,,,,,,,,,,,,,,,,,,,,,,,,,,,,,,,,,,,,,,,,,,,,,,,,,,,,,,,,,,,,,,,,,,,,,,,,,,,,,,,,,,,,,,,,
1764669526.908156,29733,0,4402.563965,4406.538574,4520.897461,4536.153809,4400,4530.897461,4547.05127,4406.410156,4583.717773,4389.102539,4507.307617,4526.410156,4577.307617,4404.743652,4405.769043,4536.282227,4561.666504,4557.436035,4518.589844,4392.436035,4386.922852,4586.794922,4533.077148,4510.384766,4393.589844,4573.077148,4373.974121,4564.230957,4521.025879,4393.461426,4512.179688,4500.384766,2824,0,3,2571,12333,,,,0,4,4,4,4,4,4,4,4,4,4,4,4,4,4,4,4,4,4,4,4,4,4,4,4,4,4,4,4,4,4,4,4,100,,,,,,,,,,,,,,,,,,,,,,,,,,,,,,,,,,,40201,0,0.470902,-0.401367,-0.242798,0.747131,0.895617,-0.439018,0.021975,1.833333,38.833332,-23.5,,,,,,,,,,,,,,,,,,,,,,,,,,,,,,,,,,,,,,,,,,,,,,,,,,,,,,,,,,,,,,,,,,,,,,,,,,,,,,,,,,,,,,,,,,,,,,,,,,,,,,,,,,,,,,,,,,,,,,,,,,,,,,,,,,,,,,,,,,,,,,,,,,,,,,,,,,,,,,,,
1764669526.912062,29734,0,4399.487305,4404.743652,4518.205078,4533.333496,4392.692383,4525.384766,4543.589844,4403.205078,4583.077148,4384.487305,4504.358887,4522.94873,4571.153809,4400.641113,4399.358887,4526.794922,4554.615234,4546.538574,4512.307617,4389.615234,4382.94873,4576.538574,4525.512695,4504.230957,4376.794922,4570.897461,4370.384766,4556.153809,4520.384766,4393.205078,4506.282227,4496.538574,2802,0,3,2572,12341,,,,0,4,4,4,4,4,4,4,4,4,4,4,4,4,4,4,4,4,4,4,4,4,4,4,4,4,4,4,4,4,4,4,4,100,,,,,,,,,,,,,,,,,,,,,,,,,,,,,,,,,,,,,,,,,,,,,,,,,,,,,,,,,,,,,,,,,,,,,,,,,,,,,,,,,,,,,,,,,,,,,,,,,,,,,,,,,,,,,,,,,,,,,,,,,,,,,,,,,,,,,,,,,,,,,,,,,,,,,,,,,,,,,,,,,,,,,,,,,,,,,,,,,,,,,,,,,,,,,,,,,,,,,,,,,,,,,,
1764669526.915968,29735,0,4394.743652,4399.615234,4512.436035,4530.384766,4387.820313,4518.846191,4540,4398.589844,4580.769043,4381.153809,4502.179688,4516.153809,4567.692383,4397.94873,4398.717773,4520,4545.128418,4539.487305,4509.615234,4389.230957,4383.205078,4561.922852,4515.256348,4492.05127,4358.974121,4566.666504,4368.846191,4544.102539,4517.179688,4389.615234,4501.025879,4492.307617,2972,0,3,2572,12341,,,,0,4,4,4,4,4,4,4,4,4,4,4,4,4,4,4,4,4,4,4,4,4,4,4,4,4,4,4,4,4,4,4,4,100,,,,,,,,,,,,,,,,,,,,,,,,,,,,,,,,,,,,,,,,,,,,,,,,,,,,,,,,,,,,,,,,,,,,,,,,,,,,,,,,,,,,,,,,,,,,,,,,,,,,,,,,,,,,,,,,,,,,,,,,,,,,,,,,,,,,,,,,,,,,,,,,,,,,,,,,,,,,,,,,,,,,,,,,,,,,,,,,,,,,,,,,,,,,,,,,,,,,,,,,,,,,,,
1764669526.919874,29736,0,4392.05127,4396.025879,4507.05127,4530.256348,4390.769043,4515.769043,4539.871582,4397.94873,4578.974121,4384.358887,4503.461426,4510.897461,4570.128418,4401.153809,4407.692383,4524.102539,4539.615234,4543.333496,4513.077148,4392.692383,4387.307617,4552.820313,4509.102539,4481.794922,4352.692383,4562.94873,4371.282227,4536.666504,4513.974121,4386.282227,4498.461426,4491.025879,2892,0,3,2573,12348,,,,0,4,4,4,4,4,4,4,4,4,4,4,4,4,4,4,4,4,4,4,4,4,4,4,4,4,4,4,4,4,4,4,4,100,,,,,,,,,,,,,,,,,,,,,,,,,,,,,,,,,,,,,,,,,,,,,,,,,,,,,,,,,,,,,,,,,,,,,,,,,,,,,,,,,,,,,,,,,,,,,,,,,,,,,,,,,,,,,,,,,,,,,,,,,,,,,,,,,,,,,,,,,,,,,,,,,,,,,,,,,,,,,,,,,,,,,,,,,,,,,,,,,,,,,,,,,,,,,,,,,,,,,,,,,,,,,,
1764669526.923781,29737,0,4395,4399.102539,4505.897461,4535.128418,4402.307617,4520,4546.025879,4404.871582,4580.897461,4396.410156,4509.230957,4512.436035,4578.717773,4411.025879,4422.820313,4538.333496,4543.205078,4557.563965,4522.692383,4399.743652,4395.256348,4556.538574,4512.307617,4481.410156,4365.256348,4563.461426,4378.077148,4540.256348,4514.871582,4387.563965,4500.641113,4494.743652,2785,0,3,2573,12348,,,,0,4,4,4,4,4,4,4,4,4,4,4,4,4,4,4,4,4,4,4,4,4,4,4,4,4,4,4,4,4,4,4,4,100,,,,,,,,,,,,,,,,,,,,,,,,,,,,,,,,,,,40202,0,0.470463,-0.401245,-0.243286,0.747314,0.900012,-0.433158,0.010255,0.166667,38.833332,-23,,,,,,,,,,,,,,,,,,,,,,,,,,,,,,,,,,,,,,,,,,,,,,,,,,,,,,,,,,,,,,,,,,,,,,,,,,,,,,,,,,,,,,,,,,,,,,,,,,,,,,,,,,,,,,,,,,,,,,,,,,,,,,,,,,,,,,,,,,,,,,,,,,,,,,,,,,,,,,,,
1764669526.927687,29738,0,4403.717773,4408.717773,4510.641113,4544.615234,4417.05127,4530.641113,4557.05127,4417.692383,4586.410156,4413.077148,4517.436035,4521.282227,4590,4422.692383,4434.102539,4552.307617,4554.871582,4574.102539,4535.128418,4407.436035,4405.769043,4571.538574,4524.230957,4492.820313,4390.769043,4570.384766,4387.179688,4553.461426,4520.769043,4395.384766,4507.692383,4502.307617,2507,0,3,2569,12356,,,,0,4,4,4,4,4,4,4,4,4,4,4,4,4,4,4,4,4,4,4,4,4,4,4,4,4,4,4,4,4,4,4,4,100,,,,,,,,,,,,,,,,,,,,,,,,,,,,,,,,,,,,,,,,,,,,,,,,,,,,,,,,,,,,,,,,,,,,,,,,,,,,,,,,,,,,,,,,,,,,,,,,,,,,,,,,,,,,,,,,,,,,,,,,,,,,,,,,,,,,,,,,,,,,,,,,,,,,,,,,,,,,,,,,,,,,,,,,,,,,,,,,,,,,,,,,,,,,,,,,,,,,,,,,,,,,,,
1764669526.931593,29739,0,4414.615234,4420.512695,4518.974121,4554.743652,4427.563965,4542.692383,4567.436035,4429.615234,4592.820313,4426.922852,4523.717773,4532.563965,4598.333496,4428.846191,4432.692383,4554.615234,4567.563965,4582.436035,4544.615234,4411.922852,4415.769043,4588.077148,4538.077148,4508.974121,4414.487305,4581.794922,4395.128418,4568.589844,4528.974121,4407.05127,4518.077148,4510.512695,2713,0,3,2569,12356,,,,0,4,4,4,4,4,4,4,4,4,4,4,4,4,4,4,4,4,4,4,4,4,4,4,4,4,4,4,4,4,4,4,4,100,,,,,,,,,,,,,,,,,,,,,,,,,,,,,,,,,,,,,,,,,,,,,,,,,,,,,,,,,,,,,,,,,,,,,,,,,,,,,,,,,,,,,,,,,,,,,,,,,,,,,,,,,,,,,,,,,,,,,,,,,,,,,,,,,,,,,,,,,,,,,,,,,,,,,,,,,,,,,,,,,,,,,,,,,,,,,,,,,,,,,,,,,,,,,,,,,,,,,,,,,,,,,,
1764669526.935499,29740,0,4423.077148,4428.974121,4527.563965,4561.410156,4430.641113,4550.897461,4572.179688,4435.512695,4596.922852,4434.230957,4525.256348,4540.512695,4600.769043,4426.025879,4418.717773,4542.436035,4575,4577.307617,4545.897461,4411.282227,4421.922852,4596.794922,4546.410156,4521.282227,4425.897461,4593.974121,4399.615234,4577.94873,4535.128418,4418.205078,4530,4517.436035,2458,0,3,2565,12364,,,,0,4,4,4,4,4,4,4,4,4,4,4,4,4,4,4,4,4,4,4,4,4,4,4,4,4,4,4,4,4,4,4,4,100,,,,,,,,,,,,,,,,,,,,,,,,,,,,,,,,,,,,,,,,,,,,,,,,,,,,,,,,,,,,,,,,,,,,,,,,,,,,,,,,,,,,,,,,,,,,,,,,,,,,,,,,,,,,,,,,,,,,,,,,,,,,,,,,,,,,,,,,,,,,,,,,,,,,,,,,,,,,,,,,,,,,,,,,,,,,,,,,,,,,,,,,,,,,,,,,,,,,,,,,,,,,,,
1764669526.939405,29741,0,4427.820313,4432.94873,4535,4564.102539,4429.615234,4554.102539,4571.282227,4435.256348,4598.461426,4437.179688,4522.692383,4543.205078,4598.461426,4418.077148,4401.666504,4523.974121,4575.512695,4562.563965,4538.461426,4408.205078,4423.461426,4596.282227,4547.436035,4526.282227,4426.666504,4603.846191,4402.436035,4580.641113,4537.179688,4426.410156,4542.179688,4523.717773,2230,0,3,2565,12364,,,,0,4,4,4,4,4,4,4,4,4,4,4,4,4,4,4,4,4,4,4,4,4,4,4,4,4,4,4,4,4,4,4,4,100,,,,,,,,,,,,,,,,,,,,,,,,,,,,,,,,,,,40203,0,0.470152,-0.401123,-0.243713,0.747437,0.900012,-0.433158,0.010255,2.166667,38,-21.833334,,,,,,,,,,,,,,,,,,,,,,,,,,,,,,,,,,,,,,,,,,,,,,,,,,,,,,,,,,,,,,,,,,,,,,,,,,,,,,,,,,,,,,,,,,,,,,,,,,,,,,,,,,,,,,,,,,,,,,,,,,,,,,,,,,,,,,,,,,,,,,,,,,,,,,,,,,,,,,,,
1764669526.943311,29742,0,4430.512695,4435,4542.307617,4565.641113,4430.128418,4555.128418,4569.358887,4433.205078,4599.615234,4439.487305,4519.871582,4542.307617,4596.025879,4412.820313,4393.717773,4512.436035,4573.974121,4549.871582,4527.94873,4407.820313,4422.436035,4593.077148,4545.641113,4527.820313,4425.512695,4610.384766,4407.436035,4581.282227,4537.179688,4432.436035,4553.333496,4530.769043,2714,0,3,2562,12372,,,,0,4,4,4,4,4,4,4,4,4,4,4,4,4,4,4,4,4,4,4,4,4,4,4,4,4,4,4,4,4,4,4,4,100,,,,,,,,,,,,,,,,,,,,,,,,,,,,,,,,,,,,,,,,,,,,,,,,,,,,,,,,,,,,,,,,,,,,,,,,,,,,,,,,,,,,,,,,,,,,,,,,,,,,,,,,,,,,,,,,,,,,,,,,,,,,,,,,,,,,,,,,,,,,,,,,,,,,,,,,,,,,,,,,,,,,,,,,,,,,,,,,,,,,,,,,,,,,,,,,,,,,,,,,,,,,,,
1764669526.947217,29743,0,4434.102539,4438.205078,4549.743652,4568.846191,4434.743652,4557.692383,4571.025879,4433.333496,4602.05127,4441.538574,4520,4541.666504,4597.05127,4415.769043,4400.641113,4516.666504,4575.769043,4549.615234,4522.820313,4413.846191,4422.692383,4594.615234,4547.179688,4531.410156,4427.179688,4613.974121,4416.282227,4585,4538.846191,4437.436035,4562.307617,4537.820313,2424,0,3,2562,12372,,,,0,4,4,4,4,4,4,4,4,4,4,4,4,4,4,4,4,4,4,4,4,4,4,4,4,4,4,4,4,4,4,4,4,100,,,,,,,,,,,,,,,,,,,,,,,,,,,,,,,,,,,,,,,,,,,,,,,,,,,,,,,,,,,,,,,,,,,,,,,,,,,,,,,,,,,,,,,,,,,,,,,,,,,,,,,,,,,,,,,,,,,,,,,,,,,,,,,,,,,,,,,,,,,,,,,,,,,,,,,,,,,,,,,,,,,,,,,,,,,,,,,,,,,,,,,,,,,,,,,,,,,,,,,,,,,,,,
1764669526.951123,29744,0,4438.974121,4443.461426,4555.512695,4572.820313,4441.025879,4562.307617,4576.666504,4435.769043,4605.641113,4440.769043,4523.333496,4543.589844,4601.922852,4425.512695,4417.05127,4534.230957,4582.436035,4563.589844,4527.436035,4425.512695,4426.538574,4602.05127,4554.358887,4538.077148,4427.436035,4614.871582,4427.05127,4592.820313,4543.205078,4441.025879,4567.94873,4542.179688,2879,0,3,2563,12380,,,,0,4,4,4,4,4,4,4,4,4,4,4,4,4,4,4,4,4,4,4,4,4,4,4,4,4,4,4,4,4,4,4,4,100,,,,,,,,,,,,,,,,,,,,,,,,,,,,,,,,,,,,,,,,,,,,,,,,,,,,,,,,,,,,,,,,,,,,,,,,,,,,,,,,,,,,,,,,,,,,,,,,,,,,,,,,,,,,,,,,,,,,,,,,,,,,,,,,,,,,,,,,,,,,,,,,,,,,,,,,,,,,,,,,,,,,,,,,,,,,,,,,,,,,,,,,,,,,,,,,,,,,,,,,,,,,,,
1764669526.955029,29745,0,4443.461426,4448.077148,4557.692383,4574.871582,4444.102539,4566.282227,4582.179688,4437.820313,4608.974121,4437.307617,4526.666504,4547.307617,4607.563965,4434.615234,4430.897461,4553.461426,4590,4582.820313,4538.974121,4436.666504,4432.94873,4610.256348,4563.461426,4544.487305,4419.871582,4613.205078,4434.487305,4601.538574,4548.077148,4442.307617,4570.128418,4541.666504,2912,0,3,2563,12380,,,,0,4,4,4,4,4,4,4,4,4,4,4,4,4,4,4,4,4,4,4,4,4,4,4,4,4,4,4,4,4,4,4,4,100,,,,,,,,,,,,,,,,,,,,,,,,,,,,,,,,,,,40204,0,0.469808,-0.400818,-0.24469,0.747498,0.883409,-0.421926,0.003418,0.333333,39.833332,-22.5,,,,,,,,,,,,,,,,,,,,,,,,,,,,,,,,,,,,,,,,,,,,,,,,,,,,,,,,,,,,,,,,,,,,,,,,,,,,,,,,,,,,,,,,,,,,,,,,,,,,,,,,,,,,,,,,,,,,,,,,,,,,,,,,,,,,,,,,,,,,,,,,,,,,,,,,,,,,,,,,
1764669526.958935,29746,0,4444.358887,4448.717773,4555.128418,4572.692383,4441.282227,4566.538574,4583.589844,4436.794922,4611.025879,4434.743652,4526.794922,4550.128418,4609.871582,4436.538574,4432.436035,4561.666504,4592.820313,4594.487305,4548.974121,4440.384766,4437.307617,4612.436035,4568.333496,4545.769043,4405.128418,4609.230957,4434.358887,4605.512695,4549.358887,4440.512695,4568.846191,4536.794922,1766,0,3,2304,12387,,,,0,4,4,4,4,4,4,4,4,4,4,4,4,4,4,4,4,4,4,4,4,4,4,4,4,4,4,4,4,4,4,4,4,100,,,,,,,,,,,,,,,,,,,,,,,,,,,,,,,,,,,,,,,,,,,,,,,,,,,,,,,,,,,,,,,,,,,,,,,,,,,,,,,,,,,,,,,,,,,,,,,,,,,,,,,,,,,,,,,,,,,,,,,,,,,,,,,,,,,,,,,,,,,,,,,,,,,,,,,,,,,,,,,,,,,,,,,,,,,,,,,,,,,,,,,,,,,,,,,,,,,,,,,,,,,,,,
1764669526.962841,29747,0,4440,4443.205078,4548.717773,4566.794922,4433.205078,4561.282227,4579.743652,4432.692383,4611.025879,4435.512695,4522.563965,4548.717773,4606.794922,4429.743652,4420.769043,4552.820313,4588.333496,4589.871582,4550.128418,4433.333496,4434.871582,4606.410156,4563.974121,4540.128418,4392.05127,4603.974121,4425.128418,4600.897461,4544.487305,4435.512695,4563.717773,4529.615234,2727,0,3,2304,12387,,,,0,4,4,4,4,4,4,4,4,4,4,4,4,4,4,4,4,4,4,4,4,4,4,4,4,4,4,4,4,4,4,4,4,100,,,,,,,,,,,,,,,,,,,,,,,,,,,,,,,,,,,,,,,,,,,,,,,,,,,,,,,,,,,,,,,,,,,,,,,,,,,,,,,,,,,,,,,,,,,,,,,,,,,,,,,,,,,,,,,,,,,,,,,,,,,,,,,,,,,,,,,,,,,,,,,,,,,,,,,,,,,,,,,,,,,,,,,,,,,,,,,,,,,,,,,,,,,,,,,,,,,,,,,,,,,,,,
1764669526.966747,29748,0,4430.256348,4432.94873,4539.871582,4559.615234,4422.436035,4551.410156,4572.307617,4427.05127,4608.461426,4437.563965,4515.769043,4542.05127,4598.589844,4418.461426,4403.333496,4531.794922,4577.436035,4569.615234,4539.615234,4418.333496,4424.487305,4594.743652,4550.769043,4529.615234,4388.333496,4598.333496,4409.615234,4588.333496,4534.230957,4427.94873,4554.230957,4522.179688,2583,0,3,2304,12395,,,,0,4,4,4,4,4,4,4,4,4,4,4,4,4,4,4,4,4,4,4,4,4,4,4,4,4,4,4,4,4,4,4,4,100,,,,,,,,,,,,,,,,,,,,,,,,,,,,,,,,,,,,,,,,,,,,,,,,,,,,,,,,,,,,,,,,,,,,,,,,,,,,,,,,,,,,,,,,,,,,,,,,,,,,,,,,,,,,,,,,,,,,,,,,,,,,,,,,,,,,,,,,,,,,,,,,,,,,,,,,,,,,,,,,,,,,,,,,,,,,,,,,,,,,,,,,,,,,,,,,,,,,,,,,,,,,,,
1764669526.970653,29749,0,4417.563965,4421.282227,4529.615234,4553.717773,4411.538574,4539.615234,4563.846191,4421.025879,4603.717773,4435.512695,4509.615234,4531.666504,4588.205078,4409.358887,4390.641113,4512.436035,4563.846191,4543.461426,4520.897461,4402.179688,4409.615234,4582.307617,4533.333496,4517.692383,4392.94873,4593.077148,4393.846191,4572.307617,4522.436035,4418.846191,4541.282227,4515.769043,2808,0,3,2304,12395,,,,0,4,4,4,4,4,4,4,4,4,4,4,4,4,4,4,4,4,4,4,4,4,4,4,4,4,4,4,4,4,4,4,4,100,,,,,,,,,,,,,,,,,,,,,,,,,,,,,,,,,,,40205,0,0.469708,-0.400635,-0.244995,0.747559,0.883409,-0.421926,0.003418,3.833333,37.166668,-23.5,,,,,,,,,,,,,,,,,,,,,,,,,,,,,,,,,,,,,,,,,,,,,,,,,,,,,,,,,,,,,,,,,,,,,,,,,,,,,,,,,,,,,,,,,,,,,,,,,,,,,,,,,,,,,,,,,,,,,,,,,,,,,,,,,,,,,,,,,,,,,,,,,,,,,,,,,,,,,,,,
1764669526.974559,29750,0,4405.512695,4412.307617,4518.717773,4549.743652,4402.820313,4529.487305,4556.282227,4414.615234,4598.077148,4425.641113,4506.666504,4521.794922,4579.487305,4406.538574,4390.128418,4507.563965,4551.538574,4524.358887,4502.179688,4391.538574,4396.410156,4572.692383,4518.717773,4508.077148,4397.820313,4588.846191,4383.717773,4559.743652,4513.333496,4410.769043,4528.077148,4510.512695,2922,0,3,2560,12403,,,,0,4,4,4,4,4,4,4,4,4,4,4,4,4,4,4,4,4,4,4,4,4,4,4,4,4,4,4,4,4,4,4,4,100,,,,,,,,,,,,,,,,,,,,,,,,,,,,,,,,,,,,,,,,,,,,,,,,,,,,,,,,,,,,,,,,,,,,,,,,,,,,,,,,,,,,,,,,,,,,,,,,,,,,,,,,,,,,,,,,,,,,,,,,,,,,,,,,,,,,,,,,,,,,,,,,,,,,,,,,,,,,,,,,,,,,,,,,,,,,,,,,,,,,,,,,,,,,,,,,,,,,,,,,,,,,,,
1764669526.978465,29751,0,4398.333496,4408.077148,4509.102539,4546.282227,4398.333496,4523.846191,4551.153809,4408.333496,4592.563965,4410.641113,4506.922852,4516.025879,4575,4409.102539,4400.512695,4519.743652,4543.717773,4521.666504,4492.307617,4388.974121,4390.256348,4567.307617,4511.794922,4502.692383,4397.307617,4586.410156,4382.436035,4554.871582,4510.128418,4406.282227,4519.487305,4507.179688,2841,0,3,2560,12403,,,,0,4,4,4,4,4,4,4,4,4,4,4,4,4,4,4,4,4,4,4,4,4,4,4,4,4,4,4,4,4,4,4,4,100,,,,,,,,,,,,,,,,,,,,,,,,,,,,,,,,,,,,,,,,,,,,,,,,,,,,,,,,,,,,,,,,,,,,,,,,,,,,,,,,,,,,,,,,,,,,,,,,,,,,,,,,,,,,,,,,,,,,,,,,,,,,,,,,,,,,,,,,,,,,,,,,,,,,,,,,,,,,,,,,,,,,,,,,,,,,,,,,,,,,,,,,,,,,,,,,,,,,,,,,,,,,,,
1764669526.982371,29752,0,4397.692383,4408.461426,4503.589844,4541.922852,4398.333496,4523.333496,4549.102539,4403.333496,4588.461426,4397.436035,4509.102539,4516.025879,4575.641113,4413.205078,4413.205078,4539.615234,4542.436035,4534.743652,4496.538574,4393.077148,4393.461426,4566.153809,4513.077148,4502.820313,4395.256348,4586.666504,4388.974121,4557.563965,4512.179688,4406.538574,4519.230957,4505.769043,2717,0,3,2560,12411,,,,0,4,4,4,4,4,4,4,4,4,4,4,4,4,4,4,4,4,4,4,4,4,4,4,4,4,4,4,4,4,4,4,4,100,0.847656,66.666664,4,4,4,4,4,4,4,4,4,4,4,4,4,4,4,4,4,3,4,4,4,4,4,4,1,4,4,4,4,4,4,4,,,,,,,,,,,,,3.076761,2.815635,1.570237,0.806507,0.663855,2.442823,2.49394,1.657117,0.943839,0.857045,4.902469,2.884472,2.364804,0.795834,0.992157,1.547079,2.900092,1.491747,0.899697,0.669579,2.474175,2.702576,1.502857,1.074168,0.666388,1.767924,2.932989,1.374447,0.926234,0.640345,1.347963,2.641253,0.819472,1.053111,0.620114,1.100925,3.218788,1.347573,0.987066,0.685788,0.952483,1.573808,0.956437,0.884454,0.889939,1.430249,1.669125,0.588862,1.70737,1.325862,1.504606,1.6433,0.486877,0.850618,0.545775,1.355199,1.752408,1.367458,1.069306,0.800594,1.074332,0.997378,0.617277,0.996809,0.841534,0.867759,0.442906,0.998514,0.825827,0.62205,1.170713,1.513485,1.245075,1.446994,1.148752,1.174336,2.320617,1.675189,2.124763,1.589553,1.598593,1.850113,1.152375,1.219547,0.903917,1.919773,1.937127,1.382879,2.437205,2.172223,0.787966,1.083134,0.752126,1.679293,1.458453,0.813282,2.534714,0.816367,0.884828,0.829457,1.125309,3.776784,2.202474,1.44003,1.251573,1.611579,2.046004,1.542342,1.878939,1.204058,2.312255,2.27793,1.435187,1.28188,0.755048,1.622748,3.312721,1.750769,1.776674,0.949117,2.194545,5.541072,6.035401,3.922202,2.953428,2.07811,3.09107,1.821219,1.151409,0.640054,1.660657,3.406896,1.738407,1.446468,0.771672,2.179269,2.944699,1.684795,1.28301,0.711872,1.54047,1.200069,0.76511,0.459897,0.348681,1.764161,2.088507,1.692959,1.260349,0.798874,2.254718,4.579832,2.563723,1.239757,0.902731,4.575058,4.018259,2.251988,0.951202,0.747201
1764669526.986277,29753,0,4402.307617,4411.153809,4504.615234,4537.820313,4401.794922,4526.922852,4549.743652,4401.410156,4586.794922,4391.922852,4510.897461,4520.512695,4579.871582,4414.358887,4417.94873,4552.563965,4547.05127,4553.589844,4512.436035,4401.025879,4404.487305,4569.230957,4520,4508.333496,4401.794922,4589.487305,4399.102539,4565,4516.794922,4411.025879,4527.307617,4506.153809,2875,0,3,2560,12411,,,,0,4,4,4,4,4,4,4,4,4,4,4,4,4,4,4,4,4,4,4,4,4,4,4,4,4,4,4,4,4,4,4,4,100,,,,,,,,,,,,,,,,,,,,,,,,,,,,,,,,,,,40206,0,0.469517,-0.400635,-0.245361,0.747559,0.909779,-0.439507,0.012697,1.333333,38,-21.333334,,,,,,,,,,,,,,,,,,,,,,,,,,,,,,,,,,,,,,,,,,,,,,,,,,,,,,,,,,,,,,,,,,,,,,,,,,,,,,,,,,,,,,,,,,,,,,,,,,,,,,,,,,,,,,,,,,,,,,,,,,,,,,,,,,,,,,,,,,,,,,,,,,,,,,,,,,,,,,,,
1764669526.990183,29754,0,4408.846191,4414.487305,4511.538574,4536.153809,4406.666504,4532.05127,4552.05127,4403.717773,4588.333496,4394.743652,4511.025879,4526.538574,4585.128418,4410.897461,4410,4549.230957,4555,4565.641113,4530.641113,4409.615234,4417.94873,4576.666504,4528.333496,4517.05127,4421.410156,4594.358887,4408.205078,4573.717773,4520.897461,4417.05127,4539.358887,4506.666504,1812,0,3,2561,12419,,,,0,4,4,4,4,4,4,4,4,4,4,4,4,4,4,4,4,4,4,4,4,4,4,4,4,4,4,4,4,4,4,4,4,100,,,,,,,,,,,,,,,,,,,,,,,,,,,,,,,,,,,,,,,,,,,,,,,,,,,,,,,,,,,,,,,,,,,,,,,,,,,,,,,,,,,,,,,,,,,,,,,,,,,,,,,,,,,,,,,,,,,,,,,,,,,,,,,,,,,,,,,,,,,,,,,,,,,,,,,,,,,,,,,,,,,,,,,,,,,,,,,,,,,,,,,,,,,,,,,,,,,,,,,,,,,,,,
1764669526.994089,29755,0,4413.846191,4418.333496,4520.641113,4538.717773,4411.794922,4536.666504,4554.743652,4410.128418,4592.692383,4401.794922,4510,4530.769043,4588.974121,4405,4393.846191,4530.769043,4562.563965,4563.461426,4540.512695,4416.025879,4427.179688,4586.153809,4534.743652,4525.897461,4445.769043,4600.769043,4413.333496,4580.769043,4523.461426,4421.922852,4547.94873,4506.794922,2440,0,3,2561,12419,,,,0,4,4,4,4,4,4,4,4,4,4,4,4,4,4,4,4,4,4,4,4,4,4,4,4,4,4,4,4,4,4,4,4,100,,,,,,,,,,,,,,,,,,,,,,,,,,,,,,,,,,,,,,,,,,,,,,,,,,,,,,,,,,,,,,,,,,,,,,,,,,,,,,,,,,,,,,,,,,,,,,,,,,,,,,,,,,,,,,,,,,,,,,,,,,,,,,,,,,,,,,,,,,,,,,,,,,,,,,,,,,,,,,,,,,,,,,,,,,,,,,,,,,,,,,,,,,,,,,,,,,,,,,,,,,,,,,
1764669526.997995,29756,0,4415.769043,4422.563965,4527.563965,4545.128418,4416.922852,4539.230957,4556.666504,4417.820313,4598.077148,4407.820313,4508.974121,4531.794922,4589.230957,4400.769043,4378.974121,4507.307617,4566.025879,4548.846191,4536.538574,4417.563965,4427.307617,4592.94873,4537.05127,4530.769043,4458.974121,4607.179688,4413.717773,4584.358887,4524.871582,4424.230957,4547.179688,4507.436035,2660,0,3,2562,12426,,,,0,4,4,4,4,4,4,4,4,4,4,4,4,4,4,4,4,4,4,4,4,4,4,4,4,4,4,4,4,4,4,4,4,100,,,,,,,,,,,,,,,,,,,,,,,,,,,,,,,,,,,,,,,,,,,,,,,,,,,,,,,,,,,,,,,,,,,,,,,,,,,,,,,,,,,,,,,,,,,,,,,,,,,,,,,,,,,,,,,,,,,,,,,,,,,,,,,,,,,,,,,,,,,,,,,,,,,,,,,,,,,,,,,,,,,,,,,,,,,,,,,,,,,,,,,,,,,,,,,,,,,,,,,,,,,,,,
1764669527.001901,29757,0,4414.743652,4425.641113,4529.871582,4552.436035,4421.282227,4539.615234,4556.794922,4422.436035,4602.436035,4409.615234,4508.717773,4529.743652,4585.384766,4400.384766,4372.94873,4490.384766,4563.717773,4530.769043,4521.666504,4413.077148,4417.820313,4591.922852,4535,4528.717773,4450.128418,4611.282227,4410.769043,4583.461426,4525.641113,4424.102539,4536.794922,4509.487305,2473,0,3,2562,12426,,,,0,4,4,4,4,4,4,4,4,4,4,4,4,4,4,4,4,4,4,4,4,4,4,4,4,4,4,4,4,4,4,4,4,100,,,,,,,,,,,,,,,,,,,,,,,,,,,,,,,,,,,40207,0,0.469155,-0.400757,-0.245667,0.74762,0.900501,-0.4356,0.007813,1.5,38.166668,-24.166666,,,,,,,,,,,,,,,,,,,,,,,,,,,,,,,,,,,,,,,,,,,,,,,,,,,,,,,,,,,,,,,,,,,,,,,,,,,,,,,,,,,,,,,,,,,,,,,,,,,,,,,,,,,,,,,,,,,,,,,,,,,,,,,,,,,,,,,,,,,,,,,,,,,,,,,,,,,,,,,,
1764669527.005807,29758,0,4411.538574,4426.666504,4528.205078,4556.922852,4423.974121,4538.077148,4554.615234,4421.025879,4604.487305,4408.333496,4508.717773,4525.769043,4579.615234,4403.205078,4376.538574,4486.666504,4557.179688,4519.615234,4506.025879,4404.358887,4403.589844,4582.94873,4530,4521.666504,4424.358887,4611.410156,4407.05127,4579.358887,4525.512695,4423.333496,4523.846191,4513.589844,2730,0,3,2563,12434,,,,0,4,4,4,4,4,4,4,4,4,4,4,4,4,4,4,4,4,4,4,4,4,4,4,4,4,4,4,4,4,4,4,4,100,,,,,,,,,,,,,,,,,,,,,,,,,,,,,,,,,,,,,,,,,,,,,,,,,,,,,,,,,,,,,,,,,,,,,,,,,,,,,,,,,,,,,,,,,,,,,,,,,,,,,,,,,,,,,,,,,,,,,,,,,,,,,,,,,,,,,,,,,,,,,,,,,,,,,,,,,,,,,,,,,,,,,,,,,,,,,,,,,,,,,,,,,,,,,,,,,,,,,,,,,,,,,,
1764669527.009713,29759,0,4408.717773,4425.769043,4525.897461,4556.794922,4425.641113,4536.410156,4551.794922,4415.256348,4604.743652,4407.563965,4508.333496,4522.307617,4575,4406.282227,4385.128418,4495.256348,4550.897461,4521.410156,4500.128418,4396.794922,4392.05127,4572.307617,4525.897461,4515.641113,4400.384766,4608.589844,4405.641113,4575.384766,4525,4423.717773,4517.820313,4518.589844,2726,0,3,2563,12434,,,,0,4,4,4,4,4,4,4,4,4,4,4,4,4,4,4,4,4,4,4,4,4,4,4,4,4,4,4,4,4,4,4,4,100,,,,,,,,,,,,,,,,,,,,,,,,,,,,,,,,,,,,,,,,,,,,,,,,,,,,,,,,,,,,,,,,,,,,,,,,,,,,,,,,,,,,,,,,,,,,,,,,,,,,,,,,,,,,,,,,,,,,,,,,,,,,,,,,,,,,,,,,,,,,,,,,,,,,,,,,,,,,,,,,,,,,,,,,,,,,,,,,,,,,,,,,,,,,,,,,,,,,,,,,,,,,,,
1764669527.013619,29760,0,4409.102539,4425.384766,4525.897461,4553.589844,4427.820313,4537.05127,4551.538574,4410.128418,4604.743652,4409.615234,4507.436035,4522.05127,4574.358887,4407.436035,4393.846191,4510,4549.743652,4535,4508.974121,4396.666504,4389.615234,4569.102539,4526.922852,4516.922852,4396.538574,4605.897461,4408.461426,4575.512695,4525.512695,4426.538574,4523.974121,4523.077148,2814,0,3,2564,12442,,,,0,4,4,4,4,4,4,4,4,4,4,4,4,4,4,4,4,4,4,4,4,4,4,4,4,4,4,4,4,4,4,4,4,100,,,,,,,,,,,,,,,,,,,,,,,,,,,,,,,,,,,,,,,,,,,,,,,,,,,,,,,,,,,,,,,,,,,,,,,,,,,,,,,,,,,,,,,,,,,,,,,,,,,,,,,,,,,,,,,,,,,,,,,,,,,,,,,,,,,,,,,,,,,,,,,,,,,,,,,,,,,,,,,,,,,,,,,,,,,,,,,,,,,,,,,,,,,,,,,,,,,,,,,,,,,,,,
1764669527.017525,29761,0,4413.589844,4427.307617,4528.974121,4551.538574,4431.025879,4541.282227,4555.384766,4410.384766,4605.256348,4413.589844,4507.05127,4525.897461,4577.94873,4407.179688,4399.871582,4524.102539,4555.641113,4553.589844,4528.333496,4405.897461,4397.307617,4577.307617,4533.846191,4526.410156,4416.794922,4606.025879,4414.358887,4580.128418,4528.461426,4430.384766,4538.974121,4525.897461,2905,0,3,2564,12442,,,,0,4,4,4,4,4,4,4,4,4,4,4,4,4,4,4,4,4,4,4,4,4,4,4,4,4,4,4,4,4,4,4,4,100,,,,,,,,,,,,,,,,,,,,,,,,,,,,,,,,,,,40208,0,0.468917,-0.400696,-0.24585,0.747742,0.897082,-0.431693,-0.006837,0.166667,38.833332,-21.333334,,,,,,,,,,,,,,,,,,,,,,,,,,,,,,,,,,,,,,,,,,,,,,,,,,,,,,,,,,,,,,,,,,,,,,,,,,,,,,,,,,,,,,,,,,,,,,,,,,,,,,,,,,,,,,,,,,,,,,,,,,,,,,,,,,,,,,,,,,,,,,,,,,,,,,,,,,,,,,,,
1764669527.021431,29762,0,4420,4431.025879,4532.563965,4553.205078,4433.974121,4547.436035,4561.025879,4416.025879,4605.641113,4416.282227,4507.94873,4531.538574,4583.461426,4407.436035,4403.077148,4532.307617,4565,4568.589844,4547.307617,4419.615234,4409.615234,4592.179688,4542.820313,4538.205078,4445.897461,4608.589844,4419.487305,4585.384766,4532.692383,4432.179688,4553.205078,4526.538574,2701,0,3,2565,12450,,,,0,4,4,4,4,4,4,4,4,4,4,4,4,4,4,4,4,4,4,4,4,4,4,4,4,4,4,4,4,4,4,4,4,100,,,,,,,,,,,,,,,,,,,,,,,,,,,,,,,,,,,,,,,,,,,,,,,,,,,,,,,,,,,,,,,,,,,,,,,,,,,,,,,,,,,,,,,,,,,,,,,,,,,,,,,,,,,,,,,,,,,,,,,,,,,,,,,,,,,,,,,,,,,,,,,,,,,,,,,,,,,,,,,,,,,,,,,,,,,,,,,,,,,,,,,,,,,,,,,,,,,,,,,,,,,,,,
1764669527.025337,29763,0,4424.487305,4433.974121,4533.974121,4557.179688,4434.615234,4551.538574,4564.871582,4423.461426,4604.615234,4415.897461,4509.871582,4535.384766,4587.692383,4409.358887,4404.230957,4533.333496,4571.666504,4573.333496,4554.871582,4428.974121,4418.205078,4603.205078,4547.307617,4543.461426,4461.410156,4610.769043,4419.871582,4586.025879,4535.384766,4429.230957,4558.461426,4526.153809,2848,0,3,2565,12450,,,,0,4,4,4,4,4,4,4,4,4,4,4,4,4,4,4,4,4,4,4,4,4,4,4,4,4,4,4,4,4,4,4,4,100,,,,,,,,,,,,,,,,,,,,,,,,,,,,,,,,,,,,,,,,,,,,,,,,,,,,,,,,,,,,,,,,,,,,,,,,,,,,,,,,,,,,,,,,,,,,,,,,,,,,,,,,,,,,,,,,,,,,,,,,,,,,,,,,,,,,,,,,,,,,,,,,,,,,,,,,,,,,,,,,,,,,,,,,,,,,,,,,,,,,,,,,,,,,,,,,,,,,,,,,,,,,,,
1764669527.029243,29764,0,4423.846191,4433.333496,4532.05127,4558.974121,4432.820313,4550.512695,4564.230957,4427.563965,4601.666504,4414.358887,4512.05127,4534.871582,4588.333496,4412.563965,4405.128418,4529.358887,4571.025879,4567.563965,4546.538574,4427.820313,4417.692383,4601.666504,4543.333496,4536.666504,4450,4609.102539,4414.487305,4580.256348,4533.717773,4422.692383,4553.846191,4526.025879,2745,0,3,2566,12458,,,,0,4,4,4,4,4,4,4,4,4,4,4,4,4,4,4,4,4,4,4,4,4,4,4,4,4,4,4,4,4,4,4,4,100,,,,,,,,,,,,,,,,,,,,,,,,,,,,,,,,,,,,,,,,,,,,,,,,,,,,,,,,,,,,,,,,,,,,,,,,,,,,,,,,,,,,,,,,,,,,,,,,,,,,,,,,,,,,,,,,,,,,,,,,,,,,,,,,,,,,,,,,,,,,,,,,,,,,,,,,,,,,,,,,,,,,,,,,,,,,,,,,,,,,,,,,,,,,,,,,,,,,,,,,,,,,,,
1764669527.033149,29765,0,4417.436035,4428.333496,4527.820313,4555.384766,4429.102539,4543.589844,4559.615234,4425.769043,4597.179688,4413.974121,4513.589844,4530.769043,4585.384766,4415.897461,4406.410156,4524.615234,4563.077148,4556.666504,4528.461426,4416.282227,4409.230957,4587.692383,4532.179688,4520.384766,4417.179688,4602.307617,4405.769043,4569.743652,4527.692383,4416.025879,4544.487305,4526.025879,2828,0,3,2566,12458,,,,0,4,4,4,4,4,4,4,4,4,4,4,4,4,4,4,4,4,4,4,4,4,4,4,4,4,4,4,4,4,4,4,4,100,,,,,,,,,,,,,,,,,,,,,,,,,,,,,,,,,,,40209,0,0.468607,-0.400757,-0.246155,0.747803,0.895617,-0.436088,-0.004883,3.666667,38.5,-23.666666,,,,,,,,,,,,,,,,,,,,,,,,,,,,,,,,,,,,,,,,,,,,,,,,,,,,,,,,,,,,,,,,,,,,,,,,,,,,,,,,,,,,,,,,,,,,,,,,,,,,,,,,,,,,,,,,,,,,,,,,,,,,,,,,,,,,,,,,,,,,,,,,,,,,,,,,,,,,,,,,
1764669527.037055,29766,0,4407.563965,4420.128418,4523.077148,4547.179688,4424.102539,4533.589844,4553.589844,4418.461426,4591.666504,4414.871582,4513.974121,4525.512695,4580.769043,4418.077148,4407.179688,4522.563965,4552.820313,4548.974121,4513.333496,4401.538574,4400,4570.256348,4519.615234,4502.94873,4382.563965,4592.692383,4397.820313,4559.358887,4520.128418,4412.563965,4536.922852,4523.717773,2806,0,3,2563,12466,,,,0,4,4,4,4,4,4,4,4,4,4,4,4,4,4,4,4,4,4,4,4,4,4,4,4,4,4,4,4,4,4,4,4,100,,,,,,,,,,,,,,,,,,,,,,,,,,,,,,,,,,,,,,,,,,,,,,,,,,,,,,,,,,,,,,,,,,,,,,,,,,,,,,,,,,,,,,,,,,,,,,,,,,,,,,,,,,,,,,,,,,,,,,,,,,,,,,,,,,,,,,,,,,,,,,,,,,,,,,,,,,,,,,,,,,,,,,,,,,,,,,,,,,,,,,,,,,,,,,,,,,,,,,,,,,,,,,
1764669527.040961,29767,0,4398.974121,4412.307617,4519.230957,4538.846191,4418.846191,4525.256348,4549.230957,4409.487305,4587.563965,4415.256348,4513.333496,4523.077148,4577.307617,4418.461426,4405.512695,4524.615234,4546.794922,4550,4511.025879,4392.436035,4397.820313,4560.897461,4512.436035,4493.717773,4365.897461,4585.384766,4394.102539,4554.230957,4515.128418,4413.077148,4535,4518.205078,2983,0,3,2563,12466,,,,0,4,4,4,4,4,4,4,4,4,4,4,4,4,4,4,4,4,4,4,4,4,4,4,4,4,4,4,4,4,4,4,4,100,,,,,,,,,,,,,,,,,,,,,,,,,,,,,,,,,,,,,,,,,,,,,,,,,,,,,,,,,,,,,,,,,,,,,,,,,,,,,,,,,,,,,,,,,,,,,,,,,,,,,,,,,,,,,,,,,,,,,,,,,,,,,,,,,,,,,,,,,,,,,,,,,,,,,,,,,,,,,,,,,,,,,,,,,,,,,,,,,,,,,,,,,,,,,,,,,,,,,,,,,,,,,,
1764669527.044867,29768,0,4396.025879,4408.589844,4517.436035,4535.769043,4415,4522.692383,4548.974121,4403.717773,4587.179688,4415.128418,4513.205078,4525.384766,4577.179688,4417.692383,4401.538574,4529.358887,4547.820313,4558.461426,4521.410156,4394.358887,4404.871582,4564.871582,4514.487305,4496.538574,4373.717773,4584.358887,4395.384766,4557.179688,4515.384766,4415.897461,4538.205078,4511.538574,2899,0,3,2560,12473,,,,0,4,4,4,4,4,4,4,4,4,4,4,4,4,4,4,4,4,4,4,4,4,4,4,4,4,4,4,4,4,4,4,4,100,,,,,,,,,,,,,,,,,,,,,,,,,,,,,,,,,,,,,,,,,,,,,,,,,,,,,,,,,,,,,,,,,,,,,,,,,,,,,,,,,,,,,,,,,,,,,,,,,,,,,,,,,,,,,,,,,,,,,,,,,,,,,,,,,,,,,,,,,,,,,,,,,,,,,,,,,,,,,,,,,,,,,,,,,,,,,,,,,,,,,,,,,,,,,,,,,,,,,,,,,,,,,,
1764669527.048773,29769,0,4399.230957,4409.871582,4517.179688,4538.333496,4413.974121,4526.410156,4551.666504,4402.563965,4590.512695,4415.384766,4513.717773,4530.128418,4579.743652,4415.897461,4397.563965,4532.179688,4552.94873,4566.666504,4534.871582,4403.717773,4415.128418,4577.05127,4522.94873,4507.179688,4395.641113,4588.589844,4398.461426,4565.384766,4519.230957,4417.820313,4541.666504,4506.282227,2790,0,3,2560,12473,,,,0,4,4,4,4,4,4,4,4,4,4,4,4,4,4,4,4,4,4,4,4,4,4,4,4,4,4,4,4,4,4,4,4,100,,,,,,,,,,,,,,,,,,,,,,,,,,,,,,,,,,,40210,0,0.468687,-0.400513,-0.246216,0.747864,0.907337,-0.443902,-0.00879,1.333333,39.166668,-22.666666,,,,,,,,,,,,,,,,,,,,,,,,,,,,,,,,,,,,,,,,,,,,,,,,,,,,,,,,,,,,,,,,,,,,,,,,,,,,,,,,,,,,,,,,,,,,,,,,,,,,,,,,,,,,,,,,,,,,,,,,,,,,,,,,,,,,,,,,,,,,,,,,,,,,,,,,,,,,,,,,
1764669527.052679,29770,0,4403.589844,4411.282227,4515.512695,4541.538574,4413.846191,4531.282227,4552.820313,4402.436035,4592.436035,4414.358887,4513.077148,4530.512695,4581.153809,4412.436035,4395.384766,4528.846191,4554.871582,4565.641113,4539.615234,4410.512695,4418.974121,4585.384766,4529.230957,4516.025879,4413.846191,4591.794922,4397.179688,4570.641113,4521.538574,4414.487305,4538.717773,4501.538574,2517,0,3,1536,12481,,,,0,4,4,4,4,4,4,4,4,4,4,4,4,4,4,4,4,4,4,4,4,4,4,4,4,4,4,4,4,4,4,4,4,100,,,,,,,,,,,,,,,,,,,,,,,,,,,,,,,,,,,,,,,,,,,,,,,,,,,,,,,,,,,,,,,,,,,,,,,,,,,,,,,,,,,,,,,,,,,,,,,,,,,,,,,,,,,,,,,,,,,,,,,,,,,,,,,,,,,,,,,,,,,,,,,,,,,,,,,,,,,,,,,,,,,,,,,,,,,,,,,,,,,,,,,,,,,,,,,,,,,,,,,,,,,,,,
1764669527.056585,29771,0,4402.179688,4406.922852,4508.461426,4538.846191,4411.666504,4530.384766,4547.436035,4398.333496,4587.179688,4407.94873,4509.230957,4522.05127,4577.692383,4406.794922,4395.256348,4519.871582,4548.589844,4553.333496,4532.05127,4406.410156,4412.563965,4581.794922,4526.410156,4516.025879,4417.05127,4587.307617,4387.436035,4565.512695,4517.563965,4404.871582,4526.025879,4494.102539,2724,0,3,1536,12481,,,,0,4,4,4,4,4,4,4,4,4,4,4,4,4,4,4,4,4,4,4,4,4,4,4,4,4,4,4,4,4,4,4,4,100,,,,,,,,,,,,,,,,,,,,,,,,,,,,,,,,,,,,,,,,,,,,,,,,,,,,,,,,,,,,,,,,,,,,,,,,,,,,,,,,,,,,,,,,,,,,,,,,,,,,,,,,,,,,,,,,,,,,,,,,,,,,,,,,,,,,,,,,,,,,,,,,,,,,,,,,,,,,,,,,,,,,,,,,,,,,,,,,,,,,,,,,,,,,,,,,,,,,,,,,,,,,,,
1764669527.060491,29772,0,4394.102539,4396.666504,4496.410156,4529.230957,4406.794922,4522.179688,4536.794922,4389.487305,4575.512695,4395.769043,4503.461426,4507.563965,4570.512695,4400.897461,4397.05127,4512.05127,4537.179688,4537.820313,4519.358887,4392.692383,4402.179688,4569.743652,4516.282227,4507.563965,4408.974121,4576.153809,4372.436035,4551.410156,4508.589844,4393.461426,4508.846191,4483.333496,2466,0,3,1792,12489,,,,0,4,4,4,4,4,4,4,4,4,4,4,4,4,4,4,4,4,4,4,4,4,4,4,4,4,4,4,4,4,4,4,4,100,,,,,,,,,,,,,,,,,,,,,,,,,,,,,,,,,,,,,,,,,,,,,,,,,,,,,,,,,,,,,,,,,,,,,,,,,,,,,,,,,,,,,,,,,,,,,,,,,,,,,,,,,,,,,,,,,,,,,,,,,,,,,,,,,,,,,,,,,,,,,,,,,,,,,,,,,,,,,,,,,,,,,,,,,,,,,,,,,,,,,,,,,,,,,,,,,,,,,,,,,,,,,,
1764669527.064397,29773,0,4385.384766,4387.436035,4485.256348,4519.871582,4402.94873,4512.820313,4528.846191,4382.05127,4565.641113,4385.256348,4500.384766,4497.436035,4565.641113,4398.717773,4401.410156,4513.205078,4529.743652,4531.153809,4512.307617,4379.743652,4398.205078,4560.769043,4508.205078,4498.077148,4402.692383,4566.025879,4361.025879,4538.589844,4501.153809,4388.077148,4496.922852,4473.974121,2235,0,3,1792,12489,,,,0,4,4,4,4,4,4,4,4,4,4,4,4,4,4,4,4,4,4,4,4,4,4,4,4,4,4,4,4,4,4,4,4,100,,,,,,,,,,,,,,,,,,,,,,,,,,,,,,,,,,,40211,0,0.468467,-0.400391,-0.246277,0.748047,0.894152,-0.437065,-0.007813,1.333333,39.166668,-22.166666,,,,,,,,,,,,,,,,,,,,,,,,,,,,,,,,,,,,,,,,,,,,,,,,,,,,,,,,,,,,,,,,,,,,,,,,,,,,,,,,,,,,,,,,,,,,,,,,,,,,,,,,,,,,,,,,,,,,,,,,,,,,,,,,,,,,,,,,,,,,,,,,,,,,,,,,,,,,,,,,
1764669527.068303,29774,0,4384.743652,4387.692383,4482.179688,4519.743652,4405,4511.025879,4531.410156,4383.205078,4566.410156,4386.025879,4503.589844,4500.641113,4568.333496,4402.179688,4407.820313,4524.358887,4533.461426,4538.717773,4516.025879,4377.692383,4404.102539,4563.589844,4510.256348,4495.512695,4407.563965,4565.512695,4360.897461,4537.179688,4501.794922,4392.94873,4496.922852,4472.307617,2720,0,3,2048,12497,,,,0,4,4,4,4,4,4,4,4,4,4,4,4,4,4,4,4,4,4,4,4,4,4,4,4,4,4,4,4,4,4,4,4,100,,,,,,,,,,,,,,,,,,,,,,,,,,,,,,,,,,,,,,,,,,,,,,,,,,,,,,,,,,,,,,,,,,,,,,,,,,,,,,,,,,,,,,,,,,,,,,,,,,,,,,,,,,,,,,,,,,,,,,,,,,,,,,,,,,,,,,,,,,,,,,,,,,,,,,,,,,,,,,,,,,,,,,,,,,,,,,,,,,,,,,,,,,,,,,,,,,,,,,,,,,,,,,
1764669527.072209,29775,0,4395.256348,4399.743652,4490.128418,4531.538574,4413.846191,4519.743652,4545.128418,4394.487305,4579.230957,4401.025879,4511.794922,4516.794922,4577.94873,4409.102539,4412.94873,4537.179688,4547.179688,4553.974121,4526.282227,4388.461426,4414.102539,4576.922852,4522.563965,4502.436035,4420.641113,4575.897461,4372.692383,4548.717773,4510.897461,4405,4507.179688,4480.512695,2433,0,3,2048,12497,,,,0,4,4,4,4,4,4,4,4,4,4,4,4,4,4,4,4,4,4,4,4,4,4,4,4,4,4,4,4,4,4,4,4,100,,,,,,,,,,,,,,,,,,,,,,,,,,,,,,,,,,,,,,,,,,,,,,,,,,,,,,,,,,,,,,,,,,,,,,,,,,,,,,,,,,,,,,,,,,,,,,,,,,,,,,,,,,,,,,,,,,,,,,,,,,,,,,,,,,,,,,,,,,,,,,,,,,,,,,,,,,,,,,,,,,,,,,,,,,,,,,,,,,,,,,,,,,,,,,,,,,,,,,,,,,,,,,
1764669527.076115,29776,0,4412.179688,4417.436035,4504.743652,4549.230957,4425.384766,4534.230957,4562.179688,4409.871582,4597.179688,4422.692383,4519.487305,4535.641113,4587.820313,4414.230957,4411.794922,4541.153809,4562.179688,4564.487305,4533.461426,4404.358887,4418.077148,4591.538574,4537.436035,4514.615234,4430.641113,4590.769043,4390.128418,4565.897461,4522.94873,4416.153809,4520.897461,4494.102539,2881,0,3,2304,12505,,,,0,4,4,4,4,4,4,4,4,4,4,4,4,4,4,4,4,4,4,4,4,4,4,4,4,4,4,4,4,4,4,4,4,100,,,,,,,,,,,,,,,,,,,,,,,,,,,,,,,,,,,,,,,,,,,,,,,,,,,,,,,,,,,,,,,,,,,,,,,,,,,,,,,,,,,,,,,,,,,,,,,,,,,,,,,,,,,,,,,,,,,,,,,,,,,,,,,,,,,,,,,,,,,,,,,,,,,,,,,,,,,,,,,,,,,,,,,,,,,,,,,,,,,,,,,,,,,,,,,,,,,,,,,,,,,,,,
1764669527.080021,29777,0,4426.153809,4431.282227,4518.333496,4562.692383,4433.974121,4545.897461,4572.94873,4421.153809,4610.769043,4438.717773,4521.282227,4545.897461,4591.153809,4413.205078,4403.717773,4532.436035,4570,4562.307617,4530.769043,4415.384766,4411.153809,4598.717773,4546.410156,4525.384766,4428.333496,4601.025879,4405.384766,4579.487305,4530.897461,4420.128418,4532.05127,4505.897461,2928,0,3,2304,12505,,,,0,4,4,4,4,4,4,4,4,4,4,4,4,4,4,4,4,4,4,4,4,4,4,4,4,4,4,4,4,4,4,4,4,100,,,,,,,,,,,,,,,,,,,,,,,,,,,,,,,,,,,40212,0,0.468148,-0.400574,-0.246399,0.748108,0.902454,-0.441948,0.003907,1.5,37.833332,-20.833334,,,,,,,,,,,,,,,,,,,,,,,,,,,,,,,,,,,,,,,,,,,,,,,,,,,,,,,,,,,,,,,,,,,,,,,,,,,,,,,,,,,,,,,,,,,,,,,,,,,,,,,,,,,,,,,,,,,,,,,,,,,,,,,,,,,,,,,,,,,,,,,,,,,,,,,,,,,,,,,,
1764669527.083927,29778,0,4431.153809,4434.871582,4524.230957,4565.384766,4436.410156,4549.615234,4573.077148,4423.589844,4614.358887,4441.538574,4516.410156,4543.333496,4586.282227,4406.922852,4394.487305,4518.333496,4567.820313,4550.256348,4519.743652,4416.282227,4397.436035,4596.538574,4546.282227,4530.128418,4413.974121,4602.436035,4413.205078,4585,4531.538574,4416.410156,4539.102539,4511.025879,1766,0,3,2560,12512,,,,0,4,4,4,4,4,4,4,4,4,4,4,4,4,4,4,4,4,4,4,4,4,4,4,4,4,4,4,4,4,4,4,4,100,,,,,,,,,,,,,,,,,,,,,,,,,,,,,,,,,,,,,,,,,,,,,,,,,,,,,,,,,,,,,,,,,,,,,,,,,,,,,,,,,,,,,,,,,,,,,,,,,,,,,,,,,,,,,,,,,,,,,,,,,,,,,,,,,,,,,,,,,,,,,,,,,,,,,,,,,,,,,,,,,,,,,,,,,,,,,,,,,,,,,,,,,,,,,,,,,,,,,,,,,,,,,,
1764669527.087833,29779,0,4427.307617,4428.589844,4520.769043,4557.94873,4433.846191,4546.025879,4566.410156,4419.358887,4608.974121,4432.307617,4509.358887,4533.205078,4577.820313,4401.153809,4392.563965,4510,4560.384766,4539.358887,4509.358887,4409.358887,4386.025879,4588.589844,4540,4527.820313,4396.666504,4596.538574,4412.94873,4582.94873,4527.05127,4409.615234,4542.307617,4508.974121,2730,0,3,2560,12512,,,,0,4,4,4,4,4,4,4,4,4,4,4,4,4,4,4,4,4,4,4,4,4,4,4,4,4,4,4,4,4,4,4,4,100,,,,,,,,,,,,,,,,,,,,,,,,,,,,,,,,,,,,,,,,,,,,,,,,,,,,,,,,,,,,,,,,,,,,,,,,,,,,,,,,,,,,,,,,,,,,,,,,,,,,,,,,,,,,,,,,,,,,,,,,,,,,,,,,,,,,,,,,,,,,,,,,,,,,,,,,,,,,,,,,,,,,,,,,,,,,,,,,,,,,,,,,,,,,,,,,,,,,,,,,,,,,,,
1764669527.091739,29780,0,4418.846191,4417.307617,4510.897461,4546.410156,4428.974121,4539.487305,4559.102539,4413.077148,4599.230957,4418.205078,4505.641113,4524.743652,4573.077148,4401.410156,4400.769043,4513.589844,4554.230957,4538.589844,4507.94873,4400.769043,4384.615234,4579.871582,4532.563965,4519.230957,4385.128418,4587.436035,4406.666504,4575.897461,4521.666504,4404.358887,4540.897461,4501.153809,2591,0,3,2560,12520,,,,0,4,4,4,4,4,4,4,4,4,4,4,4,4,4,4,4,4,4,4,4,4,4,4,4,4,4,4,4,4,4,4,4,100,,,,,,,,,,,,,,,,,,,,,,,,,,,,,,,,,,,,,,,,,,,,,,,,,,,,,,,,,,,,,,,,,,,,,,,,,,,,,,,,,,,,,,,,,,,,,,,,,,,,,,,,,,,,,,,,,,,,,,,,,,,,,,,,,,,,,,,,,,,,,,,,,,,,,,,,,,,,,,,,,,,,,,,,,,,,,,,,,,,,,,,,,,,,,,,,,,,,,,,,,,,,,,
1764669527.095645,29781,0,4409.743652,4405.769043,4499.358887,4536.153809,4423.333496,4532.692383,4554.743652,4407.692383,4590.128418,4406.025879,4506.794922,4522.436035,4575.256348,4407.05127,4412.563965,4524.358887,4552.436035,4547.94873,4516.794922,4394.871582,4393.205078,4573.077148,4526.282227,4506.538574,4380.641113,4577.94873,4396.794922,4566.282227,4517.179688,4401.025879,4532.820313,4489.871582,2813,0,3,2560,12520,,,,0,4,4,4,4,4,4,4,4,4,4,4,4,4,4,4,4,4,4,4,4,4,4,4,4,4,4,4,4,4,4,4,4,100,,,,,,,,,,,,,,,,,,,,,,,,,,,,,,,,,,,40213,0,0.467895,-0.400757,-0.246582,0.748108,0.902454,-0.441948,0.003907,1,38,-22.666666,,,,,,,,,,,,,,,,,,,,,,,,,,,,,,,,,,,,,,,,,,,,,,,,,,,,,,,,,,,,,,,,,,,,,,,,,,,,,,,,,,,,,,,,,,,,,,,,,,,,,,,,,,,,,,,,,,,,,,,,,,,,,,,,,,,,,,,,,,,,,,,,,,,,,,,,,,,,,,,,
1764669527.099551,29782,0,4402.436035,4396.282227,4489.487305,4528.974121,4416.922852,4525.897461,4551.794922,4402.436035,4583.205078,4397.436035,4509.487305,4524.230957,4581.153809,4412.436035,4417.692383,4531.922852,4553.205078,4558.717773,4528.589844,4392.307617,4405.128418,4568.717773,4521.025879,4493.077148,4377.179688,4569.487305,4386.282227,4556.153809,4513.461426,4396.922852,4518.974121,4477.436035,2923,0,3,2561,12528,,,,0,4,4,4,4,4,4,4,4,4,4,4,4,4,4,4,4,4,4,4,4,4,4,4,4,4,4,4,4,4,4,4,4,100,,,,,,,,,,,,,,,,,,,,,,,,,,,,,,,,,,,,,,,,,,,,,,,,,,,,,,,,,,,,,,,,,,,,,,,,,,,,,,,,,,,,,,,,,,,,,,,,,,,,,,,,,,,,,,,,,,,,,,,,,,,,,,,,,,,,,,,,,,,,,,,,,,,,,,,,,,,,,,,,,,,,,,,,,,,,,,,,,,,,,,,,,,,,,,,,,,,,,,,,,,,,,,
1764669527.103457,29783,0,4397.563965,4388.974121,4483.589844,4524.230957,4410.769043,4519.743652,4547.436035,4396.666504,4577.94873,4389.743652,4509.743652,4525.769043,4585,4412.179688,4411.282227,4529.230957,4553.333496,4561.922852,4534.871582,4391.538574,4412.94873,4566.794922,4516.666504,4483.974121,4369.358887,4563.589844,4377.94873,4548.846191,4509.615234,4390.769043,4503.974121,4468.205078,2843,0,3,2561,12528,,,,0,4,4,4,4,4,4,4,4,4,4,4,4,4,4,4,4,4,4,4,4,4,4,4,4,4,4,4,4,4,4,4,4,100,,,,,,,,,,,,,,,,,,,,,,,,,,,,,,,,,,,,,,,,,,,,,,,,,,,,,,,,,,,,,,,,,,,,,,,,,,,,,,,,,,,,,,,,,,,,,,,,,,,,,,,,,,,,,,,,,,,,,,,,,,,,,,,,,,,,,,,,,,,,,,,,,,,,,,,,,,,,,,,,,,,,,,,,,,,,,,,,,,,,,,,,,,,,,,,,,,,,,,,,,,,,,,
1764669527.107363,29784,1,4399.04541,4392.037109,4486.552734,4525.754883,4412.450195,4522.022949,4548.176758,4397.250488,4579.173828,4391.01123,4509.586914,4525.413086,4584.159668,4411.552734,4409.771973,4527.549805,4553.347656,4560.313477,4533.005859,4392.492676,4412.265137,4567.891602,4518.262207,4486.08252,4368.546875,4564.572754,4381.09668,4551.182129,4511.153809,4393.504395,4507.905762,4473.959961,0,0,3,0,0,,,,0,4,4,4,4,4,4,4,4,4,4,4,4,4,4,4,4,4,4,4,4,4,4,4,4,4,4,4,4,4,4,4,4,100,,,,,,,,,,,,,,,,,,,,,,,,,,,,,,,,,,,,,,,,,,,,,,,2.906242,2.347605,1.284616,0.724373,0.620313,2.483898,2.201799,1.553872,0.829931,0.822923,4.42086,2.46382,1.986422,0.645259,0.911255,1.506196,2.303553,1.297089,0.745,0.630977,2.521991,2.192435,1.486971,0.933741,0.624231,1.647745,2.665961,1.245805,0.854206,0.601932,1.379045,2.487676,0.629053,1.009052,0.576402,1.114962,2.704944,1.118631,0.920546,0.647642,1.077358,1.285696,0.875878,0.845384,0.819059,1.89506,1.568339,0.688827,1.556339,1.26049,1.451297,1.44354,0.430627,0.840428,0.522403,1.285077,1.440127,1.062008,1.003321,0.71217,1.229565,0.937448,0.493231,0.952041,0.757616,1.375249,0.469562,0.811433,0.755046,0.559351,1.314745,1.494493,1.171245,1.610491,0.985854,1.491243,2.547275,1.725911,2.395379,1.559261,1.28355,1.756365,0.831507,1.137922,0.851834,2.502515,2.111533,1.139475,2.62051,2.188092,1.080943,1.16066,0.585039,1.816046,1.52221,1.028534,2.111128,0.602573,0.80125,0.895383,1.610387,3.110379,2.065898,1.335643,1.298065,1.69772,1.85775,1.303571,1.948705,1.183183,2.293309,1.912984,1.217912,1.240265,0.722118,1.744681,2.835152,1.639703,1.772503,0.916599,3.028462,4.262747,4.811729,3.631618,2.241128,2.105473,2.630585,1.720018,1.032978,0.629189,1.90507,2.888966,1.399821,1.251972,0.74305,2.431911,2.550873,1.45299,1.161995,0.645457,1.544308,1.033377,0.667901,0.409665,0.32635,2.127277,1.725818,1.461135,1.033345,0.733967,2.758901,3.721914,2.35293,0.984292,0.856176,5.561786,3.729243,2.161267,0.800526,0.724952
1764669527.111269,29785,1,4400.526855,4395.099609,4489.515625,4527.279297,4414.130859,4524.301758,4548.91748,4397.834961,4580.398926,4392.279297,4509.430176,4525.057129,4583.318848,4410.925781,4408.262207,4525.869141,4553.361816,4558.703613,4531.139648,4393.447266,4411.581055,4568.98877,4519.857422,4488.190918,4367.734863,4565.555664,4384.245117,4553.518555,4512.692383,4396.239258,4511.837402,4479.715332,0,0,3,0,0,,,,0,4,4,4,4,4,4,4,4,4,4,4,4,4,4,4,4,4,4,4,4,4,4,4,4,4,4,4,4,4,4,4,4,100,,,,,,,,,,,,,,,,,,,,,,,,,,,,,,,,,,,,,,,,,,,,,,,,,,,,,,,,,,,,,,,,,,,,,,,,,,,,,,,,,,,,,,,,,,,,,,,,,,,,,,,,,,,,,,,,,,,,,,,,,,,,,,,,,,,,,,,,,,,,,,,,,,,,,,,,,,,,,,,,,,,,,,,,,,,,,,,,,,,,,,,,,,,,,,,,,,,,,,,,,,,,,,
1764669527.115175,29786,1,4402.008789,4398.162598,4492.478516,4528.803223,4415.812012,4526.581055,4549.658203,4398.418945,4581.624023,4393.546875,4509.273438,4524.700684,4582.478516,4410.299316,4406.751953,4524.187988,4553.375977,4557.094238,4529.273438,4394.401855,4410.897461,4570.085449,4521.453125,4490.299316,4366.922852,4566.538574,4387.393066,4555.854492,4514.230957,4398.974121,4515.769043,4485.470215,0,0,3,0,0,,,,0,4,4,4,4,4,4,4,4,4,4,4,4,4,4,4,4,4,4,4,4,4,4,4,4,4,4,4,4,4,4,4,4,100,,,,,,,,,,,,,,,,,,,,,,,,,,,,,,,,,,,,,,,,,,,,,,,,,,,,,,,,,,,,,,,,,,,,,,,,,,,,,,,,,,,,,,,,,,,,,,,,,,,,,,,,,,,,,,,,,,,,,,,,,,,,,,,,,,,,,,,,,,,,,,,,,,,,,,,,,,,,,,,,,,,,,,,,,,,,,,,,,,,,,,,,,,,,,,,,,,,,,,,,,,,,,,
1764669527.119081,29787,1,4403.490234,4401.225098,4495.441406,4530.327637,4417.492676,4528.860352,4550.398926,4399.00293,4582.849121,4394.814941,4509.116699,4524.344727,4581.638184,4409.672363,4405.242188,4522.507324,4553.390137,4555.484375,4527.407227,4395.355957,4410.213867,4571.182129,4523.04834,4492.407227,4366.111328,4567.521484,4390.541504,4558.190918,4515.769043,4401.709473,4519.700684,4491.225098,0,0,3,0,0,,,,0,4,4,4,4,4,4,4,4,4,4,4,4,4,4,4,4,4,4,4,4,4,4,4,4,4,4,4,4,4,4,4,4,100,,,,,,,,,,,,,,,,,,,,,,,,,,,,,,,,,,,,,,,,,,,,,,,,,,,,,,,,,,,,,,,,,,,,,,,,,,,,,,,,,,,,,,,,,,,,,,,,,,,,,,,,,,,,,,,,,,,,,,,,,,,,,,,,,,,,,,,,,,,,,,,,,,,,,,,,,,,,,,,,,,,,,,,,,,,,,,,,,,,,,,,,,,,,,,,,,,,,,,,,,,,,,,
1764669527.122987,29788,1,4404.97168,4404.287598,4498.404785,4531.852051,4419.173828,4531.139648,4551.139648,4399.586914,4584.074219,4396.08252,4508.959961,4523.98877,4580.797852,4409.04541,4403.732422,4520.826172,4553.404785,4553.874512,4525.541504,4396.310547,4409.529785,4572.279297,4524.644043,4494.515625,4365.299316,4568.504395,4393.689453,4560.526855,4517.307617,4404.444336,4523.632324,4496.97998,0,0,3,0,0,,,,0,4,4,4,4,4,4,4,4,4,4,4,4,4,4,4,4,4,4,4,4,4,4,4,4,4,4,4,4,4,4,4,4,100,,,,,,,,,,,,,,,,,,,,,,,,,,,,,,,,,,,,,,,,,,,,,,,,,,,,,,,,,,,,,,,,,,,,,,,,,,,,,,,,,,,,,,,,,,,,,,,,,,,,,,,,,,,,,,,,,,,,,,,,,,,,,,,,,,,,,,,,,,,,,,,,,,,,,,,,,,,,,,,,,,,,,,,,,,,,,,,,,,,,,,,,,,,,,,,,,,,,,,,,,,,,,,
1764669527.126893,29789,1,4406.453125,4407.350586,4501.367676,4533.375977,4420.854492,4533.418945,4551.880371,4400.170898,4585.299316,4397.350586,4508.803223,4523.632324,4579.957031,4408.418945,4402.222168,4519.145508,4553.418945,4552.265137,4523.675293,4397.265137,4408.846191,4573.375977,4526.239258,4496.624023,4364.487305,4569.487305,4396.837402,4562.863281,4518.846191,4407.179688,4527.563965,4502.734863,0,0,3,0,0,,,,0,4,4,4,4,4,4,4,4,4,4,4,4,4,4,4,4,4,4,4,4,4,4,4,4,4,4,4,4,4,4,4,4,100,,,,,,,,,,,,,,,,,,,,,,,,,,,,,,,,,,,40214,1,0.467813,-0.400675,-0.246562,0.74821,0.899198,-0.443739,0.007,0.777778,38.166668,-22.888889,,,,,,,,,,,,,,,,,,,,,,,,,,,,,,,,,,,,,,,,,,,,,,,,,,,,,,,,,,,,,,,,,,,,,,,,,,,,,,,,,,,,,,,,,,,,,,,,,,,,,,,,,,,,,,,,,,,,,,,,,,,,,,,,,,,,,,,,,,,,,,,,,,,,,,,,,,,,,,,,
1764669527.130799,29790,1,4407.93457,4410.413086,4504.330566,4534.900391,4422.535645,4535.698242,4552.621094,4400.754883,4586.524414,4398.618164,4508.646484,4523.276367,4579.116699,4407.791992,4400.712402,4517.464355,4553.433105,4550.655273,4521.809082,4398.219238,4408.162598,4574.473145,4527.834961,4498.732422,4363.675293,4570.470215,4399.98584,4565.199219,4520.384766,4409.914551,4531.495605,4508.490234,0,0,3,0,0,,,,0,4,4,4,4,4,4,4,4,4,4,4,4,4,4,4,4,4,4,4,4,4,4,4,4,4,4,4,4,4,4,4,4,100,,,,,,,,,,,,,,,,,,,,,,,,,,,,,,,,,,,,,,,,,,,,,,,,,,,,,,,,,,,,,,,,,,,,,,,,,,,,,,,,,,,,,,,,,,,,,,,,,,,,,,,,,,,,,,,,,,,,,,,,,,,,,,,,,,,,,,,,,,,,,,,,,,,,,,,,,,,,,,,,,,,,,,,,,,,,,,,,,,,,,,,,,,,,,,,,,,,,,,,,,,,,,,
1764669527.134705,29791,1,4409.416016,4413.475586,4507.293457,4536.424316,4424.216309,4537.977051,4553.361816,4401.338867,4587.749512,4399.88623,4508.490234,4522.92041,4578.276367,4407.165039,4399.202148,4515.783691,4553.447266,4549.04541,4519.942871,4399.173828,4407.478516,4575.569824,4529.430176,4500.840332,4362.863281,4571.453125,4403.133789,4567.535645,4521.922852,4412.649414,4535.427246,4514.245117,0,0,3,0,0,,,,0,4,4,4,4,4,4,4,4,4,4,4,4,4,4,4,4,4,4,4,4,4,4,4,4,4,4,4,4,4,4,4,4,100,,,,,,,,,,,,,,,,,,,,,,,,,,,,,,,,,,,40215,1,0.46773,-0.400594,-0.246541,0.748311,0.895943,-0.44553,0.010092,0.555556,38.333332,-23.111111,,,,,,,,,,,,,,,,,,,,,,,,,,,,,,,,,,,,,,,,,,,,,,,,,,,,,,,,,,,,,,,,,,,,,,,,,,,,,,,,,,,,,,,,,,,,,,,,,,,,,,,,,,,,,,,,,,,,,,,,,,,,,,,,,,,,,,,,,,,,,,,,,,,,,,,,,,,,,,,,
1764669527.138611,29792,0,4410.897461,4416.538574,4510.256348,4537.94873,4425.897461,4540.256348,4554.102539,4401.922852,4588.974121,4401.153809,4508.333496,4522.563965,4577.436035,4406.538574,4397.692383,4514.102539,4553.461426,4547.436035,4518.077148,4400.128418,4406.794922,4576.666504,4531.025879,4502.94873,4362.05127,4572.436035,4406.282227,4569.871582,4523.461426,4415.384766,4539.358887,4520,2824,0,3,2566,12567,,,,0,4,4,4,4,4,4,4,4,4,4,4,4,4,4,4,4,4,4,4,4,4,4,4,4,4,4,4,4,4,4,4,4,100,,,,,,,,,,,,,,,,,,,,,,,,,,,,,,,,,,,,,,,,,,,,,,,,,,,,,,,,,,,,,,,,,,,,,,,,,,,,,,,,,,,,,,,,,,,,,,,,,,,,,,,,,,,,,,,,,,,,,,,,,,,,,,,,,,,,,,,,,,,,,,,,,,,,,,,,,,,,,,,,,,,,,,,,,,,,,,,,,,,,,,,,,,,,,,,,,,,,,,,,,,,,,,
1764669527.142517,29793,0,4406.922852,4414.743652,4511.282227,4539.102539,4426.538574,4536.922852,4551.025879,4405.256348,4585.641113,4396.025879,4504.358887,4520.256348,4574.230957,4406.282227,4397.94873,4510.897461,4550.769043,4543.717773,4515.384766,4396.666504,4402.820313,4574.743652,4527.692383,4500.897461,4372.563965,4570,4404.615234,4569.871582,4522.692383,4411.922852,4539.871582,4515.769043,2923,0,3,2566,12567,,,,0,4,4,4,4,4,4,4,4,4,4,4,4,4,4,4,4,4,4,4,4,4,4,4,4,4,4,4,4,4,4,4,4,100,,,,,,,,,,,,,,,,,,,,,,,,,,,,,,,,,,,40216,0,0.467648,-0.400513,-0.246521,0.748413,0.892687,-0.44732,0.013185,0.333333,38.5,-23.333334,,,,,,,,,,,,,,,,,,,,,,,,,,,,,,,,,,,,,,,,,,,,,,,,,,,,,,,,,,,,,,,,,,,,,,,,,,,,,,,,,,,,,,,,,,,,,,,,,,,,,,,,,,,,,,,,,,,,,,,,,,,,,,,,,,,,,,,,,,,,,,,,,,,,,,,,,,,,,,,,
1764669527.146423,29794,0,4405.256348,4413.846191,4514.102539,4539.358887,4427.307617,4535.384766,4549.102539,4406.282227,4581.922852,4397.05127,4503.077148,4520.256348,4575.384766,4407.820313,4403.974121,4516.538574,4552.179688,4548.205078,4520.512695,4396.282227,4402.563965,4573.846191,4527.05127,4502.179688,4404.102539,4571.410156,4401.025879,4569.102539,4522.820313,4408.589844,4541.153809,4511.922852,2707,0,3,2567,12575,,,,0,4,4,4,4,4,4,4,4,4,4,4,4,4,4,4,4,4,4,4,4,4,4,4,4,4,4,4,4,4,4,4,4,100,,,,,,,,,,,,,,,,,,,,,,,,,,,,,,,,,,,,,,,,,,,,,,,,,,,,,,,,,,,,,,,,,,,,,,,,,,,,,,,,,,,,,,,,,,,,,,,,,,,,,,,,,,,,,,,,,,,,,,,,,,,,,,,,,,,,,,,,,,,,,,,,,,,,,,,,,,,,,,,,,,,,,,,,,,,,,,,,,,,,,,,,,,,,,,,,,,,,,,,,,,,,,,
1764669527.150329,29795,0,4404.230957,4412.94873,4514.102539,4537.179688,4426.794922,4534.871582,4546.538574,4402.820313,4578.589844,4400.897461,4504.487305,4520.769043,4579.230957,4410.512695,4411.666504,4525.384766,4553.846191,4555,4528.589844,4397.436035,4405.256348,4572.436035,4526.794922,4503.333496,4431.025879,4572.307617,4394.615234,4565.384766,4522.563965,4403.717773,4537.307617,4508.717773,2858,0,3,2567,12575,,,,0,4,4,4,4,4,4,4,4,4,4,4,4,4,4,4,4,4,4,4,4,4,4,4,4,4,4,4,4,4,4,4,4,100,,,,,,,,,,,,,,,,,,,,,,,,,,,,,,,,,,,,,,,,,,,,,,,,,,,,,,,,,,,,,,,,,,,,,,,,,,,,,,,,,,,,,,,,,,,,,,,,,,,,,,,,,,,,,,,,,,,,,,,,,,,,,,,,,,,,,,,,,,,,,,,,,,,,,,,,,,,,,,,,,,,,,,,,,,,,,,,,,,,,,,,,,,,,,,,,,,,,,,,,,,,,,,
1764669527.154235,29796,0,4403.974121,4413.205078,4511.153809,4534.615234,4426.666504,4536.410156,4544.615234,4398.205078,4578.589844,4404.230957,4508.846191,4522.05127,4584.230957,4415.128418,4417.563965,4530.897461,4554.102539,4560.256348,4534.487305,4400,4410.128418,4571.666504,4526.666504,4503.461426,4435.256348,4571.922852,4388.077148,4561.410156,4522.94873,4399.358887,4528.717773,4508.974121,2754,0,3,2568,12583,,,,0,4,4,4,4,4,4,4,4,4,4,4,4,4,4,4,4,4,4,4,4,4,4,4,4,4,4,4,4,4,4,4,4,100,,,,,,,,,,,,,,,,,,,,,,,,,,,,,,,,,,,,,,,,,,,,,,,,,,,,,,,,,,,,,,,,,,,,,,,,,,,,,,,,,,,,,,,,,,,,,,,,,,,,,,,,,,,,,,,,,,,,,,,,,,,,,,,,,,,,,,,,,,,,,,,,,,,,,,,,,,,,,,,,,,,,,,,,,,,,,,,,,,,,,,,,,,,,,,,,,,,,,,,,,,,,,,
1764669527.158141,29797,0,4405.897461,4416.282227,4508.589844,4534.743652,4428.717773,4540.769043,4546.153809,4397.94873,4583.717773,4405.128418,4515.512695,4525.512695,4589.358887,4421.153809,4419.743652,4530.512695,4554.102539,4563.589844,4536.025879,4403.205078,4415.256348,4573.846191,4527.820313,4504.230957,4418.589844,4572.307617,4385.128418,4561.922852,4525,4398.333496,4521.538574,4513.205078,2838,0,3,2568,12583,,,,0,4,4,4,4,4,4,4,4,4,4,4,4,4,4,4,4,4,4,4,4,4,4,4,4,4,4,4,4,4,4,4,4,100,,,,,,,,,,,,,,,,,,,,,,,,,,,,,,,,,,,40217,0,0.467681,-0.400513,-0.246643,0.748352,0.898059,-0.441948,-0.00586,0.5,37.5,-22.666666,,,,,,,,,,,,,,,,,,,,,,,,,,,,,,,,,,,,,,,,,,,,,,,,,,,,,,,,,,,,,,,,,,,,,,,,,,,,,,,,,,,,,,,,,,,,,,,,,,,,,,,,,,,,,,,,,,,,,,,,,,,,,,,,,,,,,,,,,,,,,,,,,,,,,,,,,,,,,,,,
1764669527.162047,29798,0,4409.102539,4420.769043,4509.230957,4537.692383,4432.692383,4545.512695,4551.282227,4403.205078,4591.282227,4403.205078,4521.282227,4530.128418,4593.333496,4425.512695,4416.922852,4525.897461,4554.487305,4565,4533.333496,4404.487305,4416.794922,4578.333496,4529.871582,4506.410156,4397.563965,4574.871582,4385.512695,4567.436035,4527.692383,4400.897461,4519.871582,4517.820313,2816,0,3,2567,12591,,,,0,4,4,4,4,4,4,4,4,4,4,4,4,4,4,4,4,4,4,4,4,4,4,4,4,4,4,4,4,4,4,4,4,100,,,,,,,,,,,,,,,,,,,,,,,,,,,,,,,,,,,,,,,,,,,,,,,,,,,,,,,,,,,,,,,,,,,,,,,,,,,,,,,,,,,,,,,,,,,,,,,,,,,,,,,,,,,,,,,,,,,,,,,,,,,,,,,,,,,,,,,,,,,,,,,,,,,,,,,,,,,,,,,,,,,,,,,,,,,,,,,,,,,,,,,,,,,,,,,,,,,,,,,,,,,,,,
1764669527.165953,29799,0,4410.641113,4422.820313,4511.538574,4539.743652,4435.897461,4546.922852,4555.769043,4409.615234,4594.615234,4399.230957,4521.666504,4532.179688,4593.846191,4424.487305,4408.461426,4520.256348,4554.487305,4563.974121,4527.692383,4400.897461,4412.692383,4581.922852,4531.282227,4508.333496,4388.461426,4578.077148,4386.282227,4573.077148,4527.692383,4403.717773,4522.820313,4517.436035,2993,0,3,2567,12591,,,,0,4,4,4,4,4,4,4,4,4,4,4,4,4,4,4,4,4,4,4,4,4,4,4,4,4,4,4,4,4,4,4,4,100,,,,,,,,,,,,,,,,,,,,,,,,,,,,,,,,,,,,,,,,,,,,,,,,,,,,,,,,,,,,,,,,,,,,,,,,,,,,,,,,,,,,,,,,,,,,,,,,,,,,,,,,,,,,,,,,,,,,,,,,,,,,,,,,,,,,,,,,,,,,,,,,,,,,,,,,,,,,,,,,,,,,,,,,,,,,,,,,,,,,,,,,,,,,,,,,,,,,,,,,,,,,,,
1764669527.169859,29800,0,4408.205078,4419.871582,4512.692383,4537.94873,4436.282227,4543.205078,4555.256348,4411.794922,4589.743652,4394.487305,4515.128418,4529.102539,4589.743652,4416.922852,4396.922852,4516.153809,4552.692383,4558.974121,4521.153809,4392.692383,4404.358887,4581.794922,4529.871582,4507.563965,4395.769043,4578.333496,4385.256348,4573.205078,4523.974121,4403.461426,4526.538574,4510.641113,2912,0,3,2568,12598,,,,0,4,4,4,4,4,4,4,4,4,4,4,4,4,4,4,4,4,4,4,4,4,4,4,4,4,4,4,4,4,4,4,4,100,,,,,,,,,,,,,,,,,,,,,,,,,,,,,,,,,,,,,,,,,,,,,,,,,,,,,,,,,,,,,,,,,,,,,,,,,,,,,,,,,,,,,,,,,,,,,,,,,,,,,,,,,,,,,,,,,,,,,,,,,,,,,,,,,,,,,,,,,,,,,,,,,,,,,,,,,,,,,,,,,,,,,,,,,,,,,,,,,,,,,,,,,,,,,,,,,,,,,,,,,,,,,,
1764669527.173765,29801,0,4403.205078,4413.077148,4511.153809,4532.820313,4433.974121,4537.05127,4549.230957,4407.692383,4578.974121,4390.641113,4504.487305,4521.153809,4581.666504,4405.769043,4387.563965,4513.717773,4548.461426,4549.871582,4514.743652,4383.589844,4396.282227,4577.692383,4525.641113,4503.846191,4409.615234,4573.846191,4382.94873,4566.153809,4518.077148,4399.102539,4527.563965,4501.538574,2800,0,3,2568,12598,,,,0,4,4,4,4,4,4,4,4,4,4,4,4,4,4,4,4,4,4,4,4,4,4,4,4,4,4,4,4,4,4,4,4,100,,,,,,,,,,,,,,,,,,,,,,,,,,,,,,,,,,,40218,0,0.467662,-0.400574,-0.246765,0.748291,0.910267,-0.439507,-0.007325,0,37.833332,-22,,,,,,,,,,,,,,,,,,,,,,,,,,,,,,,,,,,,,,,,,,,,,,,,,,,,,,,,,,,,,,,,,,,,,,,,,,,,,,,,,,,,,,,,,,,,,,,,,,,,,,,,,,,,,,,,,,,,,,,,,,,,,,,,,,,,,,,,,,,,,,,,,,,,,,,,,,,,,,,,
1764669527.177671,29802,0,4398.461426,4406.538574,4507.563965,4527.179688,4430.512695,4532.179688,4540.897461,4399.615234,4569.230957,4388.974121,4495.769043,4512.436035,4572.179688,4395.897461,4385.128418,4511.282227,4542.436035,4538.077148,4509.102539,4377.94873,4391.922852,4571.025879,4520,4498.974121,4415.641113,4567.05127,4381.153809,4555.512695,4513.205078,4393.077148,4526.153809,4496.025879,2519,0,3,2569,12606,,,,0,4,4,4,4,4,4,4,4,4,4,4,4,4,4,4,4,4,4,4,4,4,4,4,4,4,4,4,4,4,4,4,4,100,,,,,,,,,,,,,,,,,,,,,,,,,,,,,,,,,,,,,,,,,,,,,,,,,,,,,,,,,,,,,,,,,,,,,,,,,,,,,,,,,,,,,,,,,,,,,,,,,,,,,,,,,,,,,,,,,,,,,,,,,,,,,,,,,,,,,,,,,,,,,,,,,,,,,,,,,,,,,,,,,,,,,,,,,,,,,,,,,,,,,,,,,,,,,,,,,,,,,,,,,,,,,,
1764669527.181577,29803,0,4396.025879,4403.717773,4504.230957,4523.461426,4426.794922,4530.897461,4534.487305,4391.794922,4566.794922,4390.256348,4493.333496,4506.922852,4564.615234,4390.769043,4389.102539,4507.692383,4535.769043,4527.05127,4505.128418,4378.077148,4391.538574,4564.358887,4515.128418,4495.641113,4406.922852,4562.05127,4381.666504,4546.794922,4511.666504,4388.974121,4524.102539,4496.538574,2738,0,3,2569,12606,,,,0,4,4,4,4,4,4,4,4,4,4,4,4,4,4,4,4,4,4,4,4,4,4,4,4,4,4,4,4,4,4,4,4,100,,,,,,,,,,,,,,,,,,,,,,,,,,,,,,,,,,,,,,,,,,,,,,,,,,,,,,,,,,,,,,,,,,,,,,,,,,,,,,,,,,,,,,,,,,,,,,,,,,,,,,,,,,,,,,,,,,,,,,,,,,,,,,,,,,,,,,,,,,,,,,,,,,,,,,,,,,,,,,,,,,,,,,,,,,,,,,,,,,,,,,,,,,,,,,,,,,,,,,,,,,,,,,
1764669527.185483,29804,0,4395.384766,4405.256348,4502.94873,4521.666504,4422.820313,4532.436035,4532.820313,4387.94873,4572.563965,4394.743652,4497.307617,4507.05127,4561.922852,4390.769043,4393.974121,4503.205078,4531.153809,4521.282227,4504.871582,4383.077148,4393.846191,4560.384766,4513.333496,4495.512695,4389.358887,4561.025879,4385.256348,4545,4513.461426,4389.230957,4523.461426,4500.512695,2483,0,3,2570,12614,,,,0,4,4,4,4,4,4,4,4,4,4,4,4,4,4,4,4,4,4,4,4,4,4,4,4,4,4,4,4,4,4,4,4,100,,,,,,,,,,,,,,,,,,,,,,,,,,,,,,,,,,,,,,,,,,,,,,,,,,,,,,,,,,,,,,,,,,,,,,,,,,,,,,,,,,,,,,,,,,,,,,,,,,,,,,,,,,,,,,,,,,,,,,,,,,,,,,,,,,,,,,,,,,,,,,,,,,,,,,,,,,,,,,,,,,,,,,,,,,,,,,,,,,,,,,,,,,,,,,,,,,,,,,,,,,,,,,
1764669527.189389,29805,0,4396.282227,4408.846191,4504.102539,4520.769043,4418.846191,4534.487305,4535.384766,4388.846191,4581.922852,4401.025879,4503.717773,4512.179688,4564.230957,4392.692383,4393.846191,4500.384766,4531.153809,4524.487305,4509.743652,4390.641113,4396.538574,4560.769043,4515.641113,4498.846191,4374.615234,4563.205078,4390.641113,4550.384766,4517.179688,4393.589844,4524.230957,4503.333496,2249,0,3,2570,12614,,,,0,4,4,4,4,4,4,4,4,4,4,4,4,4,4,4,4,4,4,4,4,4,4,4,4,4,4,4,4,4,4,4,4,100,,,,,,,,,,,,,,,,,,,,,,,,,,,,,,,,,,,40219,0,0.467571,-0.400757,-0.246826,0.74823,0.907337,-0.440972,-0.007325,1.166667,37.833332,-21.166666,,,,,,,,,,,,,,,,,,,,,,,,,,,,,,,,,,,,,,,,,,,,,,,,,,,,,,,,,,,,,,,,,,,,,,,,,,,,,,,,,,,,,,,,,,,,,,,,,,,,,,,,,,,,,,,,,,,,,,,,,,,,,,,,,,,,,,,,,,,,,,,,,,,,,,,,,,,,,,,,
1764669527.193295,29806,0,4398.846191,4411.666504,4506.666504,4520.512695,4416.410156,4535.769043,4539.743652,4392.436035,4588.077148,4406.666504,4507.820313,4519.615234,4569.615234,4393.717773,4388.205078,4502.436035,4536.794922,4536.282227,4518.974121,4397.820313,4398.846191,4566.153809,4521.153809,4503.974121,4369.487305,4566.025879,4395.512695,4559.487305,4520.641113,4399.871582,4525,4503.077148,2737,0,3,2571,12622,,,,0,4,4,4,4,4,4,4,4,4,4,4,4,4,4,4,4,4,4,4,4,4,4,4,4,4,4,4,4,4,4,4,4,100,,,,,,,,,,,,,,,,,,,,,,,,,,,,,,,,,,,,,,,,,,,,,,,,,,,,,,,,,,,,,,,,,,,,,,,,,,,,,,,,,,,,,,,,,,,,,,,,,,,,,,,,,,,,,,,,,,,,,,,,,,,,,,,,,,,,,,,,,,,,,,,,,,,,,,,,,,,,,,,,,,,,,,,,,,,,,,,,,,,,,,,,,,,,,,,,,,,,,,,,,,,,,,
1764669527.197201,29807,0,4403.461426,4413.461426,4509.230957,4522.05127,4417.692383,4537.05127,4543.846191,4396.538574,4587.94873,4409.102539,4507.94873,4526.666504,4574.871582,4393.589844,4382.436035,4510.512695,4546.538574,4551.922852,4529.487305,4402.94873,4400.897461,4574.743652,4527.820313,4508.717773,4371.922852,4568.077148,4397.307617,4567.307617,4522.692383,4404.871582,4524.358887,4501.538574,2449,0,3,2571,12622,,,,0,4,4,4,4,4,4,4,4,4,4,4,4,4,4,4,4,4,4,4,4,4,4,4,4,4,4,4,4,4,4,4,4,100,,,,,,,,,,,,,,,,,,,,,,,,,,,,,,,,,,,,,,,,,,,,,,,,,,,,,,,,,,,,,,,,,,,,,,,,,,,,,,,,,,,,,,,,,,,,,,,,,,,,,,,,,,,,,,,,,,,,,,,,,,,,,,,,,,,,,,,,,,,,,,,,,,,,,,,,,,,,,,,,,,,,,,,,,,,,,,,,,,,,,,,,,,,,,,,,,,,,,,,,,,,,,,
1764669527.201107,29808,1,4403.38623,4413.227539,4509.109863,4523.039063,4417.31543,4536.553711,4544.155273,4396.591309,4588.763184,4407.277344,4508.114746,4526.591309,4575.030273,4394.185547,4382.70752,4511.146484,4546.576172,4551.83252,4529.540039,4402.850586,4401.681641,4575.271484,4527.888184,4509.396484,4374.916992,4569.457031,4396.847656,4566.998535,4522.480957,4405.04541,4525.181152,4501.915527,0,0,3,0,0,,,,0,4,4,4,4,4,4,4,4,4,4,4,4,4,4,4,4,4,4,4,4,4,4,4,4,4,4,4,4,4,4,4,4,100,,,,,,,,,,,,,,,,,,,,,,,,,,,,,,,,,,,,,,,,,,,,,,,,,,,,,,,,,,,,,,,,,,,,,,,,,,,,,,,,,,,,,,,,,,,,,,,,,,,,,,,,,,,,,,,,,,,,,,,,,,,,,,,,,,,,,,,,,,,,,,,,,,,,,,,,,,,,,,,,,,,,,,,,,,,,,,,,,,,,,,,,,,,,,,,,,,,,,,,,,,,,,,
1764669527.205013,29809,1,4403.310547,4412.994141,4508.989258,4524.027344,4416.937988,4536.055664,4544.464355,4396.644043,4589.577637,4405.452637,4508.280762,4526.515625,4575.188477,4394.78125,4382.979004,4511.779785,4546.61377,4551.742188,4529.592773,4402.752441,4402.46582,4575.799316,4527.956055,4510.075195,4377.911133,4570.836914,4396.387695,4566.689453,4522.27002,4405.21875,4526.00293,4502.29248,0,0,3,0,0,,,,0,4,4,4,4,4,4,4,4,4,4,4,4,4,4,4,4,4,4,4,4,4,4,4,4,4,4,4,4,4,4,4,4,100,,,,,,,,,,,,,,,,,,,,,,,,,,,,,,,,,,,,,,,,,,,,,,,,,,,,,,,,,,,,,,,,,,,,,,,,,,,,,,,,,,,,,,,,,,,,,,,,,,,,,,,,,,,,,,,,,,,,,,,,,,,,,,,,,,,,,,,,,,,,,,,,,,,,,,,,,,,,,,,,,,,,,,,,,,,,,,,,,,,,,,,,,,,,,,,,,,,,,,,,,,,,,,
1764669527.208919,29810,1,4403.235352,4412.760254,4508.868652,4525.015137,4416.561035,4535.558105,4544.773926,4396.696777,4590.39209,4403.627441,4508.446289,4526.44043,4575.34668,4395.376953,4383.250488,4512.413086,4546.651367,4551.651367,4529.645508,4402.654785,4403.250488,4576.327148,4528.023926,4510.753906,4380.904785,4572.217285,4395.927734,4566.379883,4522.058594,4405.39209,4526.825195,4502.669922,0,0,3,0,0,,,,0,4,4,4,4,4,4,4,4,4,4,4,4,4,4,4,4,4,4,4,4,4,4,4,4,4,4,4,4,4,4,4,4,100,,,,,,,,,,,,,,,,,,,,,,,,,,,,,,,,,,,,,,,,,,,,,,,,,,,,,,,,,,,,,,,,,,,,,,,,,,,,,,,,,,,,,,,,,,,,,,,,,,,,,,,,,,,,,,,,,,,,,,,,,,,,,,,,,,,,,,,,,,,,,,,,,,,,,,,,,,,,,,,,,,,,,,,,,,,,,,,,,,,,,,,,,,,,,,,,,,,,,,,,,,,,,,
1764669527.212825,29811,1,4403.159668,4412.526367,4508.748047,4526.00293,4416.184082,4535.060547,4545.083008,4396.749512,4591.206543,4401.802246,4508.612305,4526.365234,4575.505371,4395.972656,4383.521973,4513.046875,4546.689453,4551.561035,4529.698242,4402.556641,4404.034668,4576.85498,4528.091797,4511.433105,4383.898926,4573.597168,4395.467773,4566.070801,4521.847656,4405.56543,4527.646973,4503.046875,0,0,3,0,0,,,,0,4,4,4,4,4,4,4,4,4,4,4,4,4,4,4,4,4,4,4,4,4,4,4,4,4,4,4,4,4,4,4,4,100,,,,,,,,,,,,,,,,,,,,,,,,,,,,,,,,,,,,,,,,,,,,,,,,,,,,,,,,,,,,,,,,,,,,,,,,,,,,,,,,,,,,,,,,,,,,,,,,,,,,,,,,,,,,,,,,,,,,,,,,,,,,,,,,,,,,,,,,,,,,,,,,,,,,,,,,,,,,,,,,,,,,,,,,,,,,,,,,,,,,,,,,,,,,,,,,,,,,,,,,,,,,,,
1764669527.216731,29812,1,4403.084473,4412.29248,4508.627441,4526.990723,4415.807129,4534.5625,4545.39209,4396.802246,4592.020996,4399.977539,4508.77832,4526.289551,4575.663574,4396.568848,4383.793457,4513.680176,4546.727051,4551.470703,4529.750977,4402.458496,4404.818848,4577.383301,4528.159668,4512.111816,4386.893066,4574.977539,4395.007324,4565.761719,4521.636719,4405.739258,4528.469238,4503.423828,0,0,3,0,0,,,,0,4,4,4,4,4,4,4,4,4,4,4,4,4,4,4,4,4,4,4,4,4,4,4,4,4,4,4,4,4,4,4,4,100,,,,,,,,,,,,,,,,,,,,,,,,,,,,,,,,,,,,,,,,,,,,,,,,,,,,,,,,,,,,,,,,,,,,,,,,,,,,,,,,,,,,,,,,,,,,,,,,,,,,,,,,,,,,,,,,,,,,,,,,,,,,,,,,,,,,,,,,,,,,,,,,,,,,,,,,,,,,,,,,,,,,,,,,,,,,,,,,,,,,,,,,,,,,,,,,,,,,,,,,,,,,,,
1764669527.220637,29813,1,4403.009277,4412.058594,4508.506836,4527.979004,4415.429688,4534.064941,4545.701172,4396.85498,4592.835449,4398.152344,4508.944336,4526.214355,4575.821777,4397.164551,4384.064941,4514.313965,4546.764648,4551.379883,4529.803711,4402.360352,4405.603516,4577.911133,4528.227539,4512.790527,4389.886719,4576.357422,4394.547363,4565.452637,4521.425293,4405.912598,4529.291016,4503.800781,0,0,3,0,0,,,,0,4,4,4,4,4,4,4,4,4,4,4,4,4,4,4,4,4,4,4,4,4,4,4,4,4,4,4,4,4,4,4,4,100,,,,,,,,,,,,,,,,,,,,,,,,,,,,,,,,,,,,,,,,,,,,,,,,,,,,,,,,,,,,,,,,,,,,,,,,,,,,,,,,,,,,,,,,,,,,,,,,,,,,,,,,,,,,,,,,,,,,,,,,,,,,,,,,,,,,,,,,,,,,,,,,,,,,,,,,,,,,,,,,,,,,,,,,,,,,,,,,,,,,,,,,,,,,,,,,,,,,,,,,,,,,,,
1764669527.224543,29814,1,4402.933594,4411.825195,4508.38623,4528.966797,4415.052734,4533.566895,4546.010742,4396.908203,4593.649902,4396.327148,4509.109863,4526.138672,4575.980469,4397.760254,4384.336426,4514.947266,4546.802246,4551.289551,4529.856934,4402.262207,4406.387695,4578.438965,4528.29541,4513.469238,4392.880859,4577.737793,4394.087402,4565.143066,4521.214355,4406.085938,4530.113281,4504.178223,0,0,3,0,0,,,,0,4,4,4,4,4,4,4,4,4,4,4,4,4,4,4,4,4,4,4,4,4,4,4,4,4,4,4,4,4,4,4,4,100,,,,,,,,,,,,,,,,,,,,,,,,,,,,,,,,,,,,,,,,,,,,,,,,,,,,,,,,,,,,,,,,,,,,,,,,,,,,,,,,,,,,,,,,,,,,,,,,,,,,,,,,,,,,,,,,,,,,,,,,,,,,,,,,,,,,,,,,,,,,,,,,,,,,,,,,,,,,,,,,,,,,,,,,,,,,,,,,,,,,,,,,,,,,,,,,,,,,,,,,,,,,,,
1764669527.228449,29815,1,4402.858398,4411.591309,4508.265625,4529.95459,4414.675781,4533.069336,4546.319824,4396.960938,4594.464355,4394.502441,4509.275879,4526.063477,4576.138672,4398.355957,4384.60791,4515.580566,4546.840332,4551.199219,4529.909668,4402.164551,4407.171875,4578.966797,4528.363281,4514.147949,4395.875,4579.117676,4393.627441,4564.833984,4521.00293,4406.259277,4530.935059,4504.555176,0,0,3,0,0,,,,0,4,4,4,4,4,4,4,4,4,4,4,4,4,4,4,4,4,4,4,4,4,4,4,4,4,4,4,4,4,4,4,4,100,,,,,,,,,,,,,,,,,,,,,,,,,,,,,,,,,,,,,,,,,,,,,,,,,,,,,,,,,,,,,,,,,,,,,,,,,,,,,,,,,,,,,,,,,,,,,,,,,,,,,,,,,,,,,,,,,,,,,,,,,,,,,,,,,,,,,,,,,,,,,,,,,,,,,,,,,,,,,,,,,,,,,,,,,,,,,,,,,,,,,,,,,,,,,,,,,,,,,,,,,,,,,,
1764669527.232355,29816,1,4402.782715,4411.357422,4508.14502,4530.942871,4414.298828,4532.571777,4546.628906,4397.013672,4595.278809,4392.677246,4509.441895,4525.987793,4576.297363,4398.95166,4384.879395,4516.214355,4546.87793,4551.108398,4529.962402,4402.066406,4407.956055,4579.494629,4528.431152,4514.82666,4398.868652,4580.497559,4393.16748,4564.524902,4520.791992,4406.433105,4531.757324,4504.932129,0,0,3,0,0,,,,0,4,4,4,4,4,4,4,4,4,4,4,4,4,4,4,4,4,4,4,4,4,4,4,4,4,4,4,4,4,4,4,4,100,,,,,,,,,,,,,,,,,,,,,,,,,,,,,,,,,,,,,,,,,,,,,,,2.645655,1.915285,1.052437,0.659384,0.546093,2.73192,1.925431,1.489754,0.751526,0.739672,4.999232,2.178656,1.770569,0.53529,0.800704,1.690116,1.790251,1.166519,0.623658,0.585941,2.72113,1.835368,1.499685,0.826137,0.550907,1.607631,2.382855,1.134368,0.808188,0.543616,1.439124,2.244003,0.515247,0.952001,0.513104,1.116888,2.180081,0.952933,0.844805,0.59233,1.28187,1.054105,0.856502,0.775046,0.72085,2.481055,1.79462,0.880308,1.427618,1.166066,1.299518,1.210339,0.397836,0.788268,0.474604,1.226784,1.184356,0.837858,0.930784,0.602441,1.456189,0.872641,0.416839,0.902819,0.63779,1.894063,0.528294,0.678664,0.690772,0.488219,1.403356,1.564939,1.108032,1.749751,0.886829,1.828697,2.858795,1.982759,2.758571,1.601135,1.152441,1.690998,0.665576,1.075348,0.772688,3.125731,2.372471,1.129019,2.876949,2.225659,1.454462,1.27898,0.560692,1.964818,1.583271,1.334124,1.707143,0.54251,0.78955,0.916441,2.267337,2.483617,2.106284,1.346753,1.257649,1.895467,1.776184,1.213049,1.951338,1.10657,2.202279,1.662769,1.066893,1.196773,0.661128,1.944898,2.444088,1.591187,1.737653,0.847389,4.058869,3.001875,4.02886,3.378768,1.724945,2.1498,2.151291,1.588893,0.934297,0.589789,2.251866,2.32972,1.20672,1.055471,0.682978,2.66817,2.287196,1.320426,1.047277,0.569925,1.487111,0.895252,0.61959,0.378683,0.291337,2.675958,1.417408,1.313274,0.862134,0.648425,3.273602,2.922875,2.076748,0.813351,0.782456,7.057006,3.392988,2.126153,0.726131,0.683113
1764669527.236261,29817,1,4402.70752,4411.123535,4508.023926,4531.930664,4413.921387,4532.07373,4546.937988,4397.066406,4596.09375,4390.852051,4509.60791,4525.912598,4576.455566,4399.547363,4385.150879,4516.847656,4546.915527,4551.018066,4530.015137,4401.968262,4408.740723,4580.022461,4528.499023,4515.505371,4401.862793,4581.87793,4392.70752,4564.21582,4520.580566,4406.606445,4532.579102,4505.309082,0,0,3,0,0,,,,0,4,4,4,4,4,4,4,4,4,4,4,4,4,4,4,4,4,4,4,4,4,4,4,4,4,4,4,4,4,4,4,4,100,,,,,,,,,,,,,,,,,,,,,,,,,,,,,,,,,,,40220,1,0.467459,-0.400879,-0.246729,0.748267,0.907923,-0.442046,0.00166,0.9,38.333332,-21.466667,,,,,,,,,,,,,,,,,,,,,,,,,,,,,,,,,,,,,,,,,,,,,,,,,,,,,,,,,,,,,,,,,,,,,,,,,,,,,,,,,,,,,,,,,,,,,,,,,,,,,,,,,,,,,,,,,,,,,,,,,,,,,,,,,,,,,,,,,,,,,,,,,,,,,,,,,,,,,,,,
1764669527.240167,29818,1,4402.631836,4410.890137,4507.90332,4532.918457,4413.544434,4531.576172,4547.247559,4397.119141,4596.908203,4389.027344,4509.773926,4525.836914,4576.61377,4400.143066,4385.422363,4517.480957,4546.953125,4550.927734,4530.067871,4401.870117,4409.524902,4580.550293,4528.566895,4516.184082,4404.856934,4583.257813,4392.247559,4563.90625,4520.369629,4406.779785,4533.401367,4505.686035,0,0,3,0,0,,,,0,4,4,4,4,4,4,4,4,4,4,4,4,4,4,4,4,4,4,4,4,4,4,4,4,4,4,4,4,4,4,4,4,100,,,,,,,,,,,,,,,,,,,,,,,,,,,,,,,,,,,,,,,,,,,,,,,,,,,,,,,,,,,,,,,,,,,,,,,,,,,,,,,,,,,,,,,,,,,,,,,,,,,,,,,,,,,,,,,,,,,,,,,,,,,,,,,,,,,,,,,,,,,,,,,,,,,,,,,,,,,,,,,,,,,,,,,,,,,,,,,,,,,,,,,,,,,,,,,,,,,,,,,,,,,,,,
1764669527.244073,29819,1,4402.556641,4410.65625,4507.782715,4533.90625,4413.16748,4531.078613,4547.556641,4397.171875,4597.722656,4387.202148,4509.939453,4525.761719,4576.772461,4400.739258,4385.693848,4518.114746,4546.990723,4550.836914,4530.120605,4401.772461,4410.309082,4581.078613,4528.634766,4516.862793,4407.850586,4584.638184,4391.787109,4563.597168,4520.158203,4406.953125,4534.223145,4506.063477,0,0,3,0,0,,,,0,4,4,4,4,4,4,4,4,4,4,4,4,4,4,4,4,4,4,4,4,4,4,4,4,4,4,4,4,4,4,4,4,100,,,,,,,,,,,,,,,,,,,,,,,,,,,,,,,,,,,40221,1,0.467347,-0.401001,-0.246631,0.748303,0.908509,-0.443121,0.010646,0.633333,38.833332,-21.766666,,,,,,,,,,,,,,,,,,,,,,,,,,,,,,,,,,,,,,,,,,,,,,,,,,,,,,,,,,,,,,,,,,,,,,,,,,,,,,,,,,,,,,,,,,,,,,,,,,,,,,,,,,,,,,,,,,,,,,,,,,,,,,,,,,,,,,,,,,,,,,,,,,,,,,,,,,,,,,,,
1764669527.247979,29820,1,4402.480957,4410.422363,4507.662109,4534.894531,4412.790527,4530.580566,4547.865723,4397.224609,4598.537109,4385.376953,4510.105469,4525.686035,4576.930664,4401.334961,4385.965332,4518.748047,4547.028809,4550.746582,4530.17334,4401.674316,4411.09375,4581.606445,4528.702637,4517.541504,4410.844727,4586.018066,4391.327148,4563.288086,4519.947266,4407.126465,4535.04541,4506.44043,0,0,3,0,0,,,,0,4,4,4,4,4,4,4,4,4,4,4,4,4,4,4,4,4,4,4,4,4,4,4,4,4,4,4,4,4,4,4,4,100,,,,,,,,,,,,,,,,,,,,,,,,,,,,,,,,,,,,,,,,,,,,,,,,,,,,,,,,,,,,,,,,,,,,,,,,,,,,,,,,,,,,,,,,,,,,,,,,,,,,,,,,,,,,,,,,,,,,,,,,,,,,,,,,,,,,,,,,,,,,,,,,,,,,,,,,,,,,,,,,,,,,,,,,,,,,,,,,,,,,,,,,,,,,,,,,,,,,,,,,,,,,,,
1764669527.251885,29821,1,4402.405762,4410.188477,4507.541504,4535.882324,4412.413086,4530.083008,4548.174805,4397.277344,4599.351563,4383.552246,4510.271484,4525.61084,4577.088867,4401.930664,4386.236816,4519.381836,4547.066406,4550.65625,4530.226074,4401.576172,4411.87793,4582.134277,4528.770508,4518.220215,4413.838379,4587.397949,4390.867188,4562.979004,4519.73584,4407.300293,4535.867188,4506.817383,0,0,3,0,0,,,,0,4,4,4,4,4,4,4,4,4,4,4,4,4,4,4,4,4,4,4,4,4,4,4,4,4,4,4,4,4,4,4,4,100,,,,,,,,,,,,,,,,,,,,,,,,,,,,,,,,,,,40222,1,0.467235,-0.401123,-0.246533,0.74834,0.909095,-0.444195,0.019631,0.366667,39.333332,-22.066668,,,,,,,,,,,,,,,,,,,,,,,,,,,,,,,,,,,,,,,,,,,,,,,,,,,,,,,,,,,,,,,,,,,,,,,,,,,,,,,,,,,,,,,,,,,,,,,,,,,,,,,,,,,,,,,,,,,,,,,,,,,,,,,,,,,,,,,,,,,,,,,,,,,,,,,,,,,,,,,,
1764669527.255791,29822,1,4402.330078,4409.95459,4507.420898,4536.870117,4412.036133,4529.585449,4548.484375,4397.330078,4600.166016,4381.727051,4510.4375,4525.535645,4577.247559,4402.526367,4386.508301,4520.015137,4547.104004,4550.56543,4530.278809,4401.478027,4412.662109,4582.662109,4528.838379,4518.898926,4416.83252,4588.77832,4390.407227,4562.669922,4519.524902,4407.473633,4536.689453,4507.194336,0,0,3,0,0,,,,0,4,4,4,4,4,4,4,4,4,4,4,4,4,4,4,4,4,4,4,4,4,4,4,4,4,4,4,4,4,4,4,4,100,,,,,,,,,,,,,,,,,,,,,,,,,,,,,,,,,,,,,,,,,,,,,,,,,,,,,,,,,,,,,,,,,,,,,,,,,,,,,,,,,,,,,,,,,,,,,,,,,,,,,,,,,,,,,,,,,,,,,,,,,,,,,,,,,,,,,,,,,,,,,,,,,,,,,,,,,,,,,,,,,,,,,,,,,,,,,,,,,,,,,,,,,,,,,,,,,,,,,,,,,,,,,,
1764669527.259698,29823,1,4402.254883,4409.721191,4507.300293,4537.858398,4411.65918,4529.087402,4548.793457,4397.383301,4600.980469,4379.901855,4510.603516,4525.459961,4577.405762,4403.12207,4386.779785,4520.648438,4547.141602,4550.475098,4530.332031,4401.379883,4413.446289,4583.189941,4528.90625,4519.577637,4419.82666,4590.158203,4389.947266,4562.360352,4519.313965,4407.646973,4537.51123,4507.571777,0,0,3,0,0,,,,0,4,4,4,4,4,4,4,4,4,4,4,4,4,4,4,4,4,4,4,4,4,4,4,4,4,4,4,4,4,4,4,4,100,,,,,,,,,,,,,,,,,,,,,,,,,,,,,,,,,,,40223,1,0.467124,-0.401245,-0.246436,0.748376,0.909681,-0.445269,0.028617,0.1,39.833332,-22.366667,,,,,,,,,,,,,,,,,,,,,,,,,,,,,,,,,,,,,,,,,,,,,,,,,,,,,,,,,,,,,,,,,,,,,,,,,,,,,,,,,,,,,,,,,,,,,,,,,,,,,,,,,,,,,,,,,,,,,,,,,,,,,,,,,,,,,,,,,,,,,,,,,,,,,,,,,,,,,,,,
1764669527.263604,29824,0,4402.179688,4409.487305,4507.179688,4538.846191,4411.282227,4528.589844,4549.102539,4397.436035,4601.794922,4378.077148,4510.769043,4525.384766,4577.563965,4403.717773,4387.05127,4521.282227,4547.179688,4550.384766,4530.384766,4401.282227,4414.230957,4583.717773,4528.974121,4520.256348,4422.820313,4591.538574,4389.487305,4562.05127,4519.102539,4407.820313,4538.333496,4507.94873,2836,0,3,2575,12692,,,,0,4,4,4,4,4,4,4,4,4,4,4,4,4,4,4,4,4,4,4,4,4,4,4,4,4,4,4,4,4,4,4,4,100,,,,,,,,,,,,,,,,,,,,,,,,,,,,,,,,,,,,,,,,,,,,,,,,,,,,,,,,,,,,,,,,,,,,,,,,,,,,,,,,,,,,,,,,,,,,,,,,,,,,,,,,,,,,,,,,,,,,,,,,,,,,,,,,,,,,,,,,,,,,,,,,,,,,,,,,,,,,,,,,,,,,,,,,,,,,,,,,,,,,,,,,,,,,,,,,,,,,,,,,,,,,,,
1764669527.267510,29825,0,4401.794922,4410.384766,4509.102539,4544.358887,4410.897461,4530.897461,4553.974121,4402.692383,4610.384766,4397.820313,4516.025879,4530.769043,4583.589844,4409.615234,4393.205078,4524.487305,4551.922852,4551.282227,4526.666504,4397.436035,4408.333496,4587.179688,4532.05127,4526.794922,4405.512695,4600.641113,4392.563965,4569.487305,4519.743652,4407.692383,4549.358887,4508.077148,2949,0,3,2575,12692,,,,0,4,4,4,4,4,4,4,4,4,4,4,4,4,4,4,4,4,4,4,4,4,4,4,4,4,4,4,4,4,4,4,4,100,,,,,,,,,,,,,,,,,,,,,,,,,,,,,,,,,,,40224,0,0.467012,-0.401367,-0.246338,0.748413,0.910267,-0.446344,0.037602,-0.166667,40.333332,-22.666666,,,,,,,,,,,,,,,,,,,,,,,,,,,,,,,,,,,,,,,,,,,,,,,,,,,,,,,,,,,,,,,,,,,,,,,,,,,,,,,,,,,,,,,,,,,,,,,,,,,,,,,,,,,,,,,,,,,,,,,,,,,,,,,,,,,,,,,,,,,,,,,,,,,,,,,,,,,,,,,,
1764669527.271416,29826,0,4398.333496,4403.846191,4506.153809,4539.743652,4402.692383,4528.205078,4553.589844,4402.820313,4609.615234,4413.077148,4514.871582,4529.871582,4585.384766,4410.512695,4397.820313,4522.94873,4552.563965,4552.05127,4524.487305,4395.641113,4401.282227,4586.538574,4529.871582,4528.205078,4393.717773,4599.230957,4393.461426,4571.666504,4518.077148,4402.692383,4550,4504.487305,2722,0,3,2570,12700,,,,0,4,4,4,4,4,4,4,4,4,4,4,4,4,4,4,4,4,4,4,4,4,4,4,4,4,4,4,4,4,4,4,4,100,,,,,,,,,,,,,,,,,,,,,,,,,,,,,,,,,,,,,,,,,,,,,,,,,,,,,,,,,,,,,,,,,,,,,,,,,,,,,,,,,,,,,,,,,,,,,,,,,,,,,,,,,,,,,,,,,,,,,,,,,,,,,,,,,,,,,,,,,,,,,,,,,,,,,,,,,,,,,,,,,,,,,,,,,,,,,,,,,,,,,,,,,,,,,,,,,,,,,,,,,,,,,,
1764669527.275322,29827,0,4392.563965,4392.692383,4498.333496,4526.282227,4390.769043,4520.128418,4547.307617,4395.256348,4600.128418,4416.794922,4509.230957,4522.436035,4581.538574,4406.666504,4397.94873,4518.461426,4547.436035,4551.794922,4525.641113,4395.256348,4394.358887,4581.794922,4523.205078,4523.846191,4393.461426,4590.384766,4391.538574,4566.666504,4514.487305,4393.974121,4540.256348,4498.205078,2873,0,3,2570,12700,,,,0,4,4,4,4,4,4,4,4,4,4,4,4,4,4,4,4,4,4,4,4,4,4,4,4,4,4,4,4,4,4,4,4,100,,,,,,,,,,,,,,,,,,,,,,,,,,,,,,,,,,,,,,,,,,,,,,,,,,,,,,,,,,,,,,,,,,,,,,,,,,,,,,,,,,,,,,,,,,,,,,,,,,,,,,,,,,,,,,,,,,,,,,,,,,,,,,,,,,,,,,,,,,,,,,,,,,,,,,,,,,,,,,,,,,,,,,,,,,,,,,,,,,,,,,,,,,,,,,,,,,,,,,,,,,,,,,
1764669527.279228,29828,0,4386.794922,4383.077148,4489.615234,4511.410156,4382.436035,4511.153809,4539.487305,4383.333496,4588.333496,4409.743652,4503.974121,4513.205078,4575,4402.179688,4394.871582,4514.102539,4539.615234,4550.512695,4529.102539,4395.256348,4389.871582,4574.743652,4515.641113,4515.641113,4403.205078,4580.897461,4388.461426,4557.94873,4510.512695,4385.769043,4526.922852,4492.436035,2777,0,3,2570,12708,,,,0,4,4,4,4,4,4,4,4,4,4,4,4,4,4,4,4,4,4,4,4,4,4,4,4,4,4,4,4,4,4,4,4,100,,,,,,,,,,,,,,,,,,,,,,,,,,,,,,,,,,,,,,,,,,,,,,,,,,,,,,,,,,,,,,,,,,,,,,,,,,,,,,,,,,,,,,,,,,,,,,,,,,,,,,,,,,,,,,,,,,,,,,,,,,,,,,,,,,,,,,,,,,,,,,,,,,,,,,,,,,,,,,,,,,,,,,,,,,,,,,,,,,,,,,,,,,,,,,,,,,,,,,,,,,,,,,
1764669527.283134,29829,0,4383.333496,4379.230957,4484.615234,4502.94873,4381.922852,4505.769043,4534.615234,4373.461426,4581.153809,4400.128418,4502.179688,4507.436035,4570.512695,4400.384766,4391.794922,4512.307617,4533.717773,4548.589844,4530.769043,4394.615234,4388.589844,4567.179688,4510.641113,4506.538574,4414.102539,4576.153809,4386.538574,4551.025879,4507.820313,4382.05127,4518.205078,4488.717773,2847,0,3,2570,12708,,,,0,4,4,4,4,4,4,4,4,4,4,4,4,4,4,4,4,4,4,4,4,4,4,4,4,4,4,4,4,4,4,4,4,100,,,,,,,,,,,,,,,,,,,,,,,,,,,,,,,,,,,40225,0,0.466934,-0.401611,-0.246643,0.74823,0.899524,-0.443902,0.027835,1.166667,37.833332,-20.833334,,,,,,,,,,,,,,,,,,,,,,,,,,,,,,,,,,,,,,,,,,,,,,,,,,,,,,,,,,,,,,,,,,,,,,,,,,,,,,,,,,,,,,,,,,,,,,,,,,,,,,,,,,,,,,,,,,,,,,,,,,,,,,,,,,,,,,,,,,,,,,,,,,,,,,,,,,,,,,,,
1764669527.287040,29830,0,4382.94873,4380.897461,4484.358887,4503.717773,4387.179688,4505.384766,4534.358887,4370.897461,4580.641113,4395.897461,4503.333496,4506.794922,4570.384766,4401.282227,4390.641113,4512.563965,4532.436035,4545.641113,4526.538574,4392.94873,4389.871582,4560.769043,4509.102539,4498.461426,4416.666504,4576.282227,4386.025879,4548.974121,4506.666504,4383.846191,4517.05127,4486.025879,2830,0,3,2571,12716,,,,0,4,4,4,4,4,4,4,4,4,4,4,4,4,4,4,4,4,4,4,4,4,4,4,4,4,4,4,4,4,4,4,4,100,,,,,,,,,,,,,,,,,,,,,,,,,,,,,,,,,,,,,,,,,,,,,,,,,,,,,,,,,,,,,,,,,,,,,,,,,,,,,,,,,,,,,,,,,,,,,,,,,,,,,,,,,,,,,,,,,,,,,,,,,,,,,,,,,,,,,,,,,,,,,,,,,,,,,,,,,,,,,,,,,,,,,,,,,,,,,,,,,,,,,,,,,,,,,,,,,,,,,,,,,,,,,,
1764669527.290946,29831,0,4383.974121,4384.102539,4486.922852,4510,4391.538574,4507.820313,4536.538574,4375.384766,4583.589844,4398.717773,4503.974121,4508.717773,4572.94873,4401.666504,4390.769043,4513.205078,4534.615234,4541.922852,4516.922852,4391.794922,4392.692383,4556.794922,4509.615234,4492.563965,4411.025879,4578.205078,4386.410156,4551.025879,4506.538574,4388.717773,4521.153809,4482.05127,3008,0,3,2571,12716,,,,0,4,4,4,4,4,4,4,4,4,4,4,4,4,4,4,4,4,4,4,4,4,4,4,4,4,4,4,4,4,4,4,4,100,,,,,,,,,,,,,,,,,,,,,,,,,,,,,,,,,,,,,,,,,,,,,,,,,,,,,,,,,,,,,,,,,,,,,,,,,,,,,,,,,,,,,,,,,,,,,,,,,,,,,,,,,,,,,,,,,,,,,,,,,,,,,,,,,,,,,,,,,,,,,,,,,,,,,,,,,,,,,,,,,,,,,,,,,,,,,,,,,,,,,,,,,,,,,,,,,,,,,,,,,,,,,,
1764669527.294852,29832,0,4384.871582,4385.384766,4488.846191,4515.256348,4390.256348,4510,4537.94873,4382.94873,4585.384766,4404.102539,4502.05127,4510.256348,4575.256348,4399.358887,4389.871582,4513.333496,4537.563965,4538.461426,4507.94873,4393.333496,4397.436035,4556.410156,4510.128418,4490.256348,4407.05127,4579.230957,4386.794922,4553.846191,4506.794922,4393.333496,4527.05127,4476.666504,2925,0,3,2572,12723,,,,0,4,4,4,4,4,4,4,4,4,4,4,4,4,4,4,4,4,4,4,4,4,4,4,4,4,4,4,4,4,4,4,4,100,,,,,,,,,,,,,,,,,,,,,,,,,,,,,,,,,,,,,,,,,,,,,,,,,,,,,,,,,,,,,,,,,,,,,,,,,,,,,,,,,,,,,,,,,,,,,,,,,,,,,,,,,,,,,,,,,,,,,,,,,,,,,,,,,,,,,,,,,,,,,,,,,,,,,,,,,,,,,,,,,,,,,,,,,,,,,,,,,,,,,,,,,,,,,,,,,,,,,,,,,,,,,,
1764669527.298758,29833,0,4385,4384.743652,4489.487305,4515,4384.871582,4510.641113,4537.692383,4388.974121,4583.974121,4405.384766,4498.333496,4510.512695,4575.128418,4395.256348,4387.179688,4513.974121,4539.102539,4538.333496,4506.410156,4398.205078,4404.230957,4559.615234,4510.256348,4491.922852,4412.94873,4578.974121,4387.307617,4554.871582,4507.179688,4396.282227,4532.436035,4473.077148,2817,0,3,2572,12723,,,,0,4,4,4,4,4,4,4,4,4,4,4,4,4,4,4,4,4,4,4,4,4,4,4,4,4,4,4,4,4,4,4,4,100,,,,,,,,,,,,,,,,,,,,,,,,,,,,,,,,,,,40226,0,0.466857,-0.401855,-0.247131,0.747986,0.916616,-0.447809,0.002442,1.333333,36,-21.833334,,,,,,,,,,,,,,,,,,,,,,,,,,,,,,,,,,,,,,,,,,,,,,,,,,,,,,,,,,,,,,,,,,,,,,,,,,,,,,,,,,,,,,,,,,,,,,,,,,,,,,,,,,,,,,,,,,,,,,,,,,,,,,,,,,,,,,,,,,,,,,,,,,,,,,,,,,,,,,,,
1764669527.302664,29834,0,4385.128418,4383.717773,4488.974121,4509.743652,4381.025879,4510.128418,4536.538574,4391.282227,4580.769043,4399.102539,4495.769043,4510.256348,4573.077148,4392.179688,4384.871582,4516.410156,4538.717773,4542.820313,4513.974121,4403.461426,4411.025879,4564.230957,4510.256348,4496.538574,4424.230957,4578.077148,4387.94873,4553.589844,4507.563965,4396.794922,4536.153809,4474.743652,2538,0,3,2573,12731,,,,0,4,4,4,4,4,4,4,4,4,4,4,4,4,4,4,4,4,4,4,4,4,4,4,4,4,4,4,4,4,4,4,4,100,,,,,,,,,,,,,,,,,,,,,,,,,,,,,,,,,,,,,,,,,,,,,,,,,,,,,,,,,,,,,,,,,,,,,,,,,,,,,,,,,,,,,,,,,,,,,,,,,,,,,,,,,,,,,,,,,,,,,,,,,,,,,,,,,,,,,,,,,,,,,,,,,,,,,,,,,,,,,,,,,,,,,,,,,,,,,,,,,,,,,,,,,,,,,,,,,,,,,,,,,,,,,,
1764669527.306570,29835,0,4385.897461,4384.615234,4487.820313,4504.102539,4382.820313,4510.512695,4536.410156,4390.384766,4578.461426,4387.820313,4496.666504,4511.025879,4571.153809,4391.922852,4385.769043,4520.256348,4537.436035,4549.615234,4525.128418,4404.102539,4414.230957,4567.179688,4510.769043,4500.512695,4425.512695,4576.794922,4388.589844,4551.538574,4508.077148,4395.256348,4537.436035,4481.666504,2757,0,3,2573,12731,,,,0,4,4,4,4,4,4,4,4,4,4,4,4,4,4,4,4,4,4,4,4,4,4,4,4,4,4,4,4,4,4,4,4,100,,,,,,,,,,,,,,,,,,,,,,,,,,,,,,,,,,,,,,,,,,,,,,,,,,,,,,,,,,,,,,,,,,,,,,,,,,,,,,,,,,,,,,,,,,,,,,,,,,,,,,,,,,,,,,,,,,,,,,,,,,,,,,,,,,,,,,,,,,,,,,,,,,,,,,,,,,,,,,,,,,,,,,,,,,,,,,,,,,,,,,,,,,,,,,,,,,,,,,,,,,,,,,
1764669527.310476,29836,0,4387.94873,4387.94873,4485.641113,4502.692383,4389.487305,4512.692383,4538.077148,4388.974121,4578.974121,4378.589844,4501.666504,4513.589844,4572.05127,4393.846191,4390.897461,4523.205078,4537.820313,4554.358887,4531.794922,4397.94873,4411.410156,4566.922852,4512.436035,4501.410156,4405.256348,4574.102539,4389.487305,4550.641113,4509.358887,4392.692383,4535.128418,4489.871582,2493,0,3,2574,12739,,,,0,4,4,4,4,4,4,4,4,4,4,4,4,4,4,4,4,4,4,4,4,4,4,4,4,4,4,4,4,4,4,4,4,100,,,,,,,,,,,,,,,,,,,,,,,,,,,,,,,,,,,,,,,,,,,,,,,,,,,,,,,,,,,,,,,,,,,,,,,,,,,,,,,,,,,,,,,,,,,,,,,,,,,,,,,,,,,,,,,,,,,,,,,,,,,,,,,,,,,,,,,,,,,,,,,,,,,,,,,,,,,,,,,,,,,,,,,,,,,,,,,,,,,,,,,,,,,,,,,,,,,,,,,,,,,,,,
1764669527.314382,29837,0,4391.153809,4391.922852,4481.922852,4506.666504,4396.410156,4516.282227,4540.641113,4388.846191,4581.794922,4378.077148,4508.205078,4517.692383,4576.153809,4395.641113,4396.922852,4523.077148,4541.025879,4552.94873,4529.487305,4387.692383,4404.487305,4564.615234,4515,4499.102539,4368.846191,4569.743652,4390.641113,4551.922852,4511.282227,4390.641113,4529.358887,4493.974121,2262,0,3,2574,12739,,,,0,4,4,4,4,4,4,4,4,4,4,4,4,4,4,4,4,4,4,4,4,4,4,4,4,4,4,4,4,4,4,4,4,100,,,,,,,,,,,,,,,,,,,,,,,,,,,,,,,,,,,40227,0,0.466664,-0.401855,-0.247681,0.747925,0.897082,-0.449274,0.00586,1,39.166668,-21.333334,,,,,,,,,,,,,,,,,,,,,,,,,,,,,,,,,,,,,,,,,,,,,,,,,,,,,,,,,,,,,,,,,,,,,,,,,,,,,,,,,,,,,,,,,,,,,,,,,,,,,,,,,,,,,,,,,,,,,,,,,,,,,,,,,,,,,,,,,,,,,,,,,,,,,,,,,,,,,,,,
1764669527.318288,29838,0,4394.871582,4394.102539,4477.563965,4513.333496,4398.974121,4519.615234,4542.436035,4389.487305,4584.102539,4387.436035,4512.179688,4521.282227,4581.282227,4395.512695,4399.358887,4519.871582,4545.897461,4546.153809,4519.871582,4378.974121,4397.307617,4562.563965,4517.179688,4495.769043,4338.077148,4565.384766,4391.794922,4553.974121,4513.077148,4390,4522.563965,4491.794922,2748,0,3,2575,12747,,,,0,4,4,4,4,4,4,4,4,4,4,4,4,4,4,4,4,4,4,4,4,4,4,4,4,4,4,4,4,4,4,4,4,100,,,,,,,,,,,,,,,,,,,,,,,,,,,,,,,,,,,,,,,,,,,,,,,,,,,,,,,,,,,,,,,,,,,,,,,,,,,,,,,,,,,,,,,,,,,,,,,,,,,,,,,,,,,,,,,,,,,,,,,,,,,,,,,,,,,,,,,,,,,,,,,,,,,,,,,,,,,,,,,,,,,,,,,,,,,,,,,,,,,,,,,,,,,,,,,,,,,,,,,,,,,,,,
1764669527.322194,29839,0,4397.307617,4393.974121,4474.615234,4518.717773,4396.794922,4521.666504,4541.922852,4389.102539,4583.717773,4400.128418,4511.410156,4522.436035,4583.461426,4393.974121,4396.410156,4516.410156,4549.487305,4538.077148,4509.230957,4375.897461,4393.461426,4561.666504,4517.692383,4493.974121,4334.871582,4563.974121,4392.563965,4555,4513.717773,4391.282227,4518.589844,4486.666504,2460,0,3,2575,12747,,,,0,4,4,4,4,4,4,4,4,4,4,4,4,4,4,4,4,4,4,4,4,4,4,4,4,4,4,4,4,4,4,4,4,100,,,,,,,,,,,,,,,,,,,,,,,,,,,,,,,,,,,,,,,,,,,,,,,,,,,,,,,,,,,,,,,,,,,,,,,,,,,,,,,,,,,,,,,,,,,,,,,,,,,,,,,,,,,,,,,,,,,,,,,,,,,,,,,,,,,,,,,,,,,,,,,,,,,,,,,,,,,,,,,,,,,,,,,,,,,,,,,,,,,,,,,,,,,,,,,,,,,,,,,,,,,,,,
1764669527.326100,29840,1,4396.436035,4397.025879,4483.743652,4519.333496,4398.282227,4522.871582,4541.128418,4389.358887,4583.153809,4393.205078,4509.102539,4520.794922,4579.922852,4395.025879,4393.641113,4514.384766,4547.641113,4537.333496,4510.205078,4379.384766,4396.871582,4563.256348,4517.922852,4495.025879,4350.436035,4569.230957,4393.512695,4556.846191,4514.769043,4396.436035,4526.589844,4496.769043,2886,0,3,0,0,,,,0,4,4,4,4,4,4,4,4,4,4,4,4,4,4,4,4,4,4,4,4,4,4,4,4,4,4,4,4,4,4,4,4,100,,,,,,,,,,,,,,,,,,,,,,,,,,,,,,,,,,,,,,,,,,,,,,,,,,,,,,,,,,,,,,,,,,,,,,,,,,,,,,,,,,,,,,,,,,,,,,,,,,,,,,,,,,,,,,,,,,,,,,,,,,,,,,,,,,,,,,,,,,,,,,,,,,,,,,,,,,,,,,,,,,,,,,,,,,,,,,,,,,,,,,,,,,,,,,,,,,,,,,,,,,,,,,
1764669527.330006,29841,1,4395.563965,4400.077148,4492.871582,4519.94873,4399.769043,4524.077148,4540.333496,4389.615234,4582.589844,4386.282227,4506.794922,4519.153809,4576.384766,4396.077148,4390.871582,4512.358887,4545.794922,4536.589844,4511.179688,4382.871582,4400.282227,4564.846191,4518.153809,4496.077148,4366,4574.487305,4394.461426,4558.692383,4515.820313,4401.589844,4534.589844,4506.871582,2895,0,3,0,0,,,,0,4,4,4,4,4,4,4,4,4,4,4,4,4,4,4,4,4,4,4,4,4,4,4,4,4,4,4,4,4,4,4,4,100,,,,,,,,,,,,,,,,,,,,,,,,,,,,,,,,,,,,,,,,,,,,,,,,,,,,,,,,,,,,,,,,,,,,,,,,,,,,,,,,,,,,,,,,,,,,,,,,,,,,,,,,,,,,,,,,,,,,,,,,,,,,,,,,,,,,,,,,,,,,,,,,,,,,,,,,,,,,,,,,,,,,,,,,,,,,,,,,,,,,,,,,,,,,,,,,,,,,,,,,,,,,,,
1764669527.333912,29842,1,4394.692383,4403.128418,4502,4520.563965,4401.256348,4525.282227,4539.538574,4389.871582,4582.025879,4379.358887,4504.487305,4517.512695,4572.846191,4397.128418,4388.102539,4510.333496,4543.94873,4535.846191,4512.153809,4386.358887,4403.692383,4566.436035,4518.384766,4497.128418,4381.563965,4579.743652,4395.410156,4560.538574,4516.871582,4406.743652,4542.589844,4516.974121,1774,0,3,0,0,,,,0,4,4,4,4,4,4,4,4,4,4,4,4,4,4,4,4,4,4,4,4,4,4,4,4,4,4,4,4,4,4,4,4,100,,,,,,,,,,,,,,,,,,,,,,,,,,,,,,,,,,,,,,,,,,,,,,,,,,,,,,,,,,,,,,,,,,,,,,,,,,,,,,,,,,,,,,,,,,,,,,,,,,,,,,,,,,,,,,,,,,,,,,,,,,,,,,,,,,,,,,,,,,,,,,,,,,,,,,,,,,,,,,,,,,,,,,,,,,,,,,,,,,,,,,,,,,,,,,,,,,,,,,,,,,,,,,
1764669527.337818,29843,1,4393.820313,4406.179688,4511.128418,4521.179688,4402.743652,4526.487305,4538.743652,4390.128418,4581.461426,4372.436035,4502.179688,4515.871582,4569.307617,4398.179688,4385.333496,4508.307617,4542.102539,4535.102539,4513.128418,4389.846191,4407.102539,4568.025879,4518.615234,4498.179688,4397.128418,4585,4396.358887,4562.384766,4517.922852,4411.897461,4550.589844,4527.077148,2734,0,3,0,0,,,,0,4,4,4,4,4,4,4,4,4,4,4,4,4,4,4,4,4,4,4,4,4,4,4,4,4,4,4,4,4,4,4,4,100,,,,,,,,,,,,,,,,,,,,,,,,,,,,,,,,,,,40228,1,0.466152,-0.402374,-0.248627,0.74765,0.893664,-0.447809,-0.00586,2.416667,39.333332,-21.583334,,,,,,,,,,,,,,,,,,,,,,,,,,,,,,,,,,,,,,,,,,,,,,,,,,,,,,,,,,,,,,,,,,,,,,,,,,,,,,,,,,,,,,,,,,,,,,,,,,,,,,,,,,,,,,,,,,,,,,,,,,,,,,,,,,,,,,,,,,,,,,,,,,,,,,,,,,,,,,,,
1764669527.341724,29844,0,4392.94873,4409.230957,4520.256348,4521.794922,4404.230957,4527.692383,4537.94873,4390.384766,4580.897461,4365.512695,4499.871582,4514.230957,4565.769043,4399.230957,4382.563965,4506.282227,4540.256348,4534.358887,4514.102539,4393.333496,4410.512695,4569.615234,4518.846191,4499.230957,4412.692383,4590.256348,4397.307617,4564.230957,4518.974121,4417.05127,4558.589844,4537.179688,2605,0,3,2576,12770,,,,0,4,4,4,4,4,4,4,4,4,4,4,4,4,4,4,4,4,4,4,4,4,4,4,4,4,4,4,4,4,4,4,4,100,,,,,,,,,,,,,,,,,,,,,,,,,,,,,,,,,,,,,,,,,,,,,,,,,,,,,,,,,,,,,,,,,,,,,,,,,,,,,,,,,,,,,,,,,,,,,,,,,,,,,,,,,,,,,,,,,,,,,,,,,,,,,,,,,,,,,,,,,,,,,,,,,,,,,,,,,,,,,,,,,,,,,,,,,,,,,,,,,,,,,,,,,,,,,,,,,,,,,,,,,,,,,,
1764669527.345630,29845,0,4396.666504,4416.153809,4524.102539,4523.077148,4407.94873,4531.153809,4538.333496,4392.436035,4577.94873,4377.179688,4501.794922,4518.077148,4569.615234,4394.615234,4375.769043,4497.820313,4545.512695,4532.05127,4513.077148,4389.871582,4401.410156,4575.641113,4524.615234,4506.282227,4395,4586.794922,4400.256348,4570.769043,4522.307617,4420.512695,4557.179688,4541.922852,2836,0,3,2576,12770,,,,0,4,4,4,4,4,4,4,4,4,4,4,4,4,4,4,4,4,4,4,4,4,4,4,4,4,4,4,4,4,4,4,4,100,,,,,,,,,,,,,,,,,,,,,,,,,,,,,,,,,,,40229,0,0.46564,-0.402893,-0.249573,0.747375,0.890245,-0.446344,-0.01758,3.833333,39.5,-21.833334,,,,,,,,,,,,,,,,,,,,,,,,,,,,,,,,,,,,,,,,,,,,,,,,,,,,,,,,,,,,,,,,,,,,,,,,,,,,,,,,,,,,,,,,,,,,,,,,,,,,,,,,,,,,,,,,,,,,,,,,,,,,,,,,,,,,,,,,,,,,,,,,,,,,,,,,,,,,,,,,
1764669527.349536,29846,0,4403.077148,4422.563965,4523.846191,4522.692383,4409.743652,4536.410156,4540,4391.666504,4573.974121,4395.769043,4502.05127,4522.563965,4573.077148,4390.641113,4369.230957,4494.871582,4552.179688,4532.05127,4512.820313,4387.563965,4387.307617,4580.256348,4530.256348,4517.307617,4397.436035,4584.743652,4404.230957,4575.256348,4526.538574,4424.487305,4555.128418,4542.436035,2938,0,3,2576,12778,,,,0,4,4,4,4,4,4,4,4,4,4,4,4,4,4,4,4,4,4,4,4,4,4,4,4,4,4,4,4,4,4,4,4,100,,,,,,,,,,,,,,,,,,,,,,,,,,,,,,,,,,,,,,,,,,,,,,,,,,,,,,,,,,,,,,,,,,,,,,,,,,,,,,,,,,,,,,,,,,,,,,,,,,,,,,,,,,,,,,,,,,,,,,,,,,,,,,,,,,,,,,,,,,,,,,,,,,,,,,,,,,,,,,,,,,,,,,,,,,,,,,,,,,,,,,,,,,,,,,,,,,,,,,,,,,,,,,
1764669527.353442,29847,0,4409.743652,4427.307617,4522.94873,4520.769043,4410.512695,4541.922852,4542.820313,4388.461426,4571.025879,4411.025879,4500.512695,4525.128418,4574.102539,4391.282227,4367.563965,4499.230957,4556.282227,4535,4513.717773,4387.692383,4374.230957,4581.025879,4533.461426,4527.179688,4417.05127,4585.384766,4408.717773,4576.153809,4530.641113,4429.358887,4556.025879,4543.974121,2867,0,3,2576,12778,,,,0,4,4,4,4,4,4,4,4,4,4,4,4,4,4,4,4,4,4,4,4,4,4,4,4,4,4,4,4,4,4,4,4,100,,,,,,,,,,,,,,,,,,,,,,,,,,,,,,,,,,,,,,,,,,,,,,,,,,,,,,,,,,,,,,,,,,,,,,,,,,,,,,,,,,,,,,,,,,,,,,,,,,,,,,,,,,,,,,,,,,,,,,,,,,,,,,,,,,,,,,,,,,,,,,,,,,,,,,,,,,,,,,,,,,,,,,,,,,,,,,,,,,,,,,,,,,,,,,,,,,,,,,,,,,,,,,
1764669527.357348,29848,0,4413.717773,4429.487305,4523.589844,4518.717773,4411.794922,4545,4546.025879,4385.512695,4571.025879,4415.128418,4498.461426,4524.743652,4572.94873,4396.410156,4372.307617,4508.333496,4556.153809,4539.871582,4515.384766,4389.358887,4368.846191,4578.205078,4533.589844,4530.128418,4436.282227,4587.692383,4412.05127,4574.230957,4533.077148,4433.717773,4560.128418,4548.717773,2754,0,3,2576,12786,,,,0,4,4,4,4,4,4,4,4,4,4,4,4,4,4,4,4,4,4,4,4,4,4,4,4,4,4,4,4,4,4,4,4,100,,,,,,,,,,,,,,,,,,,,,,,,,,,,,,,,,,,,,,,,,,,,,,,2.471176,1.640107,0.945558,0.638661,0.460959,3.182366,1.750584,1.541813,0.742155,0.632517,6.520611,2.177155,1.829594,0.500981,0.691556,2.087947,1.456013,1.205764,0.580136,0.547562,3.020717,1.706804,1.644096,0.794495,0.463387,1.724676,2.150473,1.098892,0.815358,0.478038,1.569962,1.989318,0.519076,0.90051,0.44515,1.126913,1.789023,0.92629,0.793347,0.536597,1.545902,0.900933,0.934583,0.706369,0.618674,3.064518,2.456402,1.20171,1.387635,1.045793,1.12182,1.007535,0.385321,0.715293,0.417371,1.22508,1.055827,0.724733,0.883189,0.498878,1.7173,0.831072,0.399158,0.863823,0.511588,2.258467,0.620631,0.638537,0.647752,0.425381,1.413955,1.688274,1.107468,1.828872,0.867705,2.04662,3.137622,2.395953,3.095913,1.724669,1.240363,1.681078,0.662316,1.061723,0.686268,3.545814,2.670787,1.335433,3.126265,2.295391,1.788922,1.433171,0.622049,2.070089,1.634368,1.612422,1.464413,0.627573,0.838416,0.891598,2.897166,2.143211,2.225211,1.447057,1.155925,2.159526,1.849132,1.281426,1.871916,0.996773,2.083736,1.595023,1.031479,1.167799,0.589022,2.215477,2.255211,1.64404,1.672723,0.755085,5.013118,2.031722,3.750719,3.225359,1.47318,2.169854,1.779071,1.506435,0.881829,0.53689,2.672614,1.929713,1.229959,0.916949,0.611404,2.884017,2.249354,1.338764,0.980011,0.504627,1.406244,0.834322,0.649555,0.379041,0.252518,3.328718,1.27075,1.307957,0.770322,0.560233,3.645302,2.475776,1.877946,0.748647,0.717399,8.635898,3.159895,2.243912,0.751171,0.627374
1764669527.361254,29849,0,4414.615234,4429.615234,4526.922852,4518.974121,4414.871582,4545.256348,4549.230957,4386.666504,4574.615234,4407.820313,4497.692383,4522.820313,4572.94873,4403.717773,4381.282227,4517.820313,4553.974121,4546.025879,4518.461426,4392.307617,4376.025879,4575.512695,4532.563965,4526.025879,4441.282227,4590.641113,4413.461426,4572.307617,4533.461426,4437.179688,4565.128418,4555.769043,2905,0,3,2576,12786,,,,0,4,4,4,4,4,4,4,4,4,4,4,4,4,4,4,4,4,4,4,4,4,4,4,4,4,4,4,4,4,4,4,4,100,,,,,,,,,,,,,,,,,,,,,,,,,,,,,,,,,,,40230,0,0.465765,-0.40271,-0.249817,0.747314,0.890245,-0.446344,-0.01758,2.5,39.166668,-24.333334,,,,,,,,,,,,,,,,,,,,,,,,,,,,,,,,,,,,,,,,,,,,,,,,,,,,,,,,,,,,,,,,,,,,,,,,,,,,,,,,,,,,,,,,,,,,,,,,,,,,,,,,,,,,,,,,,,,,,,,,,,,,,,,,,,,,,,,,,,,,,,,,,,,,,,,,,,,,,,,,
1764669527.365160,29850,0,4415.384766,4430.128418,4533.205078,4523.589844,4420.384766,4545.384766,4553.461426,4393.974121,4581.538574,4395.769043,4500.256348,4523.461426,4577.563965,4409.871582,4390,4524.871582,4554.487305,4554.615234,4525.769043,4397.820313,4396.153809,4578.077148,4533.717773,4520.256348,4434.743652,4595.384766,4413.717773,4573.461426,4533.717773,4440.128418,4568.974121,4562.820313,1839,0,3,2576,12794,,,,0,4,4,4,4,4,4,4,4,4,4,4,4,4,4,4,4,4,4,4,4,4,4,4,4,4,4,4,4,4,4,4,4,100,,,,,,,,,,,,,,,,,,,,,,,,,,,,,,,,,,,,,,,,,,,,,,,,,,,,,,,,,,,,,,,,,,,,,,,,,,,,,,,,,,,,,,,,,,,,,,,,,,,,,,,,,,,,,,,,,,,,,,,,,,,,,,,,,,,,,,,,,,,,,,,,,,,,,,,,,,,,,,,,,,,,,,,,,,,,,,,,,,,,,,,,,,,,,,,,,,,,,,,,,,,,,,
1764669527.369066,29851,0,4418.461426,4432.692383,4541.025879,4531.538574,4426.922852,4548.205078,4558.974121,4405.384766,4590.128418,4387.563965,4506.282227,4528.717773,4585.769043,4412.820313,4395.128418,4529.743652,4559.743652,4564.871582,4537.179688,4406.666504,4422.692383,4587.05127,4538.333496,4518.717773,4429.615234,4602.563965,4414.487305,4578.205078,4535.641113,4443.461426,4571.666504,4568.333496,2448,0,3,2576,12794,,,,0,4,4,4,4,4,4,4,4,4,4,4,4,4,4,4,4,4,4,4,4,4,4,4,4,4,4,4,4,4,4,4,4,100,,,,,,,,,,,,,,,,,,,,,,,,,,,,,,,,,,,,,,,,,,,,,,,,,,,,,,,,,,,,,,,,,,,,,,,,,,,,,,,,,,,,,,,,,,,,,,,,,,,,,,,,,,,,,,,,,,,,,,,,,,,,,,,,,,,,,,,,,,,,,,,,,,,,,,,,,,,,,,,,,,,,,,,,,,,,,,,,,,,,,,,,,,,,,,,,,,,,,,,,,,,,,,
1764669527.372972,29852,0,4422.692383,4436.025879,4546.922852,4538.717773,4430.256348,4552.820313,4563.717773,4414.230957,4596.153809,4386.922852,4512.307617,4536.025879,4592.307617,4411.666504,4396.666504,4533.589844,4566.410156,4572.436035,4547.05127,4416.282227,4442.692383,4597.307617,4543.205078,4522.307617,4433.077148,4609.871582,4415.897461,4583.205078,4538.461426,4445.769043,4573.461426,4570.641113,2684,0,3,2576,12801,,,,0,4,4,4,4,4,4,4,4,4,4,4,4,4,4,4,4,4,4,4,4,4,4,4,4,4,4,4,4,4,4,4,4,100,,,,,,,,,,,,,,,,,,,,,,,,,,,,,,,,,,,,,,,,,,,,,,,,,,,,,,,,,,,,,,,,,,,,,,,,,,,,,,,,,,,,,,,,,,,,,,,,,,,,,,,,,,,,,,,,,,,,,,,,,,,,,,,,,,,,,,,,,,,,,,,,,,,,,,,,,,,,,,,,,,,,,,,,,,,,,,,,,,,,,,,,,,,,,,,,,,,,,,,,,,,,,,
1764669527.376878,29853,0,4423.333496,4435.256348,4545.897461,4538.974121,4425.384766,4553.974121,4562.94873,4413.717773,4594.871582,4389.743652,4513.846191,4538.717773,4591.025879,4407.179688,4396.794922,4535.769043,4568.333496,4570.897461,4547.563965,4420.384766,4444.358887,4600.128418,4543.461426,4525.256348,4436.922852,4612.563965,4415.512695,4583.461426,4538.717773,4443.333496,4573.077148,4567.563965,2488,0,3,2576,12801,,,,0,4,4,4,4,4,4,4,4,4,4,4,4,4,4,4,4,4,4,4,4,4,4,4,4,4,4,4,4,4,4,4,4,100,,,,,,,,,,,,,,,,,,,,,,,,,,,,,,,,,,,40231,0,0.466021,-0.402527,-0.249817,0.747253,0.893664,-0.443413,-0.009278,1.5,39.333332,-22.5,,,,,,,,,,,,,,,,,,,,,,,,,,,,,,,,,,,,,,,,,,,,,,,,,,,,,,,,,,,,,,,,,,,,,,,,,,,,,,,,,,,,,,,,,,,,,,,,,,,,,,,,,,,,,,,,,,,,,,,,,,,,,,,,,,,,,,,,,,,,,,,,,,,,,,,,,,,,,,,,
1764669527.380784,29854,0,4416.538574,4426.282227,4535,4529.102539,4410.512695,4546.922852,4554.102539,4402.05127,4584.615234,4388.717773,4508.717773,4532.307617,4581.153809,4401.922852,4396.666504,4532.94873,4561.025879,4558.333496,4536.794922,4414.743652,4425.512695,4590.897461,4536.025879,4521.025879,4426.794922,4606.153809,4411.153809,4576.410156,4532.820313,4433.077148,4567.179688,4557.436035,2756,0,3,2576,12809,,,,0,4,4,4,4,4,4,4,4,4,4,4,4,4,4,4,4,4,4,4,4,4,4,4,4,4,4,4,4,4,4,4,4,100,,,,,,,,,,,,,,,,,,,,,,,,,,,,,,,,,,,,,,,,,,,,,,,,,,,,,,,,,,,,,,,,,,,,,,,,,,,,,,,,,,,,,,,,,,,,,,,,,,,,,,,,,,,,,,,,,,,,,,,,,,,,,,,,,,,,,,,,,,,,,,,,,,,,,,,,,,,,,,,,,,,,,,,,,,,,,,,,,,,,,,,,,,,,,,,,,,,,,,,,,,,,,,
1764669527.384690,29855,0,4403.077148,4409.615234,4516.666504,4511.922852,4390.769043,4531.922852,4539.358887,4385,4568.846191,4380.897461,4499.358887,4518.333496,4568.333496,4397.94873,4395.128418,4522.307617,4546.666504,4539.102539,4520.897461,4400.769043,4397.307617,4573.333496,4523.077148,4508.205078,4397.94873,4590.512695,4402.179688,4564.230957,4521.538574,4416.538574,4554.230957,4540.769043,2744,0,3,2576,12809,,,,0,4,4,4,4,4,4,4,4,4,4,4,4,4,4,4,4,4,4,4,4,4,4,4,4,4,4,4,4,4,4,4,4,100,,,,,,,,,,,,,,,,,,,,,,,,,,,,,,,,,,,,,,,,,,,,,,,,,,,,,,,,,,,,,,,,,,,,,,,,,,,,,,,,,,,,,,,,,,,,,,,,,,,,,,,,,,,,,,,,,,,,,,,,,,,,,,,,,,,,,,,,,,,,,,,,,,,,,,,,,,,,,,,,,,,,,,,,,,,,,,,,,,,,,,,,,,,,,,,,,,,,,,,,,,,,,,
1764669527.388596,29856,0,4388.077148,4391.153809,4498.589844,4494.871582,4374.871582,4515.128418,4525,4371.282227,4554.358887,4371.410156,4491.153809,4503.846191,4560.128418,4395.512695,4389.871582,4505.384766,4532.436035,4522.436035,4509.743652,4385.256348,4376.666504,4556.922852,4510.384766,4492.436035,4361.153809,4571.410156,4391.410156,4552.179688,4509.487305,4400,4536.666504,4521.794922,2846,0,3,2570,12817,,,,0,4,4,4,4,4,4,4,4,4,4,4,4,4,4,4,4,4,4,4,4,4,4,4,4,4,4,4,4,4,4,4,4,100,,,,,,,,,,,,,,,,,,,,,,,,,,,,,,,,,,,,,,,,,,,,,,,,,,,,,,,,,,,,,,,,,,,,,,,,,,,,,,,,,,,,,,,,,,,,,,,,,,,,,,,,,,,,,,,,,,,,,,,,,,,,,,,,,,,,,,,,,,,,,,,,,,,,,,,,,,,,,,,,,,,,,,,,,,,,,,,,,,,,,,,,,,,,,,,,,,,,,,,,,,,,,,
1764669527.392502,29857,0,4378.077148,4378.589844,4488.333496,4484.871582,4369.871582,4503.974121,4517.692383,4366.282227,4547.436035,4368.589844,4488.077148,4495.384766,4560.128418,4393.205078,4381.282227,4489.871582,4524.743652,4516.666504,4509.358887,4375.256348,4373.589844,4549.871582,4503.717773,4482.179688,4336.282227,4557.692383,4383.333496,4546.153809,4502.05127,4391.153809,4521.538574,4506.538574,2956,0,3,2570,12817,,,,0,4,4,4,4,4,4,4,4,4,4,4,4,4,4,4,4,4,4,4,4,4,4,4,4,4,4,4,4,4,4,4,4,100,,,,,,,,,,,,,,,,,,,,,,,,,,,,,,,,,,,40232,0,0.466322,-0.402405,-0.249817,0.747131,0.898059,-0.440483,-0.00293,1.333333,39.166668,-23,,,,,,,,,,,,,,,,,,,,,,,,,,,,,,,,,,,,,,,,,,,,,,,,,,,,,,,,,,,,,,,,,,,,,,,,,,,,,,,,,,,,,,,,,,,,,,,,,,,,,,,,,,,,,,,,,,,,,,,,,,,,,,,,,,,,,,,,,,,,,,,,,,,,,,,,,,,,,,,,
1764669527.396408,29858,0,4377.307617,4376.666504,4489.743652,4485.256348,4376.410156,4502.94873,4519.615234,4369.487305,4550,4375,4491.025879,4495.384766,4566.282227,4389.615234,4374.230957,4486.153809,4526.282227,4525.384766,4518.974121,4374.230957,4385.384766,4555.128418,4505.897461,4482.820313,4338.333496,4555.769043,4382.05127,4548.846191,4502.179688,4393.589844,4516.922852,4500.769043,2729,0,3,2569,12825,,,,0,4,4,4,4,4,4,4,4,4,4,4,4,4,4,4,4,4,4,4,4,4,4,4,4,4,4,4,4,4,4,4,4,100,,,,,,,,,,,,,,,,,,,,,,,,,,,,,,,,,,,,,,,,,,,,,,,,,,,,,,,,,,,,,,,,,,,,,,,,,,,,,,,,,,,,,,,,,,,,,,,,,,,,,,,,,,,,,,,,,,,,,,,,,,,,,,,,,,,,,,,,,,,,,,,,,,,,,,,,,,,,,,,,,,,,,,,,,,,,,,,,,,,,,,,,,,,,,,,,,,,,,,,,,,,,,,
1764669527.400314,29859,0,4385.769043,4385.641113,4500.256348,4494.358887,4390.384766,4511.153809,4528.846191,4376.666504,4559.487305,4385.641113,4497.94873,4502.692383,4574.615234,4385.897461,4375,4499.615234,4535.641113,4544.487305,4532.436035,4381.538574,4401.666504,4568.589844,4516.282227,4494.615234,4368.461426,4566.666504,4389.615234,4559.230957,4509.487305,4405.897461,4526.794922,4507.692383,2886,0,3,2569,12825,,,,0,4,4,4,4,4,4,4,4,4,4,4,4,4,4,4,4,4,4,4,4,4,4,4,4,4,4,4,4,4,4,4,4,100,,,,,,,,,,,,,,,,,,,,,,,,,,,,,,,,,,,,,,,,,,,,,,,,,,,,,,,,,,,,,,,,,,,,,,,,,,,,,,,,,,,,,,,,,,,,,,,,,,,,,,,,,,,,,,,,,,,,,,,,,,,,,,,,,,,,,,,,,,,,,,,,,,,,,,,,,,,,,,,,,,,,,,,,,,,,,,,,,,,,,,,,,,,,,,,,,,,,,,,,,,,,,,
1764669527.404220,29860,0,4399.743652,4401.410156,4514.102539,4508.077148,4406.153809,4524.102539,4540.384766,4384.743652,4571.410156,4392.820313,4505.897461,4513.717773,4582.307617,4385.128418,4386.025879,4525.512695,4549.230957,4564.871582,4542.563965,4393.974121,4413.974121,4583.717773,4530.897461,4512.563965,4413.461426,4585.512695,4403.846191,4573.461426,4520.897461,4423.333496,4548.846191,4525.641113,2785,0,3,2570,12833,,,,0,4,4,4,4,4,4,4,4,4,4,4,4,4,4,4,4,4,4,4,4,4,4,4,4,4,4,4,4,4,4,4,4,100,,,,,,,,,,,,,,,,,,,,,,,,,,,,,,,,,,,,,,,,,,,,,,,,,,,,,,,,,,,,,,,,,,,,,,,,,,,,,,,,,,,,,,,,,,,,,,,,,,,,,,,,,,,,,,,,,,,,,,,,,,,,,,,,,,,,,,,,,,,,,,,,,,,,,,,,,,,,,,,,,,,,,,,,,,,,,,,,,,,,,,,,,,,,,,,,,,,,,,,,,,,,,,
1764669527.408126,29861,0,4414.358887,4417.820313,4526.282227,4521.794922,4420.384766,4536.794922,4550.384766,4392.94873,4581.282227,4393.974121,4512.436035,4525.384766,4588.846191,4389.615234,4403.077148,4551.410156,4562.692383,4576.794922,4544.871582,4407.307617,4420,4595.256348,4545.128418,4530.128418,4453.974121,4604.871582,4420,4586.922852,4532.436035,4440,4575,4548.846191,2853,0,3,2570,12833,,,,0,4,4,4,4,4,4,4,4,4,4,4,4,4,4,4,4,4,4,4,4,4,4,4,4,4,4,4,4,4,4,4,4,100,,,,,,,,,,,,,,,,,,,,,,,,,,,,,,,,,,,40233,0,0.466839,-0.402222,-0.249878,0.746887,0.907337,-0.431693,-0.011232,2,37.833332,-22.5,,,,,,,,,,,,,,,,,,,,,,,,,,,,,,,,,,,,,,,,,,,,,,,,,,,,,,,,,,,,,,,,,,,,,,,,,,,,,,,,,,,,,,,,,,,,,,,,,,,,,,,,,,,,,,,,,,,,,,,,,,,,,,,,,,,,,,,,,,,,,,,,,,,,,,,,,,,,,,,,
1764669527.412032,29862,0,4425,4429.743652,4535.256348,4532.692383,4430.512695,4546.666504,4557.436035,4401.794922,4587.05127,4393.077148,4516.025879,4535.897461,4594.487305,4398.077148,4417.436035,4564.743652,4572.563965,4575.641113,4538.717773,4417.692383,4421.025879,4600.897461,4555,4541.794922,4475.256348,4618.846191,4432.179688,4596.025879,4540.769043,4451.666504,4595,4568.974121,2840,0,3,2571,12841,,,,0,4,4,4,4,4,4,4,4,4,4,4,4,4,4,4,4,4,4,4,4,4,4,4,4,4,4,4,4,4,4,4,4,100,,,,,,,,,,,,,,,,,,,,,,,,,,,,,,,,,,,,,,,,,,,,,,,,,,,,,,,,,,,,,,,,,,,,,,,,,,,,,,,,,,,,,,,,,,,,,,,,,,,,,,,,,,,,,,,,,,,,,,,,,,,,,,,,,,,,,,,,,,,,,,,,,,,,,,,,,,,,,,,,,,,,,,,,,,,,,,,,,,,,,,,,,,,,,,,,,,,,,,,,,,,,,,
1764669527.415938,29863,0,4429.230957,4434.871582,4540.897461,4539.487305,4434.871582,4552.820313,4561.410156,4410.256348,4589.615234,4394.230957,4516.153809,4543.077148,4598.461426,4405.897461,4421.153809,4560.384766,4576.538574,4563.974121,4526.922852,4422.563965,4418.333496,4600.512695,4557.94873,4545,4473.461426,4624.871582,4437.05127,4599.230957,4543.717773,4456.282227,4601.922852,4579.102539,3020,0,3,2571,12841,,,,0,4,4,4,4,4,4,4,4,4,4,4,4,4,4,4,4,4,4,4,4,4,4,4,4,4,4,4,4,4,4,4,4,100,,,,,,,,,,,,,,,,,,,,,,,,,,,,,,,,,,,,,,,,,,,,,,,,,,,,,,,,,,,,,,,,,,,,,,,,,,,,,,,,,,,,,,,,,,,,,,,,,,,,,,,,,,,,,,,,,,,,,,,,,,,,,,,,,,,,,,,,,,,,,,,,,,,,,,,,,,,,,,,,,,,,,,,,,,,,,,,,,,,,,,,,,,,,,,,,,,,,,,,,,,,,,,
1764669527.419844,29864,0,4426.666504,4433.205078,4543.461426,4542.307617,4431.922852,4554.358887,4562.179688,4415.128418,4590.897461,4397.307617,4512.820313,4545.128418,4598.205078,4408.077148,4411.794922,4541.538574,4573.974121,4547.563965,4513.333496,4420.641113,4411.666504,4594.871582,4553.205078,4540.256348,4455.897461,4622.692383,4434.102539,4596.153809,4540.897461,4454.358887,4595.897461,4576.538574,2929,0,3,2572,12848,,,,0,4,4,4,4,4,4,4,4,4,4,4,4,4,4,4,4,4,4,4,4,4,4,4,4,4,4,4,4,4,4,4,4,100,,,,,,,,,,,,,,,,,,,,,,,,,,,,,,,,,,,,,,,,,,,,,,,,,,,,,,,,,,,,,,,,,,,,,,,,,,,,,,,,,,,,,,,,,,,,,,,,,,,,,,,,,,,,,,,,,,,,,,,,,,,,,,,,,,,,,,,,,,,,,,,,,,,,,,,,,,,,,,,,,,,,,,,,,,,,,,,,,,,,,,,,,,,,,,,,,,,,,,,,,,,,,,
1764669527.423750,29865,0,4420,4426.794922,4542.307617,4542.179688,4422.94873,4551.025879,4558.974121,4414.102539,4592.563965,4397.692383,4507.05127,4541.025879,4592.436035,4403.077148,4393.717773,4518.077148,4565.769043,4532.563965,4501.922852,4413.333496,4402.692383,4585.769043,4543.461426,4530.384766,4434.871582,4615.256348,4426.410156,4588.205078,4534.487305,4448.077148,4583.205078,4564.487305,2823,0,3,2572,12848,,,,0,4,4,4,4,4,4,4,4,4,4,4,4,4,4,4,4,4,4,4,4,4,4,4,4,4,4,4,4,4,4,4,4,100,,,,,,,,,,,,,,,,,,,,,,,,,,,,,,,,,,,40234,0,0.466891,-0.402161,-0.250061,0.746826,0.911244,-0.437065,-0.021975,0.333333,38.5,-22.5,,,,,,,,,,,,,,,,,,,,,,,,,,,,,,,,,,,,,,,,,,,,,,,,,,,,,,,,,,,,,,,,,,,,,,,,,,,,,,,,,,,,,,,,,,,,,,,,,,,,,,,,,,,,,,,,,,,,,,,,,,,,,,,,,,,,,,,,,,,,,,,,,,,,,,,,,,,,,,,,
1764669527.427656,29866,0,4413.461426,4419.743652,4537.692383,4541.410156,4412.820313,4544.487305,4552.820313,4408.717773,4594.743652,4393.461426,4501.282227,4532.94873,4583.077148,4394.487305,4376.538574,4500.384766,4556.025879,4523.205078,4496.153809,4404.487305,4395.641113,4576.282227,4533.974121,4519.743652,4421.282227,4607.436035,4418.974121,4578.589844,4527.820313,4440.512695,4572.820313,4550,2539,0,3,2573,12856,,,,0,4,4,4,4,4,4,4,4,4,4,4,4,4,4,4,4,4,4,4,4,4,4,4,4,4,4,4,4,4,4,4,4,100,,,,,,,,,,,,,,,,,,,,,,,,,,,,,,,,,,,,,,,,,,,,,,,,,,,,,,,,,,,,,,,,,,,,,,,,,,,,,,,,,,,,,,,,,,,,,,,,,,,,,,,,,,,,,,,,,,,,,,,,,,,,,,,,,,,,,,,,,,,,,,,,,,,,,,,,,,,,,,,,,,,,,,,,,,,,,,,,,,,,,,,,,,,,,,,,,,,,,,,,,,,,,,
