title:Anxiety1, start timestamp:1764668942.096016, stop timestamp:1764668959.079355, headset type:FLEX2, headset serial:F30002B4, headset firmware:2f10, channels:283, sampling rate:eeg_256;mot_64;pow_8, samples:4349      , version:2.2, ,,,,,,,,,,,,,,,,,,,,,,,,,,,,,,,,,,,,,,,,,,,,,,,,,,,,,,,,,,,,,,,,,,,,,,,,,,,,,,,,,,,,,,,,,,,,,,,,,,,,,,,,,,,,,,,,,,,,,,,,,,,,,,,,,,,,,,,,,,,,,,,,,,,,,,,,,,,,,,,,,,,,,,,,,,,,,,,,,,,,,,,,,,,,,,,,,,,,,,,,,,,,,,,,,,,,,,,,,,,,,,,,,,,,,,,,,,,,,,,,,,,,,,,,,,,,,,,,,,,,,,,,,,,,,,,,
Timestamp,EEG.Counter,EEG.Interpolated,EEG.Cz,EEG.Fz,EEG.Fp1,EEG.F7,EEG.F3,EEG.FC1,EEG.C3,EEG.FC5,EEG.FT9,EEG.T7,EEG.CP5,EEG.CP1,EEG.P3,EEG.P7,EEG.PO9,EEG.O1,EEG.Pz,EEG.Oz,EEG.O2,EEG.PO10,EEG.P8,EEG.P4,EEG.CP2,EEG.CP6,EEG.T8,EEG.FT10,EEG.FC6,EEG.C4,EEG.FC2,EEG.F4,EEG.F8,EEG.Fp2,EEG.RawCq,EEG.Battery,EEG.BatteryPercent,EEG.FwBufferSize,EEG.FwClockTime,MarkerIndex,MarkerType,MarkerValueInt,EEG.MarkerHardware,CQ.Cz,CQ.Fz,CQ.Fp1,CQ.F7,CQ.F3,CQ.FC1,CQ.C3,CQ.FC5,CQ.FT9,CQ.T7,CQ.CP5,CQ.CP1,CQ.P3,CQ.P7,CQ.PO9,CQ.O1,CQ.Pz,CQ.Oz,CQ.O2,CQ.PO10,CQ.P8,CQ.P4,CQ.CP2,CQ.CP6,CQ.T8,CQ.FT10,CQ.FC6,CQ.C4,CQ.FC2,CQ.F4,CQ.F8,CQ.Fp2,CQ.Overall,EQ.SampleRateQuality,EQ.OVERALL,EQ.Cz,EQ.Fz,EQ.Fp1,EQ.F7,EQ.F3,EQ.FC1,EQ.C3,EQ.FC5,EQ.FT9,EQ.T7,EQ.CP5,EQ.CP1,EQ.P3,EQ.P7,EQ.PO9,EQ.O1,EQ.Pz,EQ.Oz,EQ.O2,EQ.PO10,EQ.P8,EQ.P4,EQ.CP2,EQ.CP6,EQ.T8,EQ.FT10,EQ.FC6,EQ.C4,EQ.FC2,EQ.F4,EQ.F8,EQ.Fp2,MOT.CounterMems,MOT.InterpolatedMems,MOT.Q0,MOT.Q1,MOT.Q2,MOT.Q3,MOT.AccX,MOT.AccY,MOT.AccZ,MOT.MagX,MOT.MagY,MOT.MagZ,POW.Cz.Theta,POW.Cz.Alpha,POW.Cz.BetaL,POW.Cz.BetaH,POW.Cz.Gamma,POW.Fz.Theta,POW.Fz.Alpha,POW.Fz.BetaL,POW.Fz.BetaH,POW.Fz.Gamma,POW.Fp1.Theta,POW.Fp1.Alpha,POW.Fp1.BetaL,POW.Fp1.BetaH,POW.Fp1.Gamma,POW.F7.Theta,POW.F7.Alpha,POW.F7.BetaL,POW.F7.BetaH,POW.F7.Gamma,POW.F3.Theta,POW.F3.Alpha,POW.F3.BetaL,POW.F3.BetaH,POW.F3.Gamma,POW.FC1.Theta,POW.FC1.Alpha,POW.FC1.BetaL,POW.FC1.BetaH,POW.FC1.Gamma,POW.C3.Theta,POW.C3.Alpha,POW.C3.BetaL,POW.C3.BetaH,POW.C3.Gamma,POW.FC5.Theta,POW.FC5.Alpha,POW.FC5.BetaL,POW.FC5.BetaH,POW.FC5.Gamma,POW.FT9.Theta,POW.FT9.Alpha,POW.FT9.BetaL,POW.FT9.BetaH,POW.FT9.Gamma,POW.T7.Theta,POW.T7.Alpha,POW.T7.BetaL,POW.T7.BetaH,POW.T7.Gamma,POW.CP5.Theta,POW.CP5.Alpha,POW.CP5.BetaL,POW.CP5.BetaH,POW.CP5.Gamma,POW.CP1.Theta,POW.CP1.Alpha,POW.CP1.BetaL,POW.CP1.BetaH,POW.CP1.Gamma,POW.P3.Theta,POW.P3.Alpha,POW.P3.BetaL,POW.P3.BetaH,POW.P3.Gamma,POW.P7.Theta,POW.P7.Alpha,POW.P7.BetaL,POW.P7.BetaH,POW.P7.Gamma,POW.PO9.Theta,POW.PO9.Alpha,POW.PO9.BetaL,POW.PO9.BetaH,POW.PO9.Gamma,POW.O1.Theta,POW.O1.Alpha,POW.O1.BetaL,POW.O1.BetaH,POW.O1.Gamma,POW.Pz.Theta,POW.Pz.Alpha,POW.Pz.BetaL,POW.Pz.BetaH,POW.Pz.Gamma,POW.Oz.Theta,POW.Oz.Alpha,POW.Oz.BetaL,POW.Oz.BetaH,POW.Oz.Gamma,POW.O2.Theta,POW.O2.Alpha,POW.O2.BetaL,POW.O2.BetaH,POW.O2.Gamma,POW.PO10.Theta,POW.PO10.Alpha,POW.PO10.BetaL,POW.PO10.BetaH,POW.PO10.Gamma,POW.P8.Theta,POW.P8.Alpha,POW.P8.BetaL,POW.P8.BetaH,POW.P8.Gamma,POW.P4.Theta,POW.P4.Alpha,POW.P4.BetaL,POW.P4.BetaH,POW.P4.Gamma,POW.CP2.Theta,POW.CP2.Alpha,POW.CP2.BetaL,POW.CP2.BetaH,POW.CP2.Gamma,POW.CP6.Theta,POW.CP6.Alpha,POW.CP6.BetaL,POW.CP6.BetaH,POW.CP6.Gamma,POW.T8.Theta,POW.T8.Alpha,POW.T8.BetaL,POW.T8.BetaH,POW.T8.Gamma,POW.FT10.Theta,POW.FT10.Alpha,POW.FT10.BetaL,POW.FT10.BetaH,POW.FT10.Gamma,POW.FC6.Theta,POW.FC6.Alpha,POW.FC6.BetaL,POW.FC6.BetaH,POW.FC6.Gamma,POW.C4.Theta,POW.C4.Alpha,POW.C4.BetaL,POW.C4.BetaH,POW.C4.Gamma,POW.FC2.Theta,POW.FC2.Alpha,POW.FC2.BetaL,POW.FC2.BetaH,POW.FC2.Gamma,POW.F4.Theta,POW.F4.Alpha,POW.F4.BetaL,POW.F4.BetaH,POW.F4.Gamma,POW.F8.Theta,POW.F8.Alpha,POW.F8.BetaL,POW.F8.BetaH,POW.F8.Gamma,POW.Fp2.Theta,POW.Fp2.Alpha,POW.Fp2.BetaL,POW.Fp2.BetaH,POW.Fp2.Gamma
1764668945.326288,11906,0,4411.666504,4429.358887,4547.692383,4559.871582,4427.94873,4539.615234,4564.230957,4415,4595,4402.307617,4510.641113,4548.974121,4584.358887,4424.871582,4422.692383,4549.230957,4564.358887,4560.769043,4532.307617,4409.871582,4426.666504,4590.769043,4544.358887,4520,4432.692383,4591.410156,4428.333496,4586.538574,4524.743652,4433.333496,4564.102539,4537.820313,2695,0,6,2576,20611,1,1,7,0,4,4,4,4,4,4,4,4,4,4,4,4,4,4,4,4,4,4,4,4,4,4,4,4,4,4,4,4,4,4,4,4,100,,,,,,,,,,,,,,,,,,,,,,,,,,,,,,,,,,,,,,,,,,,,,,,,,,,,,,,,,,,,,,,,,,,,,,,,,,,,,,,,,,,,,,,,,,,,,,,,,,,,,,,,,,,,,,,,,,,,,,,,,,,,,,,,,,,,,,,,,,,,,,,,,,,,,,,,,,,,,,,,,,,,,,,,,,,,,,,,,,,,,,,,,,,,,,,,,,,,,,,,,,,,,,
1764668945.330194,11907,0,4430.769043,4447.436035,4554.230957,4579.487305,4447.05127,4558.974121,4585.897461,4441.666504,4615.769043,4413.461426,4524.871582,4566.538574,4601.282227,4433.077148,4438.717773,4563.589844,4585.384766,4579.615234,4547.692383,4428.589844,4448.974121,4613.846191,4560.897461,4545,4474.487305,4608.846191,4439.102539,4605.769043,4536.282227,4444.743652,4581.025879,4544.743652,2867,0,6,2576,20611,,,,0,4,4,4,4,4,4,4,4,4,4,4,4,4,4,4,4,4,4,4,4,4,4,4,4,4,4,4,4,4,4,4,4,100,,,,,,,,,,,,,,,,,,,,,,,,,,,,,,,,,,,,,,,,,,,,,,,,,,,,,,,,,,,,,,,,,,,,,,,,,,,,,,,,,,,,,,,,,,,,,,,,,,,,,,,,,,,,,,,,,,,,,,,,,,,,,,,,,,,,,,,,,,,,,,,,,,,,,,,,,,,,,,,,,,,,,,,,,,,,,,,,,,,,,,,,,,,,,,,,,,,,,,,,,,,,,,
1764668945.334100,11908,0,4431.025879,4446.538574,4546.025879,4580.384766,4444.871582,4560.384766,4585.641113,4446.666504,4620.769043,4413.333496,4522.563965,4565,4603.589844,4427.820313,4433.846191,4553.077148,4586.153809,4576.282227,4548.333496,4425.897461,4444.743652,4613.461426,4558.846191,4545.897461,4479.871582,4607.820313,4432.179688,4605.384766,4536.666504,4442.05127,4579.743652,4536.025879,2746,0,6,2576,20619,,,,0,4,4,4,4,4,4,4,4,4,4,4,4,4,4,4,4,4,4,4,4,4,4,4,4,4,4,4,4,4,4,4,4,100,,,,,,,,,,,,,,,,,,,,,,,,,,,,,,,,,,,,,,,,,,,,,,,,,,,,,,,,,,,,,,,,,,,,,,,,,,,,,,,,,,,,,,,,,,,,,,,,,,,,,,,,,,,,,,,,,,,,,,,,,,,,,,,,,,,,,,,,,,,,,,,,,,,,,,,,,,,,,,,,,,,,,,,,,,,,,,,,,,,,,,,,,,,,,,,,,,,,,,,,,,,,,,
1764668945.338006,11909,0,4413.077148,4427.94873,4529.743652,4563.333496,4423.461426,4542.94873,4565.256348,4427.563965,4607.820313,4402.179688,4505.641113,4545.641113,4590,4410.897461,4409.871582,4522.307617,4566.666504,4551.282227,4531.025879,4403.717773,4416.538574,4589.743652,4539.102539,4522.692383,4447.436035,4590.128418,4412.820313,4586.025879,4525.384766,4427.307617,4562.436035,4518.717773,2837,0,6,2576,20619,,,,0,4,4,4,4,4,4,4,4,4,4,4,4,4,4,4,4,4,4,4,4,4,4,4,4,4,4,4,4,4,4,4,4,100,,,,,,,,,,,,,,,,,,,,,,,,,,,,,,,,,,,2977,0,0.62503,-0.331848,-0.336609,0.621216,0.988402,0,0.00293,17.833334,39,-20.333334,,,,,,,,,,,,,,,,,,,,,,,,,,,,,,,,,,,,,,,,,,,,,,,,,,,,,,,,,,,,,,,,,,,,,,,,,,,,,,,,,,,,,,,,,,,,,,,,,,,,,,,,,,,,,,,,,,,,,,,,,,,,,,,,,,,,,,,,,,,,,,,,,,,,,,,,,,,,,,,,
1764668945.341912,11910,0,4387.692383,4401.666504,4512.94873,4538.205078,4396.153809,4515.641113,4536.922852,4395.769043,4583.846191,4384.615234,4482.820313,4519.358887,4566.922852,4389.615234,4378.333496,4487.563965,4537.820313,4517.94873,4504.358887,4375.897461,4380.256348,4556.153809,4511.666504,4488.589844,4399.871582,4565,4391.025879,4557.94873,4508.333496,4406.666504,4538.589844,4503.077148,2822,0,6,2576,20626,,,,0,4,4,4,4,4,4,4,4,4,4,4,4,4,4,4,4,4,4,4,4,4,4,4,4,4,4,4,4,4,4,4,4,100,,,,,,,,,,,,,,,,,,,,,,,,,,,,,,,,,,,,,,,,,,,,,,,,,,,,,,,,,,,,,,,,,,,,,,,,,,,,,,,,,,,,,,,,,,,,,,,,,,,,,,,,,,,,,,,,,,,,,,,,,,,,,,,,,,,,,,,,,,,,,,,,,,,,,,,,,,,,,,,,,,,,,,,,,,,,,,,,,,,,,,,,,,,,,,,,,,,,,,,,,,,,,,
1764668945.345818,11911,0,4368.077148,4380.769043,4499.615234,4516.922852,4377.307617,4492.820313,4514.743652,4368.974121,4561.025879,4367.05127,4465,4500,4545.641113,4373.077148,4353.717773,4466.794922,4514.358887,4493.846191,4482.436035,4357.563965,4355.128418,4529.615234,4490.128418,4461.538574,4364.871582,4544.871582,4376.410156,4534.358887,4493.461426,4387.563965,4518.461426,4497.179688,2999,0,6,2576,20626,,,,0,4,4,4,4,4,4,4,4,4,4,4,4,4,4,4,4,4,4,4,4,4,4,4,4,4,4,4,4,4,4,4,4,100,,,,,,,,,,,,,,,,,,,,,,,,,,,,,,,,,,,,,,,,,,,,,,,,,,,,,,,,,,,,,,,,,,,,,,,,,,,,,,,,,,,,,,,,,,,,,,,,,,,,,,,,,,,,,,,,,,,,,,,,,,,,,,,,,,,,,,,,,,,,,,,,,,,,,,,,,,,,,,,,,,,,,,,,,,,,,,,,,,,,,,,,,,,,,,,,,,,,,,,,,,,,,,
1764668945.349724,11912,0,4362.94873,4374.102539,4491.794922,4507.94873,4373.974121,4485.128418,4507.563965,4360.128418,4550.128418,4356.666504,4459.358887,4495.769043,4535.641113,4368.974121,4346.282227,4468.205078,4506.410156,4488.717773,4475.897461,4355.897461,4351.922852,4521.282227,4483.717773,4453.205078,4357.692383,4538.333496,4373.461426,4525.384766,4487.563965,4377.563965,4509.102539,4502.179688,2901,0,6,2576,20634,,,,0,4,4,4,4,4,4,4,4,4,4,4,4,4,4,4,4,4,4,4,4,4,4,4,4,4,4,4,4,4,4,4,4,100,,,,,,,,,,,,,,,,,,,,,,,,,,,,,,,,,,,,,,,,,,,,,,,,,,,,,,,,,,,,,,,,,,,,,,,,,,,,,,,,,,,,,,,,,,,,,,,,,,,,,,,,,,,,,,,,,,,,,,,,,,,,,,,,,,,,,,,,,,,,,,,,,,,,,,,,,,,,,,,,,,,,,,,,,,,,,,,,,,,,,,,,,,,,,,,,,,,,,,,,,,,,,,
1764668945.353630,11913,0,4372.307617,4382.05127,4490.897461,4512.692383,4383.077148,4494.230957,4515.641113,4370.384766,4555.769043,4359.102539,4466.282227,4505.769043,4540.384766,4378.974121,4355.897461,4484.743652,4514.358887,4499.487305,4484.230957,4366.025879,4367.179688,4530.769043,4492.692383,4462.820313,4374.615234,4546.282227,4380.769043,4532.307617,4491.922852,4380.256348,4512.179688,4513.077148,2767,0,6,2576,20634,,,,0,4,4,4,4,4,4,4,4,4,4,4,4,4,4,4,4,4,4,4,4,4,4,4,4,4,4,4,4,4,4,4,4,100,,,,,,,,,,,,,,,,,,,,,,,,,,,,,,,,,,,2978,0,0.624716,-0.331543,-0.336365,0.621826,0.99768,0.018557,0.010743,20,39,-20.833334,,,,,,,,,,,,,,,,,,,,,,,,,,,,,,,,,,,,,,,,,,,,,,,,,,,,,,,,,,,,,,,,,,,,,,,,,,,,,,,,,,,,,,,,,,,,,,,,,,,,,,,,,,,,,,,,,,,,,,,,,,,,,,,,,,,,,,,,,,,,,,,,,,,,,,,,,,,,,,,,
1764668945.357536,11914,0,4387.563965,4397.05127,4497.307617,4525.641113,4396.025879,4511.538574,4531.025879,4389.102539,4572.692383,4374.230957,4479.358887,4520.641113,4553.974121,4396.025879,4373.589844,4501.282227,4529.358887,4514.487305,4497.94873,4377.307617,4387.179688,4548.461426,4509.102539,4480,4397.692383,4560.641113,4391.282227,4547.692383,4501.794922,4392.436035,4522.307617,4521.153809,2439,0,6,2576,20642,,,,0,4,4,4,4,4,4,4,4,4,4,4,4,4,4,4,4,4,4,4,4,4,4,4,4,4,4,4,4,4,4,4,4,100,,,,,,,,,,,,,,,,,,,,,,,,,,,,,,,,,,,,,,,,,,,,,,,,,,,,,,,,,,,,,,,,,,,,,,,,,,,,,,,,,,,,,,,,,,,,,,,,,,,,,,,,,,,,,,,,,,,,,,,,,,,,,,,,,,,,,,,,,,,,,,,,,,,,,,,,,,,,,,,,,,,,,,,,,,,,,,,,,,,,,,,,,,,,,,,,,,,,,,,,,,,,,,
1764668945.361442,11915,0,4398.077148,4407.692383,4507.692383,4538.333496,4404.102539,4524.102539,4543.077148,4402.692383,4588.589844,4393.974121,4489.615234,4529.615234,4565.769043,4409.615234,4387.692383,4506.153809,4540.384766,4523.461426,4507.179688,4382.563965,4398.333496,4562.820313,4521.794922,4492.05127,4408.205078,4570.384766,4396.538574,4560.128418,4509.871582,4405.128418,4530,4520.256348,2729,0,6,2576,20642,,,,0,4,4,4,4,4,4,4,4,4,4,4,4,4,4,4,4,4,4,4,4,4,4,4,4,4,4,4,4,4,4,4,4,100,,,,,,,,,,,,,,,,,,,,,,,,,,,,,,,,,,,,,,,,,,,,,,,,,,,,,,,,,,,,,,,,,,,,,,,,,,,,,,,,,,,,,,,,,,,,,,,,,,,,,,,,,,,,,,,,,,,,,,,,,,,,,,,,,,,,,,,,,,,,,,,,,,,,,,,,,,,,,,,,,,,,,,,,,,,,,,,,,,,,,,,,,,,,,,,,,,,,,,,,,,,,,,
1764668945.365348,11916,0,4397.820313,4407.179688,4516.922852,4544.615234,4402.94873,4524.358887,4545.384766,4403.205078,4593.589844,4406.666504,4492.05127,4528.461426,4568.461426,4412.436035,4392.307617,4499.871582,4542.307617,4524.615234,4509.102539,4382.563965,4396.794922,4568.846191,4523.974121,4493.846191,4399.102539,4569.487305,4392.820313,4562.692383,4511.538574,4410.384766,4529.615234,4511.538574,2487,0,6,2576,20650,,,,0,4,4,4,4,4,4,4,4,4,4,4,4,4,4,4,4,4,4,4,4,4,4,4,4,4,4,4,4,4,4,4,4,100,,,,,,,,,,,,,,,,,,,,,,,,,,,,,,,,,,,,,,,,,,,,,,,,,,,,,,,,,,,,,,,,,,,,,,,,,,,,,,,,,,,,,,,,,,,,,,,,,,,,,,,,,,,,,,,,,,,,,,,,,,,,,,,,,,,,,,,,,,,,,,,,,,,,,,,,,,,,,,,,,,,,,,,,,,,,,,,,,,,,,,,,,,,,,,,,,,,,,,,,,,,,,,
1764668945.369254,11917,0,4389.358887,4397.692383,4522.179688,4544.102539,4394.230957,4515.128418,4539.615234,4393.717773,4586.922852,4404.615234,4488.589844,4520.897461,4562.563965,4406.282227,4389.358887,4492.307617,4538.077148,4523.846191,4508.589844,4382.94873,4389.102539,4568.461426,4518.077148,4488.974121,4380.641113,4561.666504,4384.487305,4557.179688,4507.692383,4407.05127,4523.846191,4502.563965,2245,0,6,2576,20650,,,,0,4,4,4,4,4,4,4,4,4,4,4,4,4,4,4,4,4,4,4,4,4,4,4,4,4,4,4,4,4,4,4,4,100,,,,,,,,,,,,,,,,,,,,,,,,,,,,,,,,,,,2979,0,0.623866,-0.330994,-0.335999,0.623169,1.005494,0.003907,0.002442,16.666666,39.833332,-22,,,,,,,,,,,,,,,,,,,,,,,,,,,,,,,,,,,,,,,,,,,,,,,,,,,,,,,,,,,,,,,,,,,,,,,,,,,,,,,,,,,,,,,,,,,,,,,,,,,,,,,,,,,,,,,,,,,,,,,,,,,,,,,,,,,,,,,,,,,,,,,,,,,,,,,,,,,,,,,,
1764668945.373160,11918,0,4380.128418,4387.692383,4523.333496,4540,4384.102539,4506.025879,4532.05127,4383.846191,4576.666504,4388.846191,4484.743652,4514.487305,4555.128418,4398.846191,4385.769043,4492.94873,4533.974121,4527.436035,4511.282227,4387.563965,4385,4566.666504,4510.897461,4484.102539,4370.769043,4554.743652,4379.230957,4550.256348,4502.820313,4400,4519.230957,4500,2739,0,6,2576,20658,,,,0,4,4,4,4,4,4,4,4,4,4,4,4,4,4,4,4,4,4,4,4,4,4,4,4,4,4,4,4,4,4,4,4,100,,,,,,,,,,,,,,,,,,,,,,,,,,,,,,,,,,,,,,,,,,,,,,,,,,,,,,,,,,,,,,,,,,,,,,,,,,,,,,,,,,,,,,,,,,,,,,,,,,,,,,,,,,,,,,,,,,,,,,,,,,,,,,,,,,,,,,,,,,,,,,,,,,,,,,,,,,,,,,,,,,,,,,,,,,,,,,,,,,,,,,,,,,,,,,,,,,,,,,,,,,,,,,
1764668945.377066,11919,0,4376.153809,4383.461426,4519.615234,4536.410156,4377.820313,4503.333496,4527.94873,4380.256348,4571.410156,4367.820313,4484.230957,4512.820313,4552.05127,4396.410156,4385.897461,4501.410156,4533.333496,4534.871582,4517.94873,4393.974121,4388.846191,4565.641113,4508.205078,4482.179688,4378.205078,4554.230957,4380.641113,4546.666504,4500.769043,4393.846191,4519.230957,4503.717773,2464,0,6,2576,20658,,,,0,4,4,4,4,4,4,4,4,4,4,4,4,4,4,4,4,4,4,4,4,4,4,4,4,4,4,4,4,4,4,4,4,100,,,,,,,,,,,,,,,,,,,,,,,,,,,,,,,,,,,,,,,,,,,,,,,,,,,,,,,,,,,,,,,,,,,,,,,,,,,,,,,,,,,,,,,,,,,,,,,,,,,,,,,,,,,,,,,,,,,,,,,,,,,,,,,,,,,,,,,,,,,,,,,,,,,,,,,,,,,,,,,,,,,,,,,,,,,,,,,,,,,,,,,,,,,,,,,,,,,,,,,,,,,,,,
1764668945.380972,11920,0,4377.692383,4386.025879,4509.871582,4535.512695,4378.333496,4506.922852,4528.846191,4383.589844,4574.230957,4353.333496,4486.922852,4514.871582,4554.615234,4399.871582,4389.615234,4510.384766,4535.128418,4541.282227,4524.615234,4397.436035,4398.589844,4564.743652,4510.256348,4482.436035,4395.256348,4559.743652,4386.153809,4546.282227,4501.794922,4390.256348,4522.179688,4506.922852,2898,0,6,2576,20665,,,,0,4,4,4,4,4,4,4,4,4,4,4,4,4,4,4,4,4,4,4,4,4,4,4,4,4,4,4,4,4,4,4,4,100,0.921875,25,4,3,1,3,3,4,4,3,3,1,4,4,4,4,4,4,4,3,4,4,3,3,4,3,1,4,3,3,4,3,3,1,,,,,,,,,,,,,1.316856,1.343679,2.428507,1.569664,2.361174,1.383881,1.954983,2.878323,2.070691,2.720729,1.697909,2.234895,2.85243,3.997594,5.619516,0.873345,1.216527,1.745438,2.088705,3.117016,1.79876,1.901122,3.05934,4.039011,3.006772,1.882202,1.026271,2.107791,1.549291,2.274663,0.743888,1.682572,2.322025,1.938223,2.482535,0.841445,2.06266,2.96752,2.366682,3.132825,0.49723,0.973863,1.933033,2.100644,3.015173,0.543565,2.768567,2.828196,4.214164,8.333936,1.239157,1.12892,1.001753,1.500174,1.889256,1.044482,1.33369,1.556318,1.822865,2.19363,0.64631,1.061041,1.359919,1.543541,1.837838,0.605369,1.137239,0.543796,0.760994,1.386339,0.56404,0.717493,1.191064,1.653517,1.788816,1.613371,2.256256,1.352533,1.510699,2.486283,1.241075,1.615945,1.821726,1.824365,2.582177,1.483182,2.79723,1.345372,1.702244,2.859577,0.885907,1.829437,0.997353,1.036207,1.812572,1.186116,0.811463,1.385368,1.405005,2.613962,1.076572,2.585307,3.48805,1.758501,2.596489,1.309118,1.773253,2.275606,2.149725,2.748104,1.517373,2.333697,2.064688,1.904924,2.604091,1.542088,1.696365,2.926852,1.920992,3.029857,1.654228,7.364069,9.469254,6.411959,7.962948,1.157751,1.36895,2.848093,1.751783,2.59883,1.130455,1.66252,3.547054,1.704589,3.070177,1.38716,1.872131,2.801306,1.932966,2.766183,0.770049,0.924759,1.086961,0.900746,1.252051,1.82395,1.991619,3.739792,3.450718,3.706706,1.972678,2.095283,3.266063,2.830464,2.750574,1.989074,4.303523,3.553539,4.896983,3.726877
1764668945.384878,11921,0,4381.794922,4391.794922,4495.128418,4537.692383,4385.641113,4512.436035,4532.94873,4390.769043,4582.436035,4353.974121,4491.025879,4517.692383,4560,4405.897461,4393.205078,4513.589844,4537.307617,4543.333496,4528.077148,4396.410156,4409.102539,4564.487305,4515.128418,4484.871582,4408.846191,4568.333496,4390.641113,4548.333496,4504.615234,4389.230957,4524.743652,4503.333496,2890,0,6,2576,20665,,,,0,4,4,4,4,4,4,4,4,4,4,4,4,4,4,4,4,4,4,4,4,4,4,4,4,4,4,4,4,4,4,4,4,100,,,,,,,,,,,,,,,,,,,,,,,,,,,,,,,,,,,2980,0,0.623409,-0.330811,-0.336121,0.623657,1.006959,0.000977,-0.010743,19.666666,38.833332,-18.833334,,,,,,,,,,,,,,,,,,,,,,,,,,,,,,,,,,,,,,,,,,,,,,,,,,,,,,,,,,,,,,,,,,,,,,,,,,,,,,,,,,,,,,,,,,,,,,,,,,,,,,,,,,,,,,,,,,,,,,,,,,,,,,,,,,,,,,,,,,,,,,,,,,,,,,,,,,,,,,,,
1764668945.388784,11922,0,4386.282227,4398.077148,4480.384766,4541.410156,4398.077148,4516.666504,4537.692383,4398.205078,4591.153809,4371.025879,4494.743652,4519.743652,4565.512695,4410,4393.717773,4511.666504,4540.512695,4542.436035,4528.589844,4393.589844,4416.153809,4567.436035,4521.025879,4491.538574,4413.717773,4577.563965,4392.692383,4553.077148,4507.94873,4391.025879,4526.538574,4492.94873,1782,0,6,2576,20673,,,,0,4,4,4,4,4,4,4,4,4,4,4,4,4,4,4,4,4,4,4,4,4,4,4,4,4,4,4,4,4,4,4,4,100,,,,,,,,,,,,,,,,,,,,,,,,,,,,,,,,,,,,,,,,,,,,,,,,,,,,,,,,,,,,,,,,,,,,,,,,,,,,,,,,,,,,,,,,,,,,,,,,,,,,,,,,,,,,,,,,,,,,,,,,,,,,,,,,,,,,,,,,,,,,,,,,,,,,,,,,,,,,,,,,,,,,,,,,,,,,,,,,,,,,,,,,,,,,,,,,,,,,,,,,,,,,,,
1764668945.392690,11923,0,4390.641113,4403.205078,4471.666504,4544.487305,4412.179688,4519.102539,4541.666504,4404.230957,4597.179688,4396.025879,4497.307617,4521.538574,4569.358887,4410.256348,4390.641113,4509.871582,4546.025879,4542.179688,4528.077148,4392.05127,4417.307617,4574.487305,4526.538574,4502.692383,4413.974121,4584.871582,4394.871582,4561.025879,4511.410156,4396.538574,4529.487305,4481.922852,2754,0,6,2576,20673,,,,0,4,4,4,4,4,4,4,4,4,4,4,4,4,4,4,4,4,4,4,4,4,4,4,4,4,4,4,4,4,4,4,4,100,,,,,,,,,,,,,,,,,,,,,,,,,,,,,,,,,,,,,,,,,,,,,,,,,,,,,,,,,,,,,,,,,,,,,,,,,,,,,,,,,,,,,,,,,,,,,,,,,,,,,,,,,,,,,,,,,,,,,,,,,,,,,,,,,,,,,,,,,,,,,,,,,,,,,,,,,,,,,,,,,,,,,,,,,,,,,,,,,,,,,,,,,,,,,,,,,,,,,,,,,,,,,,
1764668945.396596,11924,0,4394.487305,4405.897461,4472.05127,4544.487305,4422.94873,4520,4543.846191,4407.436035,4598.717773,4415.256348,4498.333496,4522.436035,4570.384766,4406.666504,4386.153809,4511.410156,4552.05127,4543.077148,4526.794922,4390.769043,4411.025879,4581.794922,4530,4512.820313,4414.358887,4587.820313,4398.589844,4568.974121,4513.717773,4404.487305,4533.333496,4475.897461,2609,0,6,2576,20681,,,,0,4,4,4,4,4,4,4,4,4,4,4,4,4,4,4,4,4,4,4,4,4,4,4,4,4,4,4,4,4,4,4,4,100,,,,,,,,,,,,,,,,,,,,,,,,,,,,,,,,,,,,,,,,,,,,,,,,,,,,,,,,,,,,,,,,,,,,,,,,,,,,,,,,,,,,,,,,,,,,,,,,,,,,,,,,,,,,,,,,,,,,,,,,,,,,,,,,,,,,,,,,,,,,,,,,,,,,,,,,,,,,,,,,,,,,,,,,,,,,,,,,,,,,,,,,,,,,,,,,,,,,,,,,,,,,,,
1764668945.400502,11925,0,4394.871582,4403.974121,4479.102539,4539.102539,4424.102539,4518.974121,4542.820313,4405.384766,4594.358887,4418.077148,4496.794922,4520.256348,4568.077148,4400.769043,4382.436035,4514.871582,4553.461426,4541.410156,4521.922852,4385.641113,4397.307617,4582.05127,4527.820313,4512.563965,4411.538574,4583.846191,4400.897461,4570.384766,4512.94873,4409.743652,4533.461426,4473.846191,2814,0,6,2576,20681,,,,0,4,4,4,4,4,4,4,4,4,4,4,4,4,4,4,4,4,4,4,4,4,4,4,4,4,4,4,4,4,4,4,4,100,,,,,,,,,,,,,,,,,,,,,,,,,,,,,,,,,,,2981,0,0.62282,-0.330627,-0.336487,0.624146,1.006959,0.000977,-0.010743,17.5,41.333332,-20,,,,,,,,,,,,,,,,,,,,,,,,,,,,,,,,,,,,,,,,,,,,,,,,,,,,,,,,,,,,,,,,,,,,,,,,,,,,,,,,,,,,,,,,,,,,,,,,,,,,,,,,,,,,,,,,,,,,,,,,,,,,,,,,,,,,,,,,,,,,,,,,,,,,,,,,,,,,,,,,
1764668945.404408,11926,0,4389.102539,4395.512695,4487.692383,4527.820313,4412.05127,4514.871582,4537.05127,4396.410156,4583.461426,4403.333496,4491.538574,4513.077148,4561.666504,4394.615234,4380.384766,4515.769043,4545.769043,4533.333496,4511.538574,4375.128418,4378.846191,4571.282227,4518.205078,4497.436035,4399.102539,4572.436035,4396.025879,4560.641113,4507.563965,4406.794922,4524.615234,4470,2944,0,6,2576,20689,,,,0,4,4,4,4,4,4,4,4,4,4,4,4,4,4,4,4,4,4,4,4,4,4,4,4,4,4,4,4,4,4,4,4,100,,,,,,,,,,,,,,,,,,,,,,,,,,,,,,,,,,,,,,,,,,,,,,,,,,,,,,,,,,,,,,,,,,,,,,,,,,,,,,,,,,,,,,,,,,,,,,,,,,,,,,,,,,,,,,,,,,,,,,,,,,,,,,,,,,,,,,,,,,,,,,,,,,,,,,,,,,,,,,,,,,,,,,,,,,,,,,,,,,,,,,,,,,,,,,,,,,,,,,,,,,,,,,
1764668945.408314,11927,0,4377.692383,4382.820313,4494.487305,4514.615234,4390.384766,4507.563965,4527.820313,4382.307617,4568.077148,4381.666504,4483.077148,4502.307617,4552.692383,4390.128418,4378.846191,4511.922852,4530.641113,4520.384766,4498.717773,4363.333496,4362.94873,4553.205078,4503.974121,4473.333496,4377.436035,4557.820313,4382.179688,4542.692383,4499.487305,4395.641113,4508.461426,4461.922852,2875,0,6,2576,20689,,,,0,4,4,4,4,4,4,4,4,4,4,4,4,4,4,4,4,4,4,4,4,4,4,4,4,4,4,4,4,4,4,4,4,100,,,,,,,,,,,,,,,,,,,,,,,,,,,,,,,,,,,,,,,,,,,,,,,,,,,,,,,,,,,,,,,,,,,,,,,,,,,,,,,,,,,,,,,,,,,,,,,,,,,,,,,,,,,,,,,,,,,,,,,,,,,,,,,,,,,,,,,,,,,,,,,,,,,,,,,,,,,,,,,,,,,,,,,,,,,,,,,,,,,,,,,,,,,,,,,,,,,,,,,,,,,,,,
1764668945.412220,11928,0,4367.05127,4372.307617,4501.153809,4506.922852,4370,4501.025879,4519.487305,4369.871582,4554.487305,4367.94873,4475.384766,4493.974121,4544.871582,4388.974121,4377.307617,4505.641113,4516.794922,4509.871582,4491.282227,4358.589844,4357.563965,4538.077148,4492.692383,4454.615234,4360.128418,4546.922852,4365.384766,4526.538574,4493.461426,4383.077148,4494.230957,4455.256348,2725,0,6,2576,20697,,,,0,4,4,4,4,4,4,4,4,4,4,4,4,4,4,4,4,4,4,4,4,4,4,4,4,4,4,4,4,4,4,4,4,100,,,,,,,,,,,,,,,,,,,,,,,,,,,,,,,,,,,,,,,,,,,,,,,,,,,,,,,,,,,,,,,,,,,,,,,,,,,,,,,,,,,,,,,,,,,,,,,,,,,,,,,,,,,,,,,,,,,,,,,,,,,,,,,,,,,,,,,,,,,,,,,,,,,,,,,,,,,,,,,,,,,,,,,,,,,,,,,,,,,,,,,,,,,,,,,,,,,,,,,,,,,,,,
1764668945.416126,11929,0,4364.871582,4370.512695,4510.384766,4510.256348,4362.05127,4500.128418,4517.05127,4365.384766,4549.358887,4370.256348,4472.692383,4493.974121,4542.563965,4391.922852,4376.025879,4501.666504,4513.077148,4508.077148,4494.358887,4364.871582,4365.384766,4534.615234,4491.410156,4452.692383,4364.102539,4545.641113,4355.897461,4522.563965,4494.230957,4378.717773,4491.922852,4460.384766,2895,0,6,2576,20697,,,,0,4,4,4,4,4,4,4,4,4,4,4,4,4,4,4,4,4,4,4,4,4,4,4,4,4,4,4,4,4,4,4,4,100,,,,,,,,,,,,,,,,,,,,,,,,,,,,,,,,,,,2982,0,0.622202,-0.330505,-0.336731,0.624695,0.985472,0.000488,-0.016604,18.5,40.333332,-19.666666,,,,,,,,,,,,,,,,,,,,,,,,,,,,,,,,,,,,,,,,,,,,,,,,,,,,,,,,,,,,,,,,,,,,,,,,,,,,,,,,,,,,,,,,,,,,,,,,,,,,,,,,,,,,,,,,,,,,,,,,,,,,,,,,,,,,,,,,,,,,,,,,,,,,,,,,,,,,,,,,
1764668945.420032,11930,0,4373.205078,4378.333496,4521.538574,4522.820313,4369.358887,4506.666504,4521.666504,4370.256348,4554.358887,4384.358887,4476.153809,4502.692383,4547.307617,4398.846191,4375.256348,4502.179688,4520.641113,4514.743652,4505.128418,4377.692383,4380.897461,4542.820313,4500.897461,4467.05127,4393.589844,4554.102539,4360.256348,4532.179688,4501.153809,4386.410156,4503.461426,4482.436035,1820,0,6,2573,20705,,,,0,4,4,4,4,4,4,4,4,4,4,4,4,4,4,4,4,4,4,4,4,4,4,4,4,4,4,4,4,4,4,4,4,100,,,,,,,,,,,,,,,,,,,,,,,,,,,,,,,,,,,,,,,,,,,,,,,,,,,,,,,,,,,,,,,,,,,,,,,,,,,,,,,,,,,,,,,,,,,,,,,,,,,,,,,,,,,,,,,,,,,,,,,,,,,,,,,,,,,,,,,,,,,,,,,,,,,,,,,,,,,,,,,,,,,,,,,,,,,,,,,,,,,,,,,,,,,,,,,,,,,,,,,,,,,,,,
1764668945.423938,11931,0,4386.410156,4390,4529.743652,4536.410156,4384.487305,4516.794922,4530.384766,4379.871582,4564.743652,4397.307617,4482.307617,4514.487305,4555.641113,4407.05127,4374.358887,4504.230957,4532.436035,4522.05127,4513.717773,4387.179688,4392.692383,4554.615234,4514.358887,4485.384766,4433.846191,4565.769043,4375.128418,4547.05127,4509.487305,4400.897461,4520.256348,4513.846191,2450,0,6,2573,20705,,,,0,4,4,4,4,4,4,4,4,4,4,4,4,4,4,4,4,4,4,4,4,4,4,4,4,4,4,4,4,4,4,4,4,100,,,,,,,,,,,,,,,,,,,,,,,,,,,,,,,,,,,,,,,,,,,,,,,,,,,,,,,,,,,,,,,,,,,,,,,,,,,,,,,,,,,,,,,,,,,,,,,,,,,,,,,,,,,,,,,,,,,,,,,,,,,,,,,,,,,,,,,,,,,,,,,,,,,,,,,,,,,,,,,,,,,,,,,,,,,,,,,,,,,,,,,,,,,,,,,,,,,,,,,,,,,,,,
1764668945.427844,11932,0,4395.512695,4397.563965,4529.615234,4543.333496,4396.282227,4523.589844,4538.205078,4387.05127,4573.077148,4397.820313,4486.282227,4521.794922,4561.538574,4412.692383,4372.563965,4502.94873,4538.974121,4522.307617,4511.794922,4385.897461,4392.692383,4560.512695,4523.333496,4493.589844,4460.256348,4572.563965,4389.871582,4555.897461,4513.077148,4410.641113,4530.384766,4538.461426,2641,0,6,2569,20712,,,,0,4,4,4,4,4,4,4,4,4,4,4,4,4,4,4,4,4,4,4,4,4,4,4,4,4,4,4,4,4,4,4,4,100,,,,,,,,,,,,,,,,,,,,,,,,,,,,,,,,,,,,,,,,,,,,,,,,,,,,,,,,,,,,,,,,,,,,,,,,,,,,,,,,,,,,,,,,,,,,,,,,,,,,,,,,,,,,,,,,,,,,,,,,,,,,,,,,,,,,,,,,,,,,,,,,,,,,,,,,,,,,,,,,,,,,,,,,,,,,,,,,,,,,,,,,,,,,,,,,,,,,,,,,,,,,,,
1764668945.431750,11933,0,4394.487305,4396.538574,4520.384766,4541.410156,4397.692383,4522.179688,4541.153809,4386.794922,4574.358887,4384.230957,4485.641113,4521.025879,4561.153809,4412.563965,4369.615234,4496.410156,4535.769043,4514.102539,4499.615234,4375.256348,4381.538574,4556.922852,4523.077148,4486.666504,4454.102539,4570.128418,4394.615234,4553.333496,4509.615234,4407.563965,4528.333496,4543.589844,2468,0,6,2569,20712,,,,0,4,4,4,4,4,4,4,4,4,4,4,4,4,4,4,4,4,4,4,4,4,4,4,4,4,4,4,4,4,4,4,4,100,,,,,,,,,,,,,,,,,,,,,,,,,,,,,,,,,,,2983,0,0.621558,-0.330322,-0.336853,0.625366,0.99182,-0.009278,-0.001953,18.166666,39.166668,-18.833334,,,,,,,,,,,,,,,,,,,,,,,,,,,,,,,,,,,,,,,,,,,,,,,,,,,,,,,,,,,,,,,,,,,,,,,,,,,,,,,,,,,,,,,,,,,,,,,,,,,,,,,,,,,,,,,,,,,,,,,,,,,,,,,,,,,,,,,,,,,,,,,,,,,,,,,,,,,,,,,,
1764668945.435656,11934,0,4385.384766,4388.333496,4505.769043,4535.128418,4389.230957,4513.846191,4538.846191,4380.128418,4568.461426,4364.230957,4482.05127,4514.102539,4555.384766,4406.538574,4366.153809,4488.461426,4526.025879,4503.846191,4486.410156,4363.077148,4368.461426,4548.205078,4515.769043,4471.282227,4415.256348,4560.769043,4387.94873,4543.205078,4501.922852,4393.333496,4518.205078,4529.230957,2744,0,6,2565,20720,,,,0,4,4,4,4,4,4,4,4,4,4,4,4,4,4,4,4,4,4,4,4,4,4,4,4,4,4,4,4,4,4,4,4,100,,,,,,,,,,,,,,,,,,,,,,,,,,,,,,,,,,,,,,,,,,,,,,,,,,,,,,,,,,,,,,,,,,,,,,,,,,,,,,,,,,,,,,,,,,,,,,,,,,,,,,,,,,,,,,,,,,,,,,,,,,,,,,,,,,,,,,,,,,,,,,,,,,,,,,,,,,,,,,,,,,,,,,,,,,,,,,,,,,,,,,,,,,,,,,,,,,,,,,,,,,,,,,
1764668945.439562,11935,0,4375.769043,4379.358887,4492.563965,4530.128418,4376.538574,4505,4534.102539,4371.922852,4560.384766,4349.230957,4479.743652,4507.436035,4548.846191,4398.974121,4364.487305,4485.256348,4518.205078,4500.128418,4482.692383,4358.333496,4363.717773,4542.563965,4508.077148,4461.025879,4363.974121,4551.538574,4377.820313,4534.871582,4495.897461,4378.717773,4510.897461,4507.563965,2758,0,6,2565,20720,,,,0,4,4,4,4,4,4,4,4,4,4,4,4,4,4,4,4,4,4,4,4,4,4,4,4,4,4,4,4,4,4,4,4,100,,,,,,,,,,,,,,,,,,,,,,,,,,,,,,,,,,,,,,,,,,,,,,,,,,,,,,,,,,,,,,,,,,,,,,,,,,,,,,,,,,,,,,,,,,,,,,,,,,,,,,,,,,,,,,,,,,,,,,,,,,,,,,,,,,,,,,,,,,,,,,,,,,,,,,,,,,,,,,,,,,,,,,,,,,,,,,,,,,,,,,,,,,,,,,,,,,,,,,,,,,,,,,
1764668945.443468,11936,0,4373.333496,4377.179688,4486.794922,4529.230957,4367.94873,4502.05127,4530.384766,4367.94873,4556.538574,4346.410156,4481.538574,4506.153809,4546.922852,4395,4367.05127,4490.769043,4518.974121,4507.05127,4491.410156,4364.230957,4371.025879,4545,4506.153809,4464.871582,4330.384766,4549.487305,4375.256348,4536.410156,4496.025879,4374.871582,4514.871582,4493.846191,2832,0,6,2560,20728,,,,0,4,4,4,4,4,4,4,4,4,4,4,4,4,4,4,4,4,4,4,4,4,4,4,4,4,4,4,4,4,4,4,4,100,,,,,,,,,,,,,,,,,,,,,,,,,,,,,,,,,,,,,,,,,,,,,,,,,,,,,,,,,,,,,,,,,,,,,,,,,,,,,,,,,,,,,,,,,,,,,,,,,,,,,,,,,,,,,,,,,,,,,,,,,,,,,,,,,,,,,,,,,,,,,,,,,,,,,,,,,,,,,,,,,,,,,,,,,,,,,,,,,,,,,,,,,,,,,,,,,,,,,,,,,,,,,,
1764668945.447374,11937,0,4379.743652,4383.205078,4490.897461,4531.153809,4368.077148,4506.538574,4529.358887,4370.512695,4559.615234,4354.615234,4485.769043,4510.769043,4550.897461,4397.307617,4374.230957,4502.307617,4527.820313,4520.641113,4506.153809,4376.282227,4385,4553.461426,4510.641113,4480.769043,4334.487305,4555.769043,4384.871582,4547.692383,4502.307617,4384.358887,4528.974121,4495.128418,2930,0,6,2560,20728,,,,0,4,4,4,4,4,4,4,4,4,4,4,4,4,4,4,4,4,4,4,4,4,4,4,4,4,4,4,4,4,4,4,4,100,,,,,,,,,,,,,,,,,,,,,,,,,,,,,,,,,,,2984,0,0.620498,-0.330261,-0.33728,0.626221,0.989867,-0.024905,-0.010743,18.666666,41,-19.166666,,,,,,,,,,,,,,,,,,,,,,,,,,,,,,,,,,,,,,,,,,,,,,,,,,,,,,,,,,,,,,,,,,,,,,,,,,,,,,,,,,,,,,,,,,,,,,,,,,,,,,,,,,,,,,,,,,,,,,,,,,,,,,,,,,,,,,,,,,,,,,,,,,,,,,,,,,,,,,,,
1764668945.451280,11938,0,4388.974121,4391.922852,4500.384766,4531.794922,4375.897461,4513.589844,4529.487305,4376.282227,4565.897461,4365,4487.563965,4516.794922,4557.307617,4402.436035,4381.794922,4512.820313,4537.820313,4532.05127,4516.666504,4386.153809,4395,4562.179688,4517.307617,4497.436035,4369.615234,4565,4400.128418,4560.769043,4510,4398.461426,4542.307617,4506.282227,2704,0,6,2561,20736,,,,0,4,4,4,4,4,4,4,4,4,4,4,4,4,4,4,4,4,4,4,4,4,4,4,4,4,4,4,4,4,4,4,4,100,,,,,,,,,,,,,,,,,,,,,,,,,,,,,,,,,,,,,,,,,,,,,,,,,,,,,,,,,,,,,,,,,,,,,,,,,,,,,,,,,,,,,,,,,,,,,,,,,,,,,,,,,,,,,,,,,,,,,,,,,,,,,,,,,,,,,,,,,,,,,,,,,,,,,,,,,,,,,,,,,,,,,,,,,,,,,,,,,,,,,,,,,,,,,,,,,,,,,,,,,,,,,,
1764668945.455186,11939,0,4393.077148,4395.256348,4507.179688,4528.974121,4384.743652,4517.05127,4527.692383,4379.871582,4568.974121,4370.256348,4483.589844,4519.102539,4560.384766,4404.230957,4383.974121,4515.128418,4541.282227,4534.743652,4516.666504,4387.307617,4394.358887,4566.153809,4520.384766,4504.102539,4405.256348,4570.128418,4408.717773,4566.666504,4513.461426,4404.358887,4543.717773,4516.794922,2882,0,6,2561,20736,,,,0,4,4,4,4,4,4,4,4,4,4,4,4,4,4,4,4,4,4,4,4,4,4,4,4,4,4,4,4,4,4,4,4,100,,,,,,,,,,,,,,,,,,,,,,,,,,,,,,,,,,,,,,,,,,,,,,,,,,,,,,,,,,,,,,,,,,,,,,,,,,,,,,,,,,,,,,,,,,,,,,,,,,,,,,,,,,,,,,,,,,,,,,,,,,,,,,,,,,,,,,,,,,,,,,,,,,,,,,,,,,,,,,,,,,,,,,,,,,,,,,,,,,,,,,,,,,,,,,,,,,,,,,,,,,,,,,
1764668945.459092,11940,0,4388.717773,4390.641113,4506.025879,4524.358887,4388.333496,4514.615234,4523.333496,4378.846191,4566.025879,4370.641113,4475.897461,4516.666504,4557.820313,4399.615234,4378.333496,4507.820313,4537.05127,4529.102539,4509.230957,4380.256348,4385.512695,4565.641113,4518.846191,4499.102539,4412.692383,4568.589844,4404.102539,4562.94873,4510.897461,4396.794922,4532.179688,4519.615234,2765,0,6,2562,20744,,,,0,4,4,4,4,4,4,4,4,4,4,4,4,4,4,4,4,4,4,4,4,4,4,4,4,4,4,4,4,4,4,4,4,100,,,,,,,,,,,,,,,,,,,,,,,,,,,,,,,,,,,,,,,,,,,,,,,,,,,,,,,,,,,,,,,,,,,,,,,,,,,,,,,,,,,,,,,,,,,,,,,,,,,,,,,,,,,,,,,,,,,,,,,,,,,,,,,,,,,,,,,,,,,,,,,,,,,,,,,,,,,,,,,,,,,,,,,,,,,,,,,,,,,,,,,,,,,,,,,,,,,,,,,,,,,,,,
1764668945.462998,11941,0,4381.410156,4383.974121,4499.230957,4522.692383,4386.922852,4510.641113,4519.871582,4376.153809,4560.512695,4373.461426,4470.769043,4513.333496,4553.205078,4391.794922,4368.333496,4496.666504,4531.153809,4521.794922,4503.589844,4371.794922,4378.461426,4564.615234,4516.538574,4490.897461,4388.205078,4564.230957,4391.538574,4555.769043,4505.769043,4381.794922,4517.307617,4515.128418,2863,0,6,2562,20744,,,,0,4,4,4,4,4,4,4,4,4,4,4,4,4,4,4,4,4,4,4,4,4,4,4,4,4,4,4,4,4,4,4,4,100,,,,,,,,,,,,,,,,,,,,,,,,,,,,,,,,,,,2985,0,0.620498,-0.330261,-0.33728,0.626221,1.005494,-0.016115,-0.020999,17.166666,39.333332,-19.5,,,,,,,,,,,,,,,,,,,,,,,,,,,,,,,,,,,,,,,,,,,,,,,,,,,,,,,,,,,,,,,,,,,,,,,,,,,,,,,,,,,,,,,,,,,,,,,,,,,,,,,,,,,,,,,,,,,,,,,,,,,,,,,,,,,,,,,,,,,,,,,,,,,,,,,,,,,,,,,,
1764668945.466904,11942,0,4379.743652,4383.717773,4493.589844,4527.436035,4386.282227,4511.666504,4522.179688,4377.179688,4559.358887,4383.974121,4473.333496,4514.358887,4552.94873,4388.077148,4362.179688,4489.871582,4531.666504,4520.512695,4507.179688,4369.743652,4381.282227,4567.05127,4518.589844,4488.589844,4355.128418,4563.205078,4383.077148,4553.461426,4503.974121,4372.05127,4511.794922,4507.94873,2834,0,6,2563,20751,,,,0,4,4,4,4,4,4,4,4,4,4,4,4,4,4,4,4,4,4,4,4,4,4,4,4,4,4,4,4,4,4,4,4,100,,,,,,,,,,,,,,,,,,,,,,,,,,,,,,,,,,,,,,,,,,,,,,,,,,,,,,,,,,,,,,,,,,,,,,,,,,,,,,,,,,,,,,,,,,,,,,,,,,,,,,,,,,,,,,,,,,,,,,,,,,,,,,,,,,,,,,,,,,,,,,,,,,,,,,,,,,,,,,,,,,,,,,,,,,,,,,,,,,,,,,,,,,,,,,,,,,,,,,,,,,,,,,
1764668945.470810,11943,0,4387.05127,4392.94873,4493.717773,4536.922852,4390.128418,4519.743652,4531.538574,4383.846191,4565.128418,4397.307617,4482.692383,4520.897461,4560.256348,4393.205078,4365.256348,4492.307617,4541.153809,4527.820313,4519.358887,4376.538574,4393.974121,4572.436035,4525.641113,4494.487305,4342.94873,4568.205078,4386.153809,4558.846191,4508.717773,4375.128418,4520.128418,4500.769043,3017,0,6,2563,20751,,,,0,4,4,4,4,4,4,4,4,4,4,4,4,4,4,4,4,4,4,4,4,4,4,4,4,4,4,4,4,4,4,4,4,100,,,,,,,,,,,,,,,,,,,,,,,,,,,,,,,,,,,,,,,,,,,,,,,,,,,,,,,,,,,,,,,,,,,,,,,,,,,,,,,,,,,,,,,,,,,,,,,,,,,,,,,,,,,,,,,,,,,,,,,,,,,,,,,,,,,,,,,,,,,,,,,,,,,,,,,,,,,,,,,,,,,,,,,,,,,,,,,,,,,,,,,,,,,,,,,,,,,,,,,,,,,,,,
1764668945.474716,11944,0,4398.205078,4405.769043,4498.077148,4545,4395.384766,4529.871582,4543.205078,4392.436035,4573.974121,4403.589844,4492.820313,4528.717773,4570.897461,4405.128418,4376.153809,4501.666504,4554.358887,4538.846191,4531.025879,4387.436035,4407.94873,4577.05127,4532.692383,4502.307617,4364.358887,4576.282227,4396.922852,4567.05127,4516.666504,4387.436035,4535.769043,4493.846191,2918,0,6,2564,20759,,,,0,4,4,4,4,4,4,4,4,4,4,4,4,4,4,4,4,4,4,4,4,4,4,4,4,4,4,4,4,4,4,4,4,100,,,,,,,,,,,,,,,,,,,,,,,,,,,,,,,,,,,,,,,,,,,,,,,,,,,,,,,,,,,,,,,,,,,,,,,,,,,,,,,,,,,,,,,,,,,,,,,,,,,,,,,,,,,,,,,,,,,,,,,,,,,,,,,,,,,,,,,,,,,,,,,,,,,,,,,,,,,,,,,,,,,,,,,,,,,,,,,,,,,,,,,,,,,,,,,,,,,,,,,,,,,,,,
1764668945.478623,11945,0,4403.077148,4412.179688,4501.025879,4544.230957,4395.128418,4533.461426,4548.846191,4396.282227,4578.589844,4397.307617,4496.666504,4531.025879,4577.05127,4415.641113,4387.05127,4510.128418,4561.538574,4545.256348,4532.820313,4394.743652,4413.205078,4576.666504,4533.205078,4504.102539,4406.794922,4581.410156,4404.615234,4570.128418,4521.282227,4397.94873,4546.922852,4487.563965,2781,0,6,2564,20759,,,,0,4,4,4,4,4,4,4,4,4,4,4,4,4,4,4,4,4,4,4,4,4,4,4,4,4,4,4,4,4,4,4,4,100,,,,,,,,,,,,,,,,,,,,,,,,,,,,,,,,,,,2986,0,0.619479,-0.330017,-0.337463,0.627258,1.006471,-0.040044,-0.029789,16.833334,39.5,-20.5,,,,,,,,,,,,,,,,,,,,,,,,,,,,,,,,,,,,,,,,,,,,,,,,,,,,,,,,,,,,,,,,,,,,,,,,,,,,,,,,,,,,,,,,,,,,,,,,,,,,,,,,,,,,,,,,,,,,,,,,,,,,,,,,,,,,,,,,,,,,,,,,,,,,,,,,,,,,,,,,
1764668945.482529,11946,0,4395.769043,4405.769043,4499.230957,4532.563965,4386.538574,4525.769043,4543.717773,4391.666504,4574.615234,4384.230957,4491.282227,4524.230957,4572.820313,4416.666504,4389.871582,4510.897461,4557.05127,4542.179688,4522.307617,4393.205078,4406.153809,4570.384766,4525,4496.922852,4443.717773,4579.230957,4400.897461,4563.333496,4517.436035,4397.820313,4546.025879,4484.487305,2451,0,6,2565,20767,,,,0,4,4,4,4,4,4,4,4,4,4,4,4,4,4,4,4,4,4,4,4,4,4,4,4,4,4,4,4,4,4,4,4,100,,,,,,,,,,,,,,,,,,,,,,,,,,,,,,,,,,,,,,,,,,,,,,,,,,,,,,,,,,,,,,,,,,,,,,,,,,,,,,,,,,,,,,,,,,,,,,,,,,,,,,,,,,,,,,,,,,,,,,,,,,,,,,,,,,,,,,,,,,,,,,,,,,,,,,,,,,,,,,,,,,,,,,,,,,,,,,,,,,,,,,,,,,,,,,,,,,,,,,,,,,,,,,
1764668945.486435,11947,0,4379.615234,4389.743652,4494.358887,4515.897461,4374.743652,4510.897461,4531.282227,4380.641113,4564.743652,4375.641113,4480.384766,4511.538574,4559.743652,4407.05127,4382.94873,4503.717773,4543.461426,4532.179688,4507.05127,4384.230957,4392.436035,4561.410156,4511.922852,4485.384766,4454.615234,4570.384766,4386.666504,4549.615234,4506.922852,4387.94873,4534.615234,4487.692383,2736,0,6,2565,20767,,,,0,4,4,4,4,4,4,4,4,4,4,4,4,4,4,4,4,4,4,4,4,4,4,4,4,4,4,4,4,4,4,4,4,100,,,,,,,,,,,,,,,,,,,,,,,,,,,,,,,,,,,,,,,,,,,,,,,,,,,,,,,,,,,,,,,,,,,,,,,,,,,,,,,,,,,,,,,,,,,,,,,,,,,,,,,,,,,,,,,,,,,,,,,,,,,,,,,,,,,,,,,,,,,,,,,,,,,,,,,,,,,,,,,,,,,,,,,,,,,,,,,,,,,,,,,,,,,,,,,,,,,,,,,,,,,,,,
1764668945.490341,11948,0,4364.871582,4373.974121,4491.922852,4505,4368.974121,4498.205078,4521.025879,4370,4556.153809,4378.333496,4472.692383,4500.384766,4546.025879,4393.461426,4373.205078,4496.282227,4529.871582,4524.230957,4498.717773,4374.615234,4382.179688,4555,4501.666504,4477.05127,4438.461426,4560.384766,4371.025879,4536.538574,4496.282227,4377.436035,4520.641113,4496.025879,2494,0,6,2566,20775,,,,0,4,4,4,4,4,4,4,4,4,4,4,4,4,4,4,4,4,4,4,4,4,4,4,4,4,4,4,4,4,4,4,4,100,,,,,,,,,,,,,,,,,,,,,,,,,,,,,,,,,,,,,,,,,,,,,,,,,,,,,,,,,,,,,,,,,,,,,,,,,,,,,,,,,,,,,,,,,,,,,,,,,,,,,,,,,,,,,,,,,,,,,,,,,,,,,,,,,,,,,,,,,,,,,,,,,,,,,,,,,,,,,,,,,,,,,,,,,,,,,,,,,,,,,,,,,,,,,,,,,,,,,,,,,,,,,,
1764668945.494247,11949,0,4360.641113,4368.077148,4496.025879,4507.307617,4373.077148,4496.410156,4521.025879,4366.794922,4554.615234,4387.307617,4474.615234,4497.436035,4541.410156,4385.384766,4370.512695,4497.563965,4525.256348,4525.897461,4503.717773,4370.769043,4381.922852,4554.230957,4499.871582,4477.307617,4411.025879,4555.256348,4363.717773,4531.538574,4492.179688,4375.256348,4511.666504,4504.615234,2247,0,6,2566,20775,,,,0,4,4,4,4,4,4,4,4,4,4,4,4,4,4,4,4,4,4,4,4,4,4,4,4,4,4,4,4,4,4,4,4,100,,,,,,,,,,,,,,,,,,,,,,,,,,,,,,,,,,,2987,0,0.618879,-0.329956,-0.33783,0.627686,1.002564,-0.018069,-0.020999,18.333334,40.5,-20,,,,,,,,,,,,,,,,,,,,,,,,,,,,,,,,,,,,,,,,,,,,,,,,,,,,,,,,,,,,,,,,,,,,,,,,,,,,,,,,,,,,,,,,,,,,,,,,,,,,,,,,,,,,,,,,,,,,,,,,,,,,,,,,,,,,,,,,,,,,,,,,,,,,,,,,,,,,,,,,
1764668945.498153,11950,0,4368.717773,4375.128418,4505.769043,4521.410156,4382.94873,4506.025879,4531.282227,4373.717773,4560.512695,4391.282227,4485.384766,4503.717773,4549.487305,4388.077148,4380,4509.487305,4531.922852,4537.179688,4517.692383,4374.102539,4389.743652,4558.589844,4506.538574,4485,4390.512695,4557.820313,4368.333496,4536.794922,4496.410156,4384.358887,4510,4508.205078,2745,0,6,2567,20783,,,,0,4,4,4,4,4,4,4,4,4,4,4,4,4,4,4,4,4,4,4,4,4,4,4,4,4,4,4,4,4,4,4,4,100,,,,,,,,,,,,,,,,,,,,,,,,,,,,,,,,,,,,,,,,,,,,,,,,,,,,,,,,,,,,,,,,,,,,,,,,,,,,,,,,,,,,,,,,,,,,,,,,,,,,,,,,,,,,,,,,,,,,,,,,,,,,,,,,,,,,,,,,,,,,,,,,,,,,,,,,,,,,,,,,,,,,,,,,,,,,,,,,,,,,,,,,,,,,,,,,,,,,,,,,,,,,,,
1764668945.502059,11951,0,4383.077148,4389.487305,4516.538574,4539.102539,4390.769043,4520,4544.871582,4387.436035,4569.358887,4382.692383,4498.077148,4515.128418,4565,4398.205078,4397.307617,4524.487305,4544.487305,4549.871582,4529.102539,4380.512695,4398.077148,4563.589844,4516.025879,4493.205078,4384.102539,4565.769043,4379.615234,4547.94873,4505.128418,4399.102539,4513.077148,4506.410156,2471,0,6,2567,20783,,,,0,4,4,4,4,4,4,4,4,4,4,4,4,4,4,4,4,4,4,4,4,4,4,4,4,4,4,4,4,4,4,4,4,100,,,,,,,,,,,,,,,,,,,,,,,,,,,,,,,,,,,,,,,,,,,,,,,,,,,,,,,,,,,,,,,,,,,,,,,,,,,,,,,,,,,,,,,,,,,,,,,,,,,,,,,,,,,,,,,,,,,,,,,,,,,,,,,,,,,,,,,,,,,,,,,,,,,,,,,,,,,,,,,,,,,,,,,,,,,,,,,,,,,,,,,,,,,,,,,,,,,,,,,,,,,,,,
1764668945.505965,11952,0,4394.358887,4401.794922,4524.230957,4550.897461,4391.282227,4529.358887,4553.589844,4400.769043,4575.512695,4365,4504.871582,4524.871582,4578.333496,4407.820313,4411.666504,4531.922852,4554.102539,4554.230957,4528.461426,4385,4399.615234,4565.128418,4521.794922,4495.769043,4386.666504,4573.461426,4388.589844,4557.307617,4512.436035,4410.512695,4518.077148,4503.589844,2910,0,6,2568,20790,,,,0,4,4,4,4,4,4,4,4,4,4,4,4,4,4,4,4,4,4,4,4,4,4,4,4,4,4,4,4,4,4,4,4,100,,,,,,,,,,,,,,,,,,,,,,,,,,,,,,,,,,,,,,,,,,,,,,,1.574142,1.29574,2.482487,1.517715,2.418313,1.377297,2.037158,2.960929,1.959722,2.891984,1.890479,2.070688,2.810271,3.280758,5.18897,1.173949,1.132148,1.597696,1.851392,3.208369,1.672781,1.793838,3.244922,3.998828,3.156226,2.062986,1.075134,2.121848,1.441932,2.361104,1.002031,1.676226,2.141396,1.742974,2.58697,1.044181,2.077212,2.773613,1.99751,3.26959,0.63362,1.137163,1.879317,2.244988,3.13936,0.662269,3.243796,3.050623,4.337064,8.400858,1.5241,1.148217,0.852166,1.360516,1.931525,1.305239,1.338587,1.359027,1.719645,2.271574,0.839678,1.143104,1.227067,1.435802,1.867916,0.628583,1.080016,0.490252,0.721129,1.366263,0.630232,0.645546,1.184566,1.673483,1.870497,1.825201,2.374306,1.327801,1.415069,2.497653,1.287269,1.620473,1.707269,1.730526,2.638234,1.525209,2.838485,1.363814,1.640138,2.895869,0.861397,1.809125,1.038911,1.067884,1.778649,1.213373,0.772162,1.32876,1.466074,2.557673,1.041774,2.321091,3.009215,1.742177,2.718603,1.335595,1.633389,2.278918,2.080799,2.853373,1.790635,2.179862,2.056802,1.815634,2.666648,1.501983,1.701197,2.876263,1.827264,3.143198,1.965229,7.772282,8.788282,7.041675,7.885312,1.232515,1.450287,2.739507,1.764402,2.758632,1.397413,1.852938,3.264543,1.595858,3.155439,1.636293,1.955655,2.787996,1.871513,2.922828,0.798228,0.881005,1.100513,0.827985,1.312018,1.829839,2.109481,3.612414,3.389819,3.823501,2.429574,2.39076,3.314899,2.606267,2.667448,2.260226,4.227126,3.390424,4.249178,3.635988
1764668945.509871,11953,0,4397.307617,4405.384766,4527.820313,4552.563965,4385.512695,4529.743652,4553.461426,4406.922852,4576.282227,4350.769043,4502.94873,4528.589844,4582.820313,4410.769043,4413.717773,4527.820313,4555.384766,4548.205078,4517.179688,4385.256348,4393.333496,4562.820313,4520.897461,4491.538574,4390,4576.153809,4389.487305,4560.384766,4514.102539,4412.179688,4523.205078,4504.615234,2901,0,6,2568,20790,,,,0,4,4,4,4,4,4,4,4,4,4,4,4,4,4,4,4,4,4,4,4,4,4,4,4,4,4,4,4,4,4,4,4,100,,,,,,,,,,,,,,,,,,,,,,,,,,,,,,,,,,,2988,0,0.61834,-0.329895,-0.338196,0.628052,1.002564,-0.018069,-0.020999,18.5,40,-21,,,,,,,,,,,,,,,,,,,,,,,,,,,,,,,,,,,,,,,,,,,,,,,,,,,,,,,,,,,,,,,,,,,,,,,,,,,,,,,,,,,,,,,,,,,,,,,,,,,,,,,,,,,,,,,,,,,,,,,,,,,,,,,,,,,,,,,,,,,,,,,,,,,,,,,,,,,,,,,,
1764668945.513777,11954,0,4393.589844,4401.153809,4529.230957,4546.538574,4379.743652,4524.230957,4547.563965,4404.743652,4573.205078,4351.794922,4496.153809,4526.538574,4579.487305,4407.307617,4404.102539,4518.205078,4550.128418,4538.974121,4506.025879,4384.102539,4385.641113,4560.256348,4515.897461,4485.897461,4393.205078,4573.589844,4384.102539,4557.820313,4510.641113,4404.615234,4528.077148,4510.256348,1785,0,6,2569,20798,,,,0,4,4,4,4,4,4,4,4,4,4,4,4,4,4,4,4,4,4,4,4,4,4,4,4,4,4,4,4,4,4,4,4,100,,,,,,,,,,,,,,,,,,,,,,,,,,,,,,,,,,,,,,,,,,,,,,,,,,,,,,,,,,,,,,,,,,,,,,,,,,,,,,,,,,,,,,,,,,,,,,,,,,,,,,,,,,,,,,,,,,,,,,,,,,,,,,,,,,,,,,,,,,,,,,,,,,,,,,,,,,,,,,,,,,,,,,,,,,,,,,,,,,,,,,,,,,,,,,,,,,,,,,,,,,,,,,
1764668945.517683,11955,0,4388.846191,4395.128418,4529.230957,4538.461426,4380.384766,4519.230957,4542.179688,4398.589844,4570.256348,4368.077148,4490.256348,4522.820313,4573.974121,4402.436035,4391.153809,4513.077148,4544.743652,4535.897461,4505.897461,4385.641113,4384.487305,4561.538574,4511.794922,4484.487305,4401.922852,4569.102539,4377.820313,4553.461426,4505.769043,4393.333496,4530,4515.641113,2767,0,6,2569,20798,,,,0,4,4,4,4,4,4,4,4,4,4,4,4,4,4,4,4,4,4,4,4,4,4,4,4,4,4,4,4,4,4,4,4,100,,,,,,,,,,,,,,,,,,,,,,,,,,,,,,,,,,,,,,,,,,,,,,,,,,,,,,,,,,,,,,,,,,,,,,,,,,,,,,,,,,,,,,,,,,,,,,,,,,,,,,,,,,,,,,,,,,,,,,,,,,,,,,,,,,,,,,,,,,,,,,,,,,,,,,,,,,,,,,,,,,,,,,,,,,,,,,,,,,,,,,,,,,,,,,,,,,,,,,,,,,,,,,
1764668945.521589,11956,0,4385.897461,4391.153809,4525,4531.666504,4387.436035,4517.179688,4539.743652,4391.922852,4568.333496,4385.256348,4487.307617,4519.358887,4569.871582,4398.717773,4383.589844,4515.897461,4542.179688,4540.128418,4516.410156,4389.615234,4391.538574,4565.256348,4510.256348,4487.05127,4416.282227,4563.846191,4373.461426,4549.102539,4501.666504,4383.205078,4523.333496,4512.692383,2614,0,6,2570,20806,,,,0,4,4,4,4,4,4,4,4,4,4,4,4,4,4,4,4,4,4,4,4,4,4,4,4,4,4,4,4,4,4,4,4,100,,,,,,,,,,,,,,,,,,,,,,,,,,,,,,,,,,,,,,,,,,,,,,,,,,,,,,,,,,,,,,,,,,,,,,,,,,,,,,,,,,,,,,,,,,,,,,,,,,,,,,,,,,,,,,,,,,,,,,,,,,,,,,,,,,,,,,,,,,,,,,,,,,,,,,,,,,,,,,,,,,,,,,,,,,,,,,,,,,,,,,,,,,,,,,,,,,,,,,,,,,,,,,
1764668945.525495,11957,0,4382.179688,4387.05127,4511.153809,4524.615234,4393.717773,4514.871582,4536.666504,4384.487305,4562.94873,4385.641113,4483.974121,4514.230957,4564.871582,4394.743652,4382.692383,4520.128418,4539.230957,4542.94873,4526.538574,4390.512695,4399.487305,4565.641113,4508.077148,4486.666504,4424.102539,4555.512695,4368.205078,4542.692383,4497.563965,4373.974121,4504.358887,4495.897461,2824,0,6,2570,20806,,,,0,4,4,4,4,4,4,4,4,4,4,4,4,4,4,4,4,4,4,4,4,4,4,4,4,4,4,4,4,4,4,4,4,100,,,,,,,,,,,,,,,,,,,,,,,,,,,,,,,,,,,2989,0,0.617771,-0.329834,-0.338501,0.628479,1.020144,-0.021487,-0.029789,17.5,39.833332,-19.166666,,,,,,,,,,,,,,,,,,,,,,,,,,,,,,,,,,,,,,,,,,,,,,,,,,,,,,,,,,,,,,,,,,,,,,,,,,,,,,,,,,,,,,,,,,,,,,,,,,,,,,,,,,,,,,,,,,,,,,,,,,,,,,,,,,,,,,,,,,,,,,,,,,,,,,,,,,,,,,,,
1764668945.529401,11958,0,4374.743652,4380.128418,4486.410156,4515.384766,4392.436035,4508.205078,4529.102539,4375.256348,4551.538574,4365.128418,4477.436035,4505,4556.282227,4388.717773,4383.846191,4516.538574,4531.538574,4535.128418,4525.128418,4383.461426,4399.358887,4558.589844,4501.922852,4478.461426,4409.358887,4542.563965,4359.871582,4532.692383,4492.179688,4364.487305,4477.94873,4469.358887,2945,0,6,2568,20814,,,,0,4,4,4,4,4,4,4,4,4,4,4,4,4,4,4,4,4,4,4,4,4,4,4,4,4,4,4,4,4,4,4,4,100,,,,,,,,,,,,,,,,,,,,,,,,,,,,,,,,,,,,,,,,,,,,,,,,,,,,,,,,,,,,,,,,,,,,,,,,,,,,,,,,,,,,,,,,,,,,,,,,,,,,,,,,,,,,,,,,,,,,,,,,,,,,,,,,,,,,,,,,,,,,,,,,,,,,,,,,,,,,,,,,,,,,,,,,,,,,,,,,,,,,,,,,,,,,,,,,,,,,,,,,,,,,,,
1764668945.533307,11959,0,4366.025879,4373.461426,4459.358887,4507.820313,4385.128418,4499.102539,4520.256348,4367.563965,4539.615234,4341.410156,4471.025879,4495.256348,4546.538574,4383.077148,4383.461426,4503.461426,4521.025879,4517.820313,4510.897461,4371.666504,4389.615234,4547.179688,4494.743652,4466.025879,4371.794922,4529.487305,4352.820313,4523.589844,4487.307617,4357.436035,4459.102539,4446.025879,2868,0,6,2568,20814,,,,0,4,4,4,4,4,4,4,4,4,4,4,4,4,4,4,4,4,4,4,4,4,4,4,4,4,4,4,4,4,4,4,4,100,,,,,,,,,,,,,,,,,,,,,,,,,,,,,,,,,,,,,,,,,,,,,,,,,,,,,,,,,,,,,,,,,,,,,,,,,,,,,,,,,,,,,,,,,,,,,,,,,,,,,,,,,,,,,,,,,,,,,,,,,,,,,,,,,,,,,,,,,,,,,,,,,,,,,,,,,,,,,,,,,,,,,,,,,,,,,,,,,,,,,,,,,,,,,,,,,,,,,,,,,,,,,,
1764668945.537213,11960,0,4364.487305,4375.512695,4446.282227,4510.384766,4381.922852,4496.025879,4518.974121,4368.717773,4538.974121,4340,4472.179688,4493.077148,4543.846191,4384.487305,4383.589844,4490.512695,4517.179688,4503.717773,4495.128418,4365,4378.077148,4540.769043,4493.974121,4460.512695,4334.358887,4526.025879,4355.128418,4523.461426,4488.077148,4358.974121,4463.205078,4440,2712,0,6,2566,20822,,,,0,4,4,4,4,4,4,4,4,4,4,4,4,4,4,4,4,4,4,4,4,4,4,4,4,4,4,4,4,4,4,4,4,100,,,,,,,,,,,,,,,,,,,,,,,,,,,,,,,,,,,,,,,,,,,,,,,,,,,,,,,,,,,,,,,,,,,,,,,,,,,,,,,,,,,,,,,,,,,,,,,,,,,,,,,,,,,,,,,,,,,,,,,,,,,,,,,,,,,,,,,,,,,,,,,,,,,,,,,,,,,,,,,,,,,,,,,,,,,,,,,,,,,,,,,,,,,,,,,,,,,,,,,,,,,,,,
1764668945.541119,11961,0,4375.641113,4390.769043,4457.820313,4527.179688,4391.153809,4505.128418,4530.897461,4382.436035,4556.282227,4371.025879,4484.230957,4504.230957,4553.589844,4395.769043,4387.307617,4489.487305,4527.179688,4506.025879,4491.153809,4371.282227,4374.743652,4546.538574,4504.487305,4469.487305,4326.922852,4537.436035,4370.128418,4536.538574,4497.563965,4372.563965,4492.436035,4455.769043,2896,0,6,2566,20822,,,,0,4,4,4,4,4,4,4,4,4,4,4,4,4,4,4,4,4,4,4,4,4,4,4,4,4,4,4,4,4,4,4,4,100,,,,,,,,,,,,,,,,,,,,,,,,,,,,,,,,,,,2990,0,0.616649,-0.330017,-0.339233,0.629089,1.007936,-0.018557,-0.026859,18.666666,39.333332,-20,,,,,,,,,,,,,,,,,,,,,,,,,,,,,,,,,,,,,,,,,,,,,,,,,,,,,,,,,,,,,,,,,,,,,,,,,,,,,,,,,,,,,,,,,,,,,,,,,,,,,,,,,,,,,,,,,,,,,,,,,,,,,,,,,,,,,,,,,,,,,,,,,,,,,,,,,,,,,,,,
1764668945.545025,11962,0,4395.128418,4412.94873,4489.102539,4551.282227,4410.128418,4523.717773,4551.538574,4402.307617,4583.589844,4416.794922,4501.538574,4524.487305,4571.922852,4411.538574,4394.230957,4504.102539,4548.333496,4525.641113,4503.717773,4388.205078,4383.589844,4562.563965,4522.307617,4489.358887,4359.102539,4558.589844,4390.384766,4556.282227,4512.307617,4393.205078,4531.794922,4484.743652,1808,0,6,2567,20830,,,,0,4,4,4,4,4,4,4,4,4,4,4,4,4,4,4,4,4,4,4,4,4,4,4,4,4,4,4,4,4,4,4,4,100,,,,,,,,,,,,,,,,,,,,,,,,,,,,,,,,,,,,,,,,,,,,,,,,,,,,,,,,,,,,,,,,,,,,,,,,,,,,,,,,,,,,,,,,,,,,,,,,,,,,,,,,,,,,,,,,,,,,,,,,,,,,,,,,,,,,,,,,,,,,,,,,,,,,,,,,,,,,,,,,,,,,,,,,,,,,,,,,,,,,,,,,,,,,,,,,,,,,,,,,,,,,,,
1764668945.548931,11963,0,4410.769043,4429.102539,4522.563965,4568.717773,4425.897461,4541.025879,4568.589844,4416.410156,4603.205078,4446.410156,4512.94873,4541.282227,4587.436035,4421.794922,4398.974121,4524.743652,4567.563965,4549.615234,4524.743652,4404.743652,4399.871582,4579.358887,4536.922852,4507.307617,4408.717773,4576.794922,4403.846191,4570.512695,4524.102539,4409.230957,4559.102539,4511.794922,2451,0,6,2567,20830,,,,0,4,4,4,4,4,4,4,4,4,4,4,4,4,4,4,4,4,4,4,4,4,4,4,4,4,4,4,4,4,4,4,4,100,,,,,,,,,,,,,,,,,,,,,,,,,,,,,,,,,,,,,,,,,,,,,,,,,,,,,,,,,,,,,,,,,,,,,,,,,,,,,,,,,,,,,,,,,,,,,,,,,,,,,,,,,,,,,,,,,,,,,,,,,,,,,,,,,,,,,,,,,,,,,,,,,,,,,,,,,,,,,,,,,,,,,,,,,,,,,,,,,,,,,,,,,,,,,,,,,,,,,,,,,,,,,,
1764668945.552837,11964,0,4412.436035,4429.487305,4540.512695,4569.743652,4426.666504,4546.025879,4571.538574,4415.512695,4601.922852,4441.153809,4511.025879,4543.333496,4590.256348,4420.256348,4396.282227,4536.153809,4572.820313,4561.794922,4540.128418,4410.384766,4414.615234,4586.794922,4539.615234,4512.05127,4439.102539,4581.666504,4402.94873,4571.282227,4526.153809,4411.538574,4561.282227,4527.179688,2638,0,6,2567,20837,,,,0,4,4,4,4,4,4,4,4,4,4,4,4,4,4,4,4,4,4,4,4,4,4,4,4,4,4,4,4,4,4,4,4,100,,,,,,,,,,,,,,,,,,,,,,,,,,,,,,,,,,,,,,,,,,,,,,,,,,,,,,,,,,,,,,,,,,,,,,,,,,,,,,,,,,,,,,,,,,,,,,,,,,,,,,,,,,,,,,,,,,,,,,,,,,,,,,,,,,,,,,,,,,,,,,,,,,,,,,,,,,,,,,,,,,,,,,,,,,,,,,,,,,,,,,,,,,,,,,,,,,,,,,,,,,,,,,
1764668945.556743,11965,0,4400.512695,4415.641113,4537.692383,4556.282227,4411.794922,4536.666504,4559.743652,4401.282227,4581.794922,4408.589844,4498.333496,4530.256348,4580.512695,4409.743652,4385.769043,4529.102539,4562.05127,4554.102539,4540.769043,4403.461426,4420.769043,4581.538574,4530.769043,4502.94873,4428.589844,4573.461426,4391.794922,4560.897461,4518.589844,4400.641113,4543.461426,4531.538574,2464,0,6,2567,20837,,,,0,4,4,4,4,4,4,4,4,4,4,4,4,4,4,4,4,4,4,4,4,4,4,4,4,4,4,4,4,4,4,4,4,100,,,,,,,,,,,,,,,,,,,,,,,,,,,,,,,,,,,2991,0,0.616233,-0.330078,-0.339478,0.629333,0.98303,-0.035649,-0.036626,18.5,40,-20.166666,,,,,,,,,,,,,,,,,,,,,,,,,,,,,,,,,,,,,,,,,,,,,,,,,,,,,,,,,,,,,,,,,,,,,,,,,,,,,,,,,,,,,,,,,,,,,,,,,,,,,,,,,,,,,,,,,,,,,,,,,,,,,,,,,,,,,,,,,,,,,,,,,,,,,,,,,,,,,,,,
1764668945.560649,11966,0,4383.974121,4398.333496,4522.820313,4538.846191,4392.307617,4520.641113,4541.922852,4382.563965,4557.820313,4373.589844,4483.846191,4512.179688,4566.538574,4398.717773,4372.692383,4507.307617,4544.615234,4532.94873,4527.94873,4390.256348,4416.282227,4569.230957,4518.205078,4489.102539,4387.307617,4561.538574,4381.025879,4549.230957,4507.692383,4385.256348,4522.307617,4530.256348,2743,0,6,2564,20845,,,,0,4,4,4,4,4,4,4,4,4,4,4,4,4,4,4,4,4,4,4,4,4,4,4,4,4,4,4,4,4,4,4,4,100,,,,,,,,,,,,,,,,,,,,,,,,,,,,,,,,,,,,,,,,,,,,,,,,,,,,,,,,,,,,,,,,,,,,,,,,,,,,,,,,,,,,,,,,,,,,,,,,,,,,,,,,,,,,,,,,,,,,,,,,,,,,,,,,,,,,,,,,,,,,,,,,,,,,,,,,,,,,,,,,,,,,,,,,,,,,,,,,,,,,,,,,,,,,,,,,,,,,,,,,,,,,,,
1764668945.564555,11967,0,4372.692383,4388.077148,4508.717773,4527.436035,4380,4508.333496,4528.589844,4368.333496,4544.487305,4356.538574,4476.410156,4500,4558.077148,4393.077148,4363.589844,4484.615234,4531.922852,4512.05127,4511.282227,4379.102539,4403.846191,4558.333496,4509.615234,4480.384766,4346.666504,4555.641113,4379.230957,4543.974121,4500.128418,4374.871582,4511.922852,4526.666504,2759,0,6,2564,20845,,,,0,4,4,4,4,4,4,4,4,4,4,4,4,4,4,4,4,4,4,4,4,4,4,4,4,4,4,4,4,4,4,4,4,100,,,,,,,,,,,,,,,,,,,,,,,,,,,,,,,,,,,,,,,,,,,,,,,,,,,,,,,,,,,,,,,,,,,,,,,,,,,,,,,,,,,,,,,,,,,,,,,,,,,,,,,,,,,,,,,,,,,,,,,,,,,,,,,,,,,,,,,,,,,,,,,,,,,,,,,,,,,,,,,,,,,,,,,,,,,,,,,,,,,,,,,,,,,,,,,,,,,,,,,,,,,,,,
1764668945.568461,11968,0,4370.128418,4387.563965,4502.692383,4524.871582,4379.102539,4504.487305,4524.230957,4362.307617,4546.538574,4359.615234,4477.94873,4498.461426,4558.205078,4392.820313,4361.025879,4474.358887,4529.358887,4503.589844,4500.769043,4374.871582,4389.230957,4553.846191,4507.563965,4480.512695,4334.871582,4559.358887,4385.256348,4545.512695,4498.589844,4373.717773,4514.358887,4520.512695,2815,0,6,2562,20853,,,,0,4,4,4,4,4,4,4,4,4,4,4,4,4,4,4,4,4,4,4,4,4,4,4,4,4,4,4,4,4,4,4,4,100,,,,,,,,,,,,,,,,,,,,,,,,,,,,,,,,,,,,,,,,,,,,,,,,,,,,,,,,,,,,,,,,,,,,,,,,,,,,,,,,,,,,,,,,,,,,,,,,,,,,,,,,,,,,,,,,,,,,,,,,,,,,,,,,,,,,,,,,,,,,,,,,,,,,,,,,,,,,,,,,,,,,,,,,,,,,,,,,,,,,,,,,,,,,,,,,,,,,,,,,,,,,,,
1764668945.572367,11969,0,4372.94873,4392.436035,4503.205078,4527.307617,4385,4507.05127,4526.282227,4363.077148,4557.563965,4370.384766,4484.358887,4503.846191,4563.205078,4393.589844,4363.974121,4481.025879,4534.358887,4509.743652,4501.282227,4376.794922,4378.333496,4554.743652,4509.743652,4486.282227,4358.846191,4568.077148,4391.794922,4548.717773,4500.769043,4380.128418,4521.794922,4510.512695,2924,0,6,2562,20853,,,,0,4,4,4,4,4,4,4,4,4,4,4,4,4,4,4,4,4,4,4,4,4,4,4,4,4,4,4,4,4,4,4,4,100,,,,,,,,,,,,,,,,,,,,,,,,,,,,,,,,,,,2992,0,0.615906,-0.330078,-0.339844,0.629456,0.994262,-0.024417,-0.038091,19,40.833332,-21,,,,,,,,,,,,,,,,,,,,,,,,,,,,,,,,,,,,,,,,,,,,,,,,,,,,,,,,,,,,,,,,,,,,,,,,,,,,,,,,,,,,,,,,,,,,,,,,,,,,,,,,,,,,,,,,,,,,,,,,,,,,,,,,,,,,,,,,,,,,,,,,,,,,,,,,,,,,,,,,
1764668945.576273,11970,0,4376.922852,4397.05127,4505.128418,4529.102539,4391.666504,4511.025879,4530.897461,4367.820313,4567.692383,4375.512695,4489.871582,4510,4566.666504,4393.077148,4370,4498.717773,4540.512695,4524.230957,4509.743652,4381.153809,4375.384766,4557.563965,4512.179688,4492.692383,4403.717773,4575.128418,4392.307617,4549.230957,4503.974121,4389.358887,4526.025879,4499.230957,2691,0,6,2563,20861,,,,0,4,4,4,4,4,4,4,4,4,4,4,4,4,4,4,4,4,4,4,4,4,4,4,4,4,4,4,4,4,4,4,4,100,,,,,,,,,,,,,,,,,,,,,,,,,,,,,,,,,,,,,,,,,,,,,,,,,,,,,,,,,,,,,,,,,,,,,,,,,,,,,,,,,,,,,,,,,,,,,,,,,,,,,,,,,,,,,,,,,,,,,,,,,,,,,,,,,,,,,,,,,,,,,,,,,,,,,,,,,,,,,,,,,,,,,,,,,,,,,,,,,,,,,,,,,,,,,,,,,,,,,,,,,,,,,,
1764668945.580179,11971,0,4380.256348,4398.974121,4505.512695,4528.333496,4396.025879,4513.589844,4536.282227,4375,4571.922852,4372.179688,4491.794922,4513.077148,4566.153809,4392.820313,4377.307617,4517.436035,4544.230957,4537.820313,4520,4384.871582,4381.025879,4560.128418,4514.230957,4497.05127,4445.769043,4576.538574,4387.307617,4547.436035,4506.666504,4397.563965,4526.538574,4491.922852,2862,0,6,2563,20861,,,,0,4,4,4,4,4,4,4,4,4,4,4,4,4,4,4,4,4,4,4,4,4,4,4,4,4,4,4,4,4,4,4,4,100,,,,,,,,,,,,,,,,,,,,,,,,,,,,,,,,,,,,,,,,,,,,,,,,,,,,,,,,,,,,,,,,,,,,,,,,,,,,,,,,,,,,,,,,,,,,,,,,,,,,,,,,,,,,,,,,,,,,,,,,,,,,,,,,,,,,,,,,,,,,,,,,,,,,,,,,,,,,,,,,,,,,,,,,,,,,,,,,,,,,,,,,,,,,,,,,,,,,,,,,,,,,,,
1764668945.584085,11972,0,4383.717773,4399.743652,4505.769043,4528.077148,4398.974121,4515.512695,4543.077148,4383.717773,4571.538574,4367.307617,4492.436035,4513.846191,4564.871582,4395.769043,4385.512695,4529.871582,4546.410156,4546.153809,4527.820313,4387.820313,4393.461426,4563.205078,4517.05127,4499.615234,4466.153809,4573.717773,4382.692383,4547.563965,4509.230957,4402.05127,4528.333496,4492.436035,2756,0,6,2564,20869,,,,0,4,4,4,4,4,4,4,4,4,4,4,4,4,4,4,4,4,4,4,4,4,4,4,4,4,4,4,4,4,4,4,4,100,,,,,,,,,,,,,,,,,,,,,,,,,,,,,,,,,,,,,,,,,,,,,,,,,,,,,,,,,,,,,,,,,,,,,,,,,,,,,,,,,,,,,,,,,,,,,,,,,,,,,,,,,,,,,,,,,,,,,,,,,,,,,,,,,,,,,,,,,,,,,,,,,,,,,,,,,,,,,,,,,,,,,,,,,,,,,,,,,,,,,,,,,,,,,,,,,,,,,,,,,,,,,,
1764668945.587991,11973,0,4388.461426,4401.666504,4508.333496,4531.922852,4402.436035,4519.358887,4550.897461,4392.820313,4570.641113,4369.487305,4494.487305,4515.512695,4567.436035,4402.307617,4393.205078,4534.358887,4550.128418,4550.897461,4532.820313,4392.05127,4408.717773,4568.717773,4522.563965,4501.794922,4459.102539,4570.641113,4384.230957,4552.563965,4511.794922,4402.436035,4533.974121,4499.358887,2842,0,6,2564,20869,,,,0,4,4,4,4,4,4,4,4,4,4,4,4,4,4,4,4,4,4,4,4,4,4,4,4,4,4,4,4,4,4,4,4,100,,,,,,,,,,,,,,,,,,,,,,,,,,,,,,,,,,,2993,0,0.615564,-0.330383,-0.340393,0.629333,1.002564,-0.030277,-0.03223,18.666666,39,-17.833334,,,,,,,,,,,,,,,,,,,,,,,,,,,,,,,,,,,,,,,,,,,,,,,,,,,,,,,,,,,,,,,,,,,,,,,,,,,,,,,,,,,,,,,,,,,,,,,,,,,,,,,,,,,,,,,,,,,,,,,,,,,,,,,,,,,,,,,,,,,,,,,,,,,,,,,,,,,,,,,,
1764668945.591897,11974,0,4393.717773,4405.769043,4513.205078,4539.358887,4406.538574,4526.025879,4557.05127,4400,4571.538574,4380.256348,4497.820313,4520.128418,4574.871582,4407.94873,4397.436035,4532.94873,4556.282227,4555,4537.05127,4398.589844,4421.922852,4576.410156,4529.487305,4504.102539,4435,4570,4391.666504,4560.897461,4513.974121,4400.512695,4540,4507.692383,2822,0,6,2565,20876,,,,0,4,4,4,4,4,4,4,4,4,4,4,4,4,4,4,4,4,4,4,4,4,4,4,4,4,4,4,4,4,4,4,4,100,,,,,,,,,,,,,,,,,,,,,,,,,,,,,,,,,,,,,,,,,,,,,,,,,,,,,,,,,,,,,,,,,,,,,,,,,,,,,,,,,,,,,,,,,,,,,,,,,,,,,,,,,,,,,,,,,,,,,,,,,,,,,,,,,,,,,,,,,,,,,,,,,,,,,,,,,,,,,,,,,,,,,,,,,,,,,,,,,,,,,,,,,,,,,,,,,,,,,,,,,,,,,,
1764668945.595803,11975,0,4397.179688,4410.512695,4517.692383,4545.769043,4410.512695,4533.205078,4558.589844,4403.077148,4573.333496,4393.077148,4499.743652,4526.153809,4582.820313,4408.333496,4395.897461,4529.102539,4562.436035,4558.333496,4540.897461,4405.641113,4429.358887,4583.589844,4534.615234,4506.282227,4414.615234,4572.179688,4400.128418,4568.205078,4515.256348,4399.487305,4540.897461,4512.563965,2997,0,6,2565,20876,,,,0,4,4,4,4,4,4,4,4,4,4,4,4,4,4,4,4,4,4,4,4,4,4,4,4,4,4,4,4,4,4,4,4,100,,,,,,,,,,,,,,,,,,,,,,,,,,,,,,,,,,,,,,,,,,,,,,,,,,,,,,,,,,,,,,,,,,,,,,,,,,,,,,,,,,,,,,,,,,,,,,,,,,,,,,,,,,,,,,,,,,,,,,,,,,,,,,,,,,,,,,,,,,,,,,,,,,,,,,,,,,,,,,,,,,,,,,,,,,,,,,,,,,,,,,,,,,,,,,,,,,,,,,,,,,,,,,
1764668945.599709,11976,0,4397.94873,4414.102539,4520.128418,4547.94873,4413.974121,4538.333496,4555.897461,4402.436035,4575.128418,4400.641113,4498.974121,4530.512695,4586.794922,4403.846191,4390.641113,4525.769043,4566.282227,4559.102539,4543.205078,4410.256348,4429.487305,4587.563965,4536.153809,4509.102539,4415.512695,4577.179688,4404.871582,4571.538574,4516.538574,4402.692383,4536.410156,4514.230957,2902,0,6,2566,20884,,,,0,4,4,4,4,4,4,4,4,4,4,4,4,4,4,4,4,4,4,4,4,4,4,4,4,4,4,4,4,4,4,4,4,100,,,,,,,,,,,,,,,,,,,,,,,,,,,,,,,,,,,,,,,,,,,,,,,,,,,,,,,,,,,,,,,,,,,,,,,,,,,,,,,,,,,,,,,,,,,,,,,,,,,,,,,,,,,,,,,,,,,,,,,,,,,,,,,,,,,,,,,,,,,,,,,,,,,,,,,,,,,,,,,,,,,,,,,,,,,,,,,,,,,,,,,,,,,,,,,,,,,,,,,,,,,,,,
1764668945.603615,11977,0,4398.717773,4417.436035,4521.794922,4547.820313,4417.94873,4541.282227,4553.974121,4402.05127,4579.102539,4401.666504,4498.846191,4532.307617,4586.153809,4400.384766,4387.820313,4525.384766,4568.333496,4557.436035,4543.077148,4411.538574,4424.615234,4588.846191,4535.769043,4513.846191,4438.974121,4585.512695,4406.538574,4572.436035,4520.128418,4411.794922,4533.205078,4517.94873,2769,0,6,2566,20884,,,,0,4,4,4,4,4,4,4,4,4,4,4,4,4,4,4,4,4,4,4,4,4,4,4,4,4,4,4,4,4,4,4,4,100,,,,,,,,,,,,,,,,,,,,,,,,,,,,,,,,,,,2994,0,0.615263,-0.330566,-0.340759,0.629333,1.011354,-0.041997,-0.033207,19.666666,38.333332,-20.5,,,,,,,,,,,,,,,,,,,,,,,,,,,,,,,,,,,,,,,,,,,,,,,,,,,,,,,,,,,,,,,,,,,,,,,,,,,,,,,,,,,,,,,,,,,,,,,,,,,,,,,,,,,,,,,,,,,,,,,,,,,,,,,,,,,,,,,,,,,,,,,,,,,,,,,,,,,,,,,,
1764668945.607521,11978,0,4403.077148,4423.077148,4526.666504,4551.282227,4424.743652,4544.615234,4558.717773,4406.410156,4587.820313,4401.922852,4503.205078,4533.077148,4585.256348,4403.717773,4393.205078,4529.102539,4571.025879,4555.641113,4540.384766,4411.153809,4418.205078,4590,4537.94873,4520.769043,4467.179688,4597.05127,4408.974121,4575.512695,4526.666504,4424.615234,4539.230957,4527.94873,2431,0,6,2567,20892,,,,0,4,4,4,4,4,4,4,4,4,4,4,4,4,4,4,4,4,4,4,4,4,4,4,4,4,4,4,4,4,4,4,4,100,,,,,,,,,,,,,,,,,,,,,,,,,,,,,,,,,,,,,,,,,,,,,,,,,,,,,,,,,,,,,,,,,,,,,,,,,,,,,,,,,,,,,,,,,,,,,,,,,,,,,,,,,,,,,,,,,,,,,,,,,,,,,,,,,,,,,,,,,,,,,,,,,,,,,,,,,,,,,,,,,,,,,,,,,,,,,,,,,,,,,,,,,,,,,,,,,,,,,,,,,,,,,,
1764668945.611427,11979,0,4410.897461,4431.538574,4535.641113,4560.128418,4434.230957,4549.102539,4570,4415.512695,4600.384766,4406.410156,4511.922852,4534.487305,4587.436035,4413.589844,4405.512695,4535,4575,4555.256348,4535.256348,4411.538574,4412.692383,4592.05127,4543.717773,4526.922852,4476.922852,4608.461426,4414.615234,4581.666504,4533.974121,4435.512695,4554.358887,4541.794922,2720,0,6,2567,20892,,,,0,4,4,4,4,4,4,4,4,4,4,4,4,4,4,4,4,4,4,4,4,4,4,4,4,4,4,4,4,4,4,4,4,100,,,,,,,,,,,,,,,,,,,,,,,,,,,,,,,,,,,,,,,,,,,,,,,,,,,,,,,,,,,,,,,,,,,,,,,,,,,,,,,,,,,,,,,,,,,,,,,,,,,,,,,,,,,,,,,,,,,,,,,,,,,,,,,,,,,,,,,,,,,,,,,,,,,,,,,,,,,,,,,,,,,,,,,,,,,,,,,,,,,,,,,,,,,,,,,,,,,,,,,,,,,,,,
1764668945.615333,11980,0,4416.794922,4438.589844,4544.358887,4569.487305,4441.666504,4552.179688,4580.128418,4422.820313,4609.230957,4413.846191,4518.846191,4535.641113,4591.153809,4422.307617,4416.153809,4537.563965,4576.538574,4554.230957,4527.692383,4411.922852,4407.692383,4592.307617,4549.102539,4527.05127,4457.307617,4612.179688,4420.641113,4586.922852,4537.307617,4438.333496,4568.974121,4550.384766,2475,0,6,2568,20900,,,,0,4,4,4,4,4,4,4,4,4,4,4,4,4,4,4,4,4,4,4,4,4,4,4,4,4,4,4,4,4,4,4,4,100,,,,,,,,,,,,,,,,,,,,,,,,,,,,,,,,,,,,,,,,,,,,,,,,,,,,,,,,,,,,,,,,,,,,,,,,,,,,,,,,,,,,,,,,,,,,,,,,,,,,,,,,,,,,,,,,,,,,,,,,,,,,,,,,,,,,,,,,,,,,,,,,,,,,,,,,,,,,,,,,,,,,,,,,,,,,,,,,,,,,,,,,,,,,,,,,,,,,,,,,,,,,,,
1764668945.619239,11981,0,4413.846191,4437.307617,4545.384766,4571.025879,4439.615234,4549.487305,4579.102539,4419.358887,4605.641113,4418.077148,4516.922852,4532.820313,4591.025879,4421.410156,4415.512695,4532.05127,4571.025879,4548.974121,4518.717773,4410,4401.922852,4587.05127,4547.563965,4518.717773,4417.436035,4602.820313,4421.922852,4585.641113,4533.461426,4429.871582,4571.666504,4545.256348,2232,0,6,2568,20900,,,,0,4,4,4,4,4,4,4,4,4,4,4,4,4,4,4,4,4,4,4,4,4,4,4,4,4,4,4,4,4,4,4,4,100,,,,,,,,,,,,,,,,,,,,,,,,,,,,,,,,,,,2995,0,0.614999,-0.330688,-0.341003,0.629395,1.011354,-0.041997,-0.033207,17.333334,39.5,-21.833334,,,,,,,,,,,,,,,,,,,,,,,,,,,,,,,,,,,,,,,,,,,,,,,,,,,,,,,,,,,,,,,,,,,,,,,,,,,,,,,,,,,,,,,,,,,,,,,,,,,,,,,,,,,,,,,,,,,,,,,,,,,,,,,,,,,,,,,,,,,,,,,,,,,,,,,,,,,,,,,,
1764668945.623145,11982,0,4399.871582,4425,4535,4561.153809,4424.871582,4539.743652,4563.461426,4402.179688,4587.436035,4414.102539,4504.358887,4523.333496,4583.333496,4408.589844,4400.897461,4518.333496,4557.94873,4538.461426,4511.025879,4403.974121,4395.641113,4576.153809,4537.179688,4504.871582,4379.230957,4581.922852,4415.512695,4576.410156,4523.205078,4413.333496,4558.205078,4528.077148,2728,0,6,2569,20908,,,,0,4,4,4,4,4,4,4,4,4,4,4,4,4,4,4,4,4,4,4,4,4,4,4,4,4,4,4,4,4,4,4,4,100,,,,,,,,,,,,,,,,,,,,,,,,,,,,,,,,,,,,,,,,,,,,,,,,,,,,,,,,,,,,,,,,,,,,,,,,,,,,,,,,,,,,,,,,,,,,,,,,,,,,,,,,,,,,,,,,,,,,,,,,,,,,,,,,,,,,,,,,,,,,,,,,,,,,,,,,,,,,,,,,,,,,,,,,,,,,,,,,,,,,,,,,,,,,,,,,,,,,,,,,,,,,,,
1764668945.627051,11983,0,4380.256348,4405.384766,4517.692383,4543.974121,4401.922852,4525.384766,4540,4378.077148,4562.436035,4402.307617,4486.666504,4508.846191,4569.487305,4390.128418,4378.974121,4502.436035,4541.794922,4525.769043,4507.179688,4394.743652,4390.897461,4563.846191,4522.179688,4492.307617,4362.94873,4558.846191,4403.717773,4563.333496,4511.153809,4395.128418,4536.153809,4509.871582,2452,0,6,2569,20908,,,,0,4,4,4,4,4,4,4,4,4,4,4,4,4,4,4,4,4,4,4,4,4,4,4,4,4,4,4,4,4,4,4,4,100,,,,,,,,,,,,,,,,,,,,,,,,,,,,,,,,,,,,,,,,,,,,,,,,,,,,,,,,,,,,,,,,,,,,,,,,,,,,,,,,,,,,,,,,,,,,,,,,,,,,,,,,,,,,,,,,,,,,,,,,,,,,,,,,,,,,,,,,,,,,,,,,,,,,,,,,,,,,,,,,,,,,,,,,,,,,,,,,,,,,,,,,,,,,,,,,,,,,,,,,,,,,,,
1764668945.630957,11984,0,4364.871582,4387.307617,4503.077148,4528.461426,4381.538574,4511.922852,4520.769043,4358.974121,4543.717773,4387.94873,4472.692383,4495.512695,4556.153809,4376.282227,4361.410156,4492.307617,4529.487305,4517.436035,4508.333496,4385.897461,4389.358887,4555.512695,4510.384766,4486.410156,4374.615234,4544.487305,4391.153809,4552.307617,4502.692383,4381.922852,4517.563965,4501.922852,2892,0,6,2570,20915,,,,0,4,4,4,4,4,4,4,4,4,4,4,4,4,4,4,4,4,4,4,4,4,4,4,4,4,4,4,4,4,4,4,4,100,,,,,,,,,,,,,,,,,,,,,,,,,,,,,,,,,,,,,,,,,,,,,,,1.997767,1.31053,2.447718,1.487333,2.349535,1.456329,2.093296,2.899862,1.871314,2.900852,2.190012,2.015082,2.606951,2.895579,4.487194,1.670413,1.122993,1.499958,1.727361,3.114073,1.701215,1.742625,3.469178,3.831115,3.155424,2.334141,1.150322,2.127059,1.376727,2.320861,1.430875,1.652531,1.968253,1.615563,2.581257,1.361915,2.002273,2.530434,1.661205,3.239108,0.913017,1.283023,1.778194,2.335742,3.070349,1.019601,3.545894,3.263996,4.467094,7.816434,1.955949,1.138533,0.753865,1.246378,1.87509,1.81765,1.407195,1.165379,1.657778,2.242483,1.158184,1.231118,1.086929,1.357876,1.825763,0.685367,1.013468,0.459554,0.722214,1.306307,0.776042,0.649323,1.207014,1.674184,1.904884,1.985156,2.365989,1.349649,1.336938,2.369562,1.541413,1.663379,1.571411,1.650608,2.54844,1.77193,2.900131,1.443949,1.575864,2.762912,0.914079,1.77456,1.136145,1.08286,1.663129,1.256462,0.746664,1.238838,1.510256,2.338629,1.127611,1.970139,2.540787,1.775327,2.742302,1.568373,1.583758,2.185353,2.000093,2.799171,2.213584,2.088268,1.97134,1.760072,2.576653,1.64776,1.76216,2.675102,1.763677,3.048112,2.290454,7.491937,7.703737,7.881894,7.839684,1.427288,1.535257,2.509365,1.771876,2.713838,1.791328,2.07283,2.891538,1.527611,3.070847,2.164176,2.10192,2.66331,1.826179,2.921428,0.903878,0.829874,1.095824,0.775651,1.286514,1.856734,2.173146,3.35676,3.319563,3.714983,2.842941,2.626315,3.165711,2.466926,2.452484,2.455399,3.885722,3.021868,3.781211,3.493516
1764668945.634863,11985,0,4360.769043,4378.846191,4498.846191,4522.436035,4372.436035,4505,4514.358887,4354.102539,4540,4377.692383,4467.94873,4488.974121,4549.871582,4373.333496,4356.153809,4493.077148,4525.384766,4518.077148,4513.461426,4381.025879,4391.025879,4553.717773,4507.05127,4487.436035,4402.692383,4543.461426,4382.05127,4547.307617,4500.641113,4376.922852,4510.641113,4505.512695,2888,0,6,2570,20915,,,,0,4,4,4,4,4,4,4,4,4,4,4,4,4,4,4,4,4,4,4,4,4,4,4,4,4,4,4,4,4,4,4,4,100,,,,,,,,,,,,,,,,,,,,,,,,,,,,,,,,,,,2996,0,0.61428,-0.330994,-0.341553,0.629639,0.995239,-0.025394,-0.048834,19,40.833332,-21.833334,,,,,,,,,,,,,,,,,,,,,,,,,,,,,,,,,,,,,,,,,,,,,,,,,,,,,,,,,,,,,,,,,,,,,,,,,,,,,,,,,,,,,,,,,,,,,,,,,,,,,,,,,,,,,,,,,,,,,,,,,,,,,,,,,,,,,,,,,,,,,,,,,,,,,,,,,,,,,,,,
1764668945.638769,11986,0,4368.077148,4382.94873,4503.589844,4526.538574,4377.05127,4506.794922,4521.282227,4364.102539,4550.512695,4375.384766,4472.820313,4491.153809,4553.077148,4380.384766,4363.205078,4502.179688,4529.230957,4526.282227,4519.358887,4381.025879,4394.358887,4557.179688,4511.666504,4491.666504,4427.05127,4553.205078,4378.205078,4548.205078,4504.102539,4379.871582,4515.128418,4511.794922,1771,0,6,2569,20923,,,,0,4,4,4,4,4,4,4,4,4,4,4,4,4,4,4,4,4,4,4,4,4,4,4,4,4,4,4,4,4,4,4,4,100,,,,,,,,,,,,,,,,,,,,,,,,,,,,,,,,,,,,,,,,,,,,,,,,,,,,,,,,,,,,,,,,,,,,,,,,,,,,,,,,,,,,,,,,,,,,,,,,,,,,,,,,,,,,,,,,,,,,,,,,,,,,,,,,,,,,,,,,,,,,,,,,,,,,,,,,,,,,,,,,,,,,,,,,,,,,,,,,,,,,,,,,,,,,,,,,,,,,,,,,,,,,,,
1764668945.642675,11987,0,4380.897461,4396.282227,4509.487305,4536.282227,4390.128418,4515.641113,4535.641113,4382.05127,4567.94873,4380.256348,4483.205078,4499.358887,4562.94873,4391.666504,4376.410156,4511.538574,4536.538574,4535.512695,4522.436035,4383.974121,4397.436035,4562.179688,4519.230957,4495.384766,4432.692383,4566.153809,4379.743652,4552.820313,4510.384766,4388.717773,4525.384766,4510.769043,2748,0,6,2569,20923,,,,0,4,4,4,4,4,4,4,4,4,4,4,4,4,4,4,4,4,4,4,4,4,4,4,4,4,4,4,4,4,4,4,4,100,,,,,,,,,,,,,,,,,,,,,,,,,,,,,,,,,,,,,,,,,,,,,,,,,,,,,,,,,,,,,,,,,,,,,,,,,,,,,,,,,,,,,,,,,,,,,,,,,,,,,,,,,,,,,,,,,,,,,,,,,,,,,,,,,,,,,,,,,,,,,,,,,,,,,,,,,,,,,,,,,,,,,,,,,,,,,,,,,,,,,,,,,,,,,,,,,,,,,,,,,,,,,,
1764668945.646581,11988,0,4392.436035,4411.794922,4508.717773,4544.743652,4403.205078,4526.666504,4550.128418,4398.717773,4583.846191,4388.717773,4493.717773,4509.871582,4573.974121,4401.794922,4388.717773,4514.358887,4542.692383,4539.615234,4520.512695,4386.922852,4399.487305,4565.769043,4525.256348,4497.307617,4422.05127,4576.025879,4385.769043,4558.974121,4516.282227,4400,4536.025879,4500.256348,2598,0,6,2566,20931,,,,0,4,4,4,4,4,4,4,4,4,4,4,4,4,4,4,4,4,4,4,4,4,4,4,4,4,4,4,4,4,4,4,4,100,,,,,,,,,,,,,,,,,,,,,,,,,,,,,,,,,,,,,,,,,,,,,,,,,,,,,,,,,,,,,,,,,,,,,,,,,,,,,,,,,,,,,,,,,,,,,,,,,,,,,,,,,,,,,,,,,,,,,,,,,,,,,,,,,,,,,,,,,,,,,,,,,,,,,,,,,,,,,,,,,,,,,,,,,,,,,,,,,,,,,,,,,,,,,,,,,,,,,,,,,,,,,,
1764668945.650487,11989,0,4397.563965,4421.153809,4500.512695,4546.410156,4409.358887,4534.358887,4558.717773,4406.794922,4591.538574,4395.769043,4499.230957,4518.333496,4580.897461,4407.436035,4396.025879,4509.487305,4545.128418,4536.666504,4514.743652,4387.94873,4398.846191,4566.153809,4527.179688,4498.205078,4409.230957,4579.358887,4393.333496,4563.974121,4519.230957,4408.717773,4542.820313,4486.538574,2824,0,6,2566,20931,,,,0,4,4,4,4,4,4,4,4,4,4,4,4,4,4,4,4,4,4,4,4,4,4,4,4,4,4,4,4,4,4,4,4,100,,,,,,,,,,,,,,,,,,,,,,,,,,,,,,,,,,,2997,0,0.613917,-0.331299,-0.341797,0.6297,0.995239,-0.025394,-0.048834,17.166666,40.166668,-20.833334,,,,,,,,,,,,,,,,,,,,,,,,,,,,,,,,,,,,,,,,,,,,,,,,,,,,,,,,,,,,,,,,,,,,,,,,,,,,,,,,,,,,,,,,,,,,,,,,,,,,,,,,,,,,,,,,,,,,,,,,,,,,,,,,,,,,,,,,,,,,,,,,,,,,,,,,,,,,,,,,
1764668945.654393,11990,1,4387.649414,4406.624023,4494.401855,4534.401855,4401.111328,4525.341797,4550.726563,4394.914551,4579.914551,4385.512695,4490.683594,4513.931641,4575.555664,4403.803223,4392.606934,4503.461426,4538.162598,4532.05127,4511.96582,4384.914551,4390.512695,4558.803223,4519.01709,4490.98291,4403.119629,4569.829102,4386.922852,4556.581055,4512.521484,4398.589844,4530.897461,4486.495605,0,0,6,0,0,,,,0,4,4,4,4,4,4,4,4,4,4,4,4,4,4,4,4,4,4,4,4,4,4,4,4,4,4,4,4,4,4,4,4,100,,,,,,,,,,,,,,,,,,,,,,,,,,,,,,,,,,,,,,,,,,,,,,,,,,,,,,,,,,,,,,,,,,,,,,,,,,,,,,,,,,,,,,,,,,,,,,,,,,,,,,,,,,,,,,,,,,,,,,,,,,,,,,,,,,,,,,,,,,,,,,,,,,,,,,,,,,,,,,,,,,,,,,,,,,,,,,,,,,,,,,,,,,,,,,,,,,,,,,,,,,,,,,
1764668945.658299,11991,1,4377.734863,4392.094238,4488.290527,4522.393066,4392.863281,4516.324707,4542.734863,4383.03418,4568.290527,4375.256348,4482.136719,4509.529785,4570.213867,4400.170898,4389.187988,4497.436035,4531.196777,4527.436035,4509.187988,4381.880371,4382.179688,4551.453125,4510.854492,4483.760742,4397.008789,4560.299316,4380.512695,4549.187988,4505.812012,4388.461426,4518.974121,4486.453125,0,0,6,0,0,,,,0,4,4,4,4,4,4,4,4,4,4,4,4,4,4,4,4,4,4,4,4,4,4,4,4,4,4,4,4,4,4,4,4,100,,,,,,,,,,,,,,,,,,,,,,,,,,,,,,,,,,,,,,,,,,,,,,,,,,,,,,,,,,,,,,,,,,,,,,,,,,,,,,,,,,,,,,,,,,,,,,,,,,,,,,,,,,,,,,,,,,,,,,,,,,,,,,,,,,,,,,,,,,,,,,,,,,,,,,,,,,,,,,,,,,,,,,,,,,,,,,,,,,,,,,,,,,,,,,,,,,,,,,,,,,,,,,
1764668945.662205,11992,0,4367.820313,4377.563965,4482.179688,4510.384766,4384.615234,4507.307617,4534.743652,4371.153809,4556.666504,4365,4473.589844,4505.128418,4564.871582,4396.538574,4385.769043,4491.410156,4524.230957,4522.820313,4506.410156,4378.846191,4373.846191,4544.102539,4502.692383,4476.538574,4390.897461,4550.769043,4374.102539,4541.794922,4499.102539,4378.333496,4507.05127,4486.410156,2701,0,6,2568,20947,,,,0,4,4,4,4,4,4,4,4,4,4,4,4,4,4,4,4,4,4,4,4,4,4,4,4,4,4,4,4,4,4,4,4,100,,,,,,,,,,,,,,,,,,,,,,,,,,,,,,,,,,,,,,,,,,,,,,,,,,,,,,,,,,,,,,,,,,,,,,,,,,,,,,,,,,,,,,,,,,,,,,,,,,,,,,,,,,,,,,,,,,,,,,,,,,,,,,,,,,,,,,,,,,,,,,,,,,,,,,,,,,,,,,,,,,,,,,,,,,,,,,,,,,,,,,,,,,,,,,,,,,,,,,,,,,,,,,
1764668945.666111,11993,0,4357.05127,4357.692383,4487.436035,4501.922852,4376.794922,4492.05127,4522.563965,4356.410156,4545.128418,4345.512695,4467.436035,4493.974121,4558.205078,4392.05127,4380.128418,4495.256348,4516.922852,4527.05127,4509.871582,4375.128418,4365.641113,4536.282227,4492.436035,4462.692383,4369.615234,4537.94873,4355.512695,4524.487305,4489.358887,4360,4483.461426,4492.820313,2878,0,6,2568,20947,,,,0,4,4,4,4,4,4,4,4,4,4,4,4,4,4,4,4,4,4,4,4,4,4,4,4,4,4,4,4,4,4,4,4,100,,,,,,,,,,,,,,,,,,,,,,,,,,,,,,,,,,,2998,0,0.613716,-0.331482,-0.34198,0.6297,0.986449,-0.024417,-0.047857,17.833334,40.5,-20,,,,,,,,,,,,,,,,,,,,,,,,,,,,,,,,,,,,,,,,,,,,,,,,,,,,,,,,,,,,,,,,,,,,,,,,,,,,,,,,,,,,,,,,,,,,,,,,,,,,,,,,,,,,,,,,,,,,,,,,,,,,,,,,,,,,,,,,,,,,,,,,,,,,,,,,,,,,,,,,
1764668945.670017,11994,1,4359.336426,4360.022461,4489.238281,4504.449707,4378.914063,4494.095215,4524.95459,4358.785645,4547.579102,4347.405762,4470.030273,4495.987793,4560.022461,4392.979004,4382.179688,4497.307617,4519.049805,4528.589844,4510.912598,4376.379883,4368.438965,4538.51416,4494.803711,4465.399902,4371.689453,4540.060547,4358.227539,4526.644043,4490.648438,4361.583496,4486.417969,4494.856934,0,0,6,0,0,,,,0,4,4,4,4,4,4,4,4,4,4,4,4,4,4,4,4,4,4,4,4,4,4,4,4,4,4,4,4,4,4,4,4,100,,,,,,,,,,,,,,,,,,,,,,,,,,,,,,,,,,,,,,,,,,,,,,,,,,,,,,,,,,,,,,,,,,,,,,,,,,,,,,,,,,,,,,,,,,,,,,,,,,,,,,,,,,,,,,,,,,,,,,,,,,,,,,,,,,,,,,,,,,,,,,,,,,,,,,,,,,,,,,,,,,,,,,,,,,,,,,,,,,,,,,,,,,,,,,,,,,,,,,,,,,,,,,
1764668945.673923,11995,1,4361.621582,4362.353027,4491.040527,4506.976074,4381.033203,4496.138672,4527.345215,4361.161621,4550.030273,4349.298828,4472.624512,4498.001465,4561.840332,4393.90625,4384.230957,4499.358887,4521.17627,4530.128418,4511.953125,4377.631836,4371.236816,4540.746582,4497.171875,4468.106934,4373.763184,4542.171875,4360.942871,4528.800781,4491.937988,4363.16748,4489.374023,4496.893066,0,0,6,0,0,,,,0,4,4,4,4,4,4,4,4,4,4,4,4,4,4,4,4,4,4,4,4,4,4,4,4,4,4,4,4,4,4,4,4,100,,,,,,,,,,,,,,,,,,,,,,,,,,,,,,,,,,,,,,,,,,,,,,,,,,,,,,,,,,,,,,,,,,,,,,,,,,,,,,,,,,,,,,,,,,,,,,,,,,,,,,,,,,,,,,,,,,,,,,,,,,,,,,,,,,,,,,,,,,,,,,,,,,,,,,,,,,,,,,,,,,,,,,,,,,,,,,,,,,,,,,,,,,,,,,,,,,,,,,,,,,,,,,
1764668945.677829,11996,1,4363.90625,4364.683105,4492.843262,4509.502441,4383.152344,4498.182617,4529.73584,4363.537109,4552.480957,4351.191406,4475.21875,4500.015137,4563.657715,4394.833984,4386.282227,4501.410156,4523.303223,4531.666504,4512.994141,4378.883789,4374.034668,4542.979004,4499.540039,4470.814453,4375.836914,4544.283691,4363.657715,4530.958008,4493.227539,4364.750977,4492.330078,4498.929199,0,0,6,0,0,,,,0,4,4,4,4,4,4,4,4,4,4,4,4,4,4,4,4,4,4,4,4,4,4,4,4,4,4,4,4,4,4,4,4,100,,,,,,,,,,,,,,,,,,,,,,,,,,,,,,,,,,,,,,,,,,,,,,,,,,,,,,,,,,,,,,,,,,,,,,,,,,,,,,,,,,,,,,,,,,,,,,,,,,,,,,,,,,,,,,,,,,,,,,,,,,,,,,,,,,,,,,,,,,,,,,,,,,,,,,,,,,,,,,,,,,,,,,,,,,,,,,,,,,,,,,,,,,,,,,,,,,,,,,,,,,,,,,
1764668945.681735,11997,1,4366.191406,4367.013672,4494.645508,4512.028809,4385.271484,4500.226074,4532.126465,4365.912598,4554.932129,4353.084473,4477.812988,4502.028809,4565.475098,4395.761719,4388.333496,4503.461426,4525.429688,4533.205078,4514.034668,4380.135742,4376.83252,4545.210938,4501.908203,4473.521973,4377.911133,4546.39502,4366.372559,4533.114746,4494.517578,4366.334961,4495.286621,4500.965332,0,0,6,0,0,,,,0,4,4,4,4,4,4,4,4,4,4,4,4,4,4,4,4,4,4,4,4,4,4,4,4,4,4,4,4,4,4,4,4,100,,,,,,,,,,,,,,,,,,,,,,,,,,,,,,,,,,,,,,,,,,,,,,,,,,,,,,,,,,,,,,,,,,,,,,,,,,,,,,,,,,,,,,,,,,,,,,,,,,,,,,,,,,,,,,,,,,,,,,,,,,,,,,,,,,,,,,,,,,,,,,,,,,,,,,,,,,,,,,,,,,,,,,,,,,,,,,,,,,,,,,,,,,,,,,,,,,,,,,,,,,,,,,
1764668945.685641,11998,1,4368.476563,4369.34375,4496.447754,4514.555176,4387.390625,4502.27002,4534.517578,4368.288086,4557.383301,4354.977539,4480.407227,4504.041992,4567.29248,4396.689453,4390.384766,4505.512695,4527.556641,4534.743652,4515.075195,4381.387695,4379.630371,4547.443359,4504.275879,4476.229492,4379.984863,4548.506836,4369.087402,4535.271484,4495.807129,4367.918457,4498.242676,4503.001465,0,0,6,0,0,,,,0,4,4,4,4,4,4,4,4,4,4,4,4,4,4,4,4,4,4,4,4,4,4,4,4,4,4,4,4,4,4,4,4,100,,,,,,,,,,,,,,,,,,,,,,,,,,,,,,,,,,,,,,,,,,,,,,,,,,,,,,,,,,,,,,,,,,,,,,,,,,,,,,,,,,,,,,,,,,,,,,,,,,,,,,,,,,,,,,,,,,,,,,,,,,,,,,,,,,,,,,,,,,,,,,,,,,,,,,,,,,,,,,,,,,,,,,,,,,,,,,,,,,,,,,,,,,,,,,,,,,,,,,,,,,,,,,
1764668945.689547,11999,1,4370.761719,4371.674316,4498.250488,4517.081543,4389.509766,4504.313965,4536.908203,4370.663574,4559.833984,4356.870117,4483.001465,4506.055664,4569.109863,4397.616699,4392.436035,4507.563965,4529.683105,4536.282227,4516.116211,4382.639648,4382.428223,4549.675781,4506.644043,4478.936523,4382.058594,4550.618164,4371.802246,4537.428223,4497.09668,4369.502441,4501.199219,4505.037598,0,0,6,0,0,,,,0,4,4,4,4,4,4,4,4,4,4,4,4,4,4,4,4,4,4,4,4,4,4,4,4,4,4,4,4,4,4,4,4,100,,,,,,,,,,,,,,,,,,,,,,,,,,,,,,,,,,,,,,,,,,,,,,,,,,,,,,,,,,,,,,,,,,,,,,,,,,,,,,,,,,,,,,,,,,,,,,,,,,,,,,,,,,,,,,,,,,,,,,,,,,,,,,,,,,,,,,,,,,,,,,,,,,,,,,,,,,,,,,,,,,,,,,,,,,,,,,,,,,,,,,,,,,,,,,,,,,,,,,,,,,,,,,
1764668945.693453,12000,1,4373.046875,4374.004395,4500.052734,4519.60791,4391.628906,4506.357422,4539.298828,4373.039063,4562.285156,4358.763184,4485.595703,4508.069336,4570.927734,4398.544434,4394.487305,4509.615234,4531.810059,4537.820313,4517.156738,4383.891602,4385.226074,4551.908203,4509.012207,4481.644043,4384.132813,4552.72998,4374.517578,4539.585449,4498.38623,4371.085938,4504.155273,4507.07373,0,0,6,0,0,,,,0,4,4,4,4,4,4,4,4,4,4,4,4,4,4,4,4,4,4,4,4,4,4,4,4,4,4,4,4,4,4,4,4,100,,,,,,,,,,,,,,,,,,,,,,,,,,,,,,,,,,,,,,,,,,,,,,,,,,,,,,,,,,,,,,,,,,,,,,,,,,,,,,,,,,,,,,,,,,,,,,,,,,,,,,,,,,,,,,,,,,,,,,,,,,,,,,,,,,,,,,,,,,,,,,,,,,,,,,,,,,,,,,,,,,,,,,,,,,,,,,,,,,,,,,,,,,,,,,,,,,,,,,,,,,,,,,
1764668945.697359,12001,1,4375.332031,4376.334961,4501.85498,4522.134277,4393.748047,4508.401367,4541.689453,4375.414551,4564.73584,4360.65625,4488.189941,4510.083008,4572.745117,4399.472168,4396.538574,4511.666504,4533.936523,4539.358887,4518.197754,4385.143066,4388.023926,4554.140137,4511.379883,4484.351563,4386.206543,4554.841797,4377.232422,4541.742188,4499.675781,4372.669922,4507.111816,4509.109863,0,0,6,0,0,,,,0,4,4,4,4,4,4,4,4,4,4,4,4,4,4,4,4,4,4,4,4,4,4,4,4,4,4,4,4,4,4,4,4,100,,,,,,,,,,,,,,,,,,,,,,,,,,,,,,,,,,,,,,,,,,,,,,,,,,,,,,,,,,,,,,,,,,,,,,,,,,,,,,,,,,,,,,,,,,,,,,,,,,,,,,,,,,,,,,,,,,,,,,,,,,,,,,,,,,,,,,,,,,,,,,,,,,,,,,,,,,,,,,,,,,,,,,,,,,,,,,,,,,,,,,,,,,,,,,,,,,,,,,,,,,,,,,
1764668945.701265,12002,1,4377.616699,4378.665039,4503.657715,4524.660645,4395.867188,4510.444824,4544.080078,4377.790527,4567.187012,4362.548828,4490.78418,4512.09668,4574.5625,4400.399902,4398.589844,4513.717773,4536.063477,4540.897461,4519.238281,4386.39502,4390.821777,4556.372559,4513.748047,4487.058594,4388.280762,4556.953125,4379.947266,4543.898926,4500.965332,4374.253418,4510.067871,4511.146484,0,0,6,0,0,,,,0,4,4,4,4,4,4,4,4,4,4,4,4,4,4,4,4,4,4,4,4,4,4,4,4,4,4,4,4,4,4,4,4,100,,,,,,,,,,,,,,,,,,,,,,,,,,,,,,,,,,,,,,,,,,,,,,,,,,,,,,,,,,,,,,,,,,,,,,,,,,,,,,,,,,,,,,,,,,,,,,,,,,,,,,,,,,,,,,,,,,,,,,,,,,,,,,,,,,,,,,,,,,,,,,,,,,,,,,,,,,,,,,,,,,,,,,,,,,,,,,,,,,,,,,,,,,,,,,,,,,,,,,,,,,,,,,
1764668945.705171,12003,1,4379.901855,4380.995605,4505.459961,4527.187012,4397.986328,4512.48877,4546.470703,4380.166016,4569.638184,4364.441895,4493.378418,4514.109863,4576.379883,4401.327148,4400.641113,4515.769043,4538.189941,4542.436035,4520.278809,4387.646973,4393.620117,4558.60498,4516.116211,4489.766113,4390.354492,4559.064941,4382.662109,4546.055664,4502.254883,4375.836914,4513.023926,4513.182617,0,0,6,0,0,,,,0,4,4,4,4,4,4,4,4,4,4,4,4,4,4,4,4,4,4,4,4,4,4,4,4,4,4,4,4,4,4,4,4,100,,,,,,,,,,,,,,,,,,,,,,,,,,,,,,,,,,,,,,,,,,,,,,,,,,,,,,,,,,,,,,,,,,,,,,,,,,,,,,,,,,,,,,,,,,,,,,,,,,,,,,,,,,,,,,,,,,,,,,,,,,,,,,,,,,,,,,,,,,,,,,,,,,,,,,,,,,,,,,,,,,,,,,,,,,,,,,,,,,,,,,,,,,,,,,,,,,,,,,,,,,,,,,
1764668945.709077,12004,1,4382.187012,4383.325684,4507.262207,4529.713379,4400.105469,4514.532227,4548.861328,4382.541504,4572.088867,4366.334961,4495.972656,4516.123535,4578.197754,4402.254883,4402.692383,4517.820313,4540.316895,4543.974121,4521.319824,4388.898926,4396.417969,4560.836914,4518.484375,4492.473633,4392.428223,4561.17627,4385.376953,4548.212891,4503.544434,4377.420898,4515.980469,4515.21875,0,0,6,0,0,,,,0,4,4,4,4,4,4,4,4,4,4,4,4,4,4,4,4,4,4,4,4,4,4,4,4,4,4,4,4,4,4,4,4,100,,,,,,,,,,,,,,,,,,,,,,,,,,,,,,,,,,,,,,,,,,,,,,,,,,,,,,,,,,,,,,,,,,,,,,,,,,,,,,,,,,,,,,,,,,,,,,,,,,,,,,,,,,,,,,,,,,,,,,,,,,,,,,,,,,,,,,,,,,,,,,,,,,,,,,,,,,,,,,,,,,,,,,,,,,,,,,,,,,,,,,,,,,,,,,,,,,,,,,,,,,,,,,
1764668945.712983,12005,1,4384.472168,4385.65625,4509.064941,4532.239746,4402.224609,4516.576172,4551.251953,4384.916992,4574.540039,4368.227539,4498.566895,4518.137207,4580.015137,4403.182617,4404.743652,4519.871582,4542.443359,4545.512695,4522.360352,4390.150879,4399.21582,4563.069336,4520.852051,4495.181152,4394.502441,4563.288086,4388.091797,4550.369629,4504.833984,4379.004395,4518.936523,4517.254883,0,0,6,0,0,,,,0,4,4,4,4,4,4,4,4,4,4,4,4,4,4,4,4,4,4,4,4,4,4,4,4,4,4,4,4,4,4,4,4,100,,,,,,,,,,,,,,,,,,,,,,,,,,,,,,,,,,,,,,,,,,,,,,,,,,,,,,,,,,,,,,,,,,,,,,,,,,,,,,,,,,,,,,,,,,,,,,,,,,,,,,,,,,,,,,,,,,,,,,,,,,,,,,,,,,,,,,,,,,,,,,,,,,,,,,,,,,,,,,,,,,,,,,,,,,,,,,,,,,,,,,,,,,,,,,,,,,,,,,,,,,,,,,
1764668945.716889,12006,1,4386.757324,4387.986328,4510.867188,4534.766113,4404.34375,4518.620117,4553.642578,4387.29248,4576.990723,4370.120605,4501.161621,4520.150879,4581.83252,4404.109863,4406.794922,4521.922852,4544.570313,4547.05127,4523.401367,4391.402832,4402.013672,4565.301758,4523.220215,4497.888184,4396.576172,4565.399902,4390.807129,4552.526367,4506.123535,4380.588379,4521.893066,4519.291016,0,0,6,0,0,,,,0,4,4,4,4,4,4,4,4,4,4,4,4,4,4,4,4,4,4,4,4,4,4,4,4,4,4,4,4,4,4,4,4,100,,,,,,,,,,,,,,,,,,,,,,,,,,,,,,,,,,,,,,,,,,,,,,,,,,,,,,,,,,,,,,,,,,,,,,,,,,,,,,,,,,,,,,,,,,,,,,,,,,,,,,,,,,,,,,,,,,,,,,,,,,,,,,,,,,,,,,,,,,,,,,,,,,,,,,,,,,,,,,,,,,,,,,,,,,,,,,,,,,,,,,,,,,,,,,,,,,,,,,,,,,,,,,
1764668945.720795,12007,1,4389.041992,4390.316895,4512.669922,4537.29248,4406.462891,4520.663574,4556.033203,4389.667969,4579.441895,4372.013672,4503.755859,4522.164551,4583.649902,4405.037598,4408.846191,4523.974121,4546.696777,4548.589844,4524.441895,4392.654785,4404.811523,4567.53418,4525.588379,4500.595703,4398.649902,4567.51123,4393.521973,4554.683105,4507.413086,4382.171875,4524.849121,4521.327148,0,0,6,0,0,,,,0,4,4,4,4,4,4,4,4,4,4,4,4,4,4,4,4,4,4,4,4,4,4,4,4,4,4,4,4,4,4,4,4,100,,,,,,,,,,,,,,,,,,,,,,,,,,,,,,,,,,,,,,,,,,,,,,,,,,,,,,,,,,,,,,,,,,,,,,,,,,,,,,,,,,,,,,,,,,,,,,,,,,,,,,,,,,,,,,,,,,,,,,,,,,,,,,,,,,,,,,,,,,,,,,,,,,,,,,,,,,,,,,,,,,,,,,,,,,,,,,,,,,,,,,,,,,,,,,,,,,,,,,,,,,,,,,
1764668945.724701,12008,1,4391.327148,4392.646973,4514.472168,4539.818848,4408.582031,4522.70752,4558.423828,4392.043945,4581.893066,4373.90625,4506.350098,4524.178223,4585.467773,4405.965332,4410.897461,4526.025879,4548.82373,4550.128418,4525.482422,4393.90625,4407.609375,4569.766113,4527.956055,4503.303223,4400.724121,4569.623047,4396.236816,4556.840332,4508.702637,4383.755859,4527.805664,4523.363281,0,0,6,0,0,,,,0,4,4,4,4,4,4,4,4,4,4,4,4,4,4,4,4,4,4,4,4,4,4,4,4,4,4,4,4,4,4,4,4,100,,,,,,,,,,,,,,,,,,,,,,,,,,,,,,,,,,,,,,,,,,,,,,,,,,,,,,,,,,,,,,,,,,,,,,,,,,,,,,,,,,,,,,,,,,,,,,,,,,,,,,,,,,,,,,,,,,,,,,,,,,,,,,,,,,,,,,,,,,,,,,,,,,,,,,,,,,,,,,,,,,,,,,,,,,,,,,,,,,,,,,,,,,,,,,,,,,,,,,,,,,,,,,
1764668945.728607,12009,1,4393.612305,4394.977539,4516.274414,4542.345215,4410.701172,4524.750977,4560.814453,4394.419434,4584.34375,4375.799316,4508.944336,4526.191406,4587.285156,4406.893066,4412.94873,4528.077148,4550.950195,4551.666504,4526.523438,4395.158203,4410.407227,4571.998535,4530.324219,4506.010742,4402.797852,4571.734375,4398.95166,4558.99707,4509.992676,4385.339355,4530.761719,4525.399902,0,0,6,0,0,,,,0,4,4,4,4,4,4,4,4,4,4,4,4,4,4,4,4,4,4,4,4,4,4,4,4,4,4,4,4,4,4,4,4,100,,,,,,,,,,,,,,,,,,,,,,,,,,,,,,,,,,,,,,,,,,,,,,,,,,,,,,,,,,,,,,,,,,,,,,,,,,,,,,,,,,,,,,,,,,,,,,,,,,,,,,,,,,,,,,,,,,,,,,,,,,,,,,,,,,,,,,,,,,,,,,,,,,,,,,,,,,,,,,,,,,,,,,,,,,,,,,,,,,,,,,,,,,,,,,,,,,,,,,,,,,,,,,
1764668945.732513,12010,0,4395.897461,4397.307617,4518.077148,4544.871582,4412.820313,4526.794922,4563.205078,4396.794922,4586.794922,4377.692383,4511.538574,4528.205078,4589.102539,4407.820313,4415,4530.128418,4553.077148,4553.205078,4527.563965,4396.410156,4413.205078,4574.230957,4532.692383,4508.717773,4404.871582,4573.846191,4401.666504,4561.153809,4511.282227,4386.922852,4533.717773,4527.436035,2425,0,6,2570,21017,,,,0,4,4,4,4,4,4,4,4,4,4,4,4,4,4,4,4,4,4,4,4,4,4,4,4,4,4,4,4,4,4,4,4,100,,,,,,,,,,,,,,,,,,,,,,,,,,,,,,,,,,,,,,,,,,,,,,,,,,,,,,,,,,,,,,,,,,,,,,,,,,,,,,,,,,,,,,,,,,,,,,,,,,,,,,,,,,,,,,,,,,,,,,,,,,,,,,,,,,,,,,,,,,,,,,,,,,,,,,,,,,,,,,,,,,,,,,,,,,,,,,,,,,,,,,,,,,,,,,,,,,,,,,,,,,,,,,
1764668945.736419,12011,0,4383.461426,4382.563965,4497.179688,4531.922852,4402.179688,4519.743652,4554.487305,4387.563965,4577.307617,4386.025879,4501.922852,4520.769043,4583.077148,4400.256348,4399.230957,4516.922852,4545.512695,4540.384766,4517.307617,4383.717773,4399.743652,4560.512695,4520,4491.666504,4385,4562.307617,4383.461426,4549.230957,4500.512695,4375.128418,4516.666504,4500.769043,2712,0,6,2570,21017,,,,0,4,4,4,4,4,4,4,4,4,4,4,4,4,4,4,4,4,4,4,4,4,4,4,4,4,4,4,4,4,4,4,4,100,,,,,,,,,,,,,,,,,,,,,,,,,,,,,,,,,,,,,,,,,,,,,,,,,,,,,,,,,,,,,,,,,,,,,,,,,,,,,,,,,,,,,,,,,,,,,,,,,,,,,,,,,,,,,,,,,,,,,,,,,,,,,,,,,,,,,,,,,,,,,,,,,,,,,,,,,,,,,,,,,,,,,,,,,,,,,,,,,,,,,,,,,,,,,,,,,,,,,,,,,,,,,,
1764668945.740325,12012,0,4367.436035,4363.589844,4472.436035,4514.871582,4383.077148,4505.897461,4537.307617,4370.769043,4562.05127,4391.025879,4486.282227,4506.922852,4569.358887,4389.102539,4379.871582,4499.615234,4529.871582,4521.282227,4500.384766,4367.692383,4379.871582,4541.410156,4501.794922,4468.717773,4369.743652,4545.256348,4358.846191,4530.512695,4486.794922,4360.128418,4495.256348,4471.538574,2470,0,6,2571,21025,,,,0,4,4,4,4,4,4,4,4,4,4,4,4,4,4,4,4,4,4,4,4,4,4,4,4,4,4,4,4,4,4,4,4,100,,,,,,,,,,,,,,,,,,,,,,,,,,,,,,,,,,,,,,,,,,,,,,,,,,,,,,,,,,,,,,,,,,,,,,,,,,,,,,,,,,,,,,,,,,,,,,,,,,,,,,,,,,,,,,,,,,,,,,,,,,,,,,,,,,,,,,,,,,,,,,,,,,,,,,,,,,,,,,,,,,,,,,,,,,,,,,,,,,,,,,,,,,,,,,,,,,,,,,,,,,,,,,
1764668945.744231,12013,0,4355.641113,4349.743652,4456.153809,4502.94873,4363.333496,4491.922852,4520.897461,4354.743652,4548.589844,4391.666504,4473.205078,4494.487305,4555.769043,4379.102539,4366.922852,4488.461426,4515.769043,4508.461426,4488.974121,4358.205078,4366.025879,4529.102539,4489.358887,4453.589844,4371.922852,4532.307617,4340,4515.769043,4477.05127,4347.436035,4477.179688,4451.794922,2222,0,6,2571,21025,,,,0,4,4,4,4,4,4,4,4,4,4,4,4,4,4,4,4,4,4,4,4,4,4,4,4,4,4,4,4,4,4,4,4,100,,,,,,,,,,,,,,,,,,,,,,,,,,,,,,,,,,,3003,0,0.613032,-0.333618,-0.34259,0.628906,0.972775,-0.015627,-0.0293,18.666666,41,-18.666666,,,,,,,,,,,,,,,,,,,,,,,,,,,,,,,,,,,,,,,,,,,,,,,,,,,,,,,,,,,,,,,,,,,,,,,,,,,,,,,,,,,,,,,,,,,,,,,,,,,,,,,,,,,,,,,,,,,,,,,,,,,,,,,,,,,,,,,,,,,,,,,,,,,,,,,,,,,,,,,,
1764668945.748137,12014,0,4353.333496,4347.307617,4455.769043,4502.05127,4352.436035,4485,4513.846191,4348.205078,4542.94873,4388.589844,4469.743652,4490.512695,4550.641113,4374.487305,4365.641113,4488.589844,4512.179688,4510.384766,4492.05127,4360.769043,4365.641113,4531.153809,4489.743652,4455,4392.820313,4530.128418,4334.615234,4512.436035,4476.025879,4343.205078,4468.333496,4445.769043,2718,0,6,2572,21033,,,,0,4,4,4,4,4,4,4,4,4,4,4,4,4,4,4,4,4,4,4,4,4,4,4,4,4,4,4,4,4,4,4,4,100,,,,,,,,,,,,,,,,,,,,,,,,,,,,,,,,,,,,,,,,,,,,,,,,,,,,,,,,,,,,,,,,,,,,,,,,,,,,,,,,,,,,,,,,,,,,,,,,,,,,,,,,,,,,,,,,,,,,,,,,,,,,,,,,,,,,,,,,,,,,,,,,,,,,,,,,,,,,,,,,,,,,,,,,,,,,,,,,,,,,,,,,,,,,,,,,,,,,,,,,,,,,,,
1764668945.752043,12015,0,4360.641113,4356.282227,4468.717773,4510.641113,4356.538574,4488.589844,4518.333496,4354.230957,4546.282227,4382.307617,4476.794922,4497.307617,4557.05127,4376.538574,4373.077148,4497.692383,4521.025879,4524.743652,4508.077148,4373.205078,4375.512695,4545.897461,4501.666504,4470.384766,4417.05127,4538.461426,4342.436035,4520.256348,4483.461426,4350.641113,4470.384766,4448.589844,2438,0,6,2572,21033,,,,0,4,4,4,4,4,4,4,4,4,4,4,4,4,4,4,4,4,4,4,4,4,4,4,4,4,4,4,4,4,4,4,4,100,,,,,,,,,,,,,,,,,,,,,,,,,,,,,,,,,,,,,,,,,,,,,,,,,,,,,,,,,,,,,,,,,,,,,,,,,,,,,,,,,,,,,,,,,,,,,,,,,,,,,,,,,,,,,,,,,,,,,,,,,,,,,,,,,,,,,,,,,,,,,,,,,,,,,,,,,,,,,,,,,,,,,,,,,,,,,,,,,,,,,,,,,,,,,,,,,,,,,,,,,,,,,,
1764668945.755949,12016,0,4373.333496,4371.538574,4485,4521.794922,4373.974121,4500.384766,4530.769043,4369.358887,4555.512695,4374.102539,4489.743652,4511.538574,4570.256348,4382.820313,4383.333496,4509.487305,4537.307617,4541.538574,4525.897461,4387.307617,4385.512695,4564.230957,4517.307617,4488.717773,4422.179688,4551.153809,4357.563965,4533.589844,4495.128418,4366.794922,4481.538574,4452.563965,2884,0,6,2573,21040,,,,0,4,4,4,4,4,4,4,4,4,4,4,4,4,4,4,4,4,4,4,4,4,4,4,4,4,4,4,4,4,4,4,4,100,,,,,,,,,,,,,,,,,,,,,,,,,,,,,,,,,,,,,,,,,,,,,,,2.55263,1.393134,2.257657,1.427715,2.204331,1.695646,2.11377,2.642742,1.754375,2.774377,2.599147,2.018187,2.264139,2.76421,3.67187,2.259324,1.211838,1.463768,1.678095,2.884504,2.004345,1.779177,3.565609,3.479815,3.051208,2.726501,1.257852,2.052361,1.323021,2.19544,1.988467,1.622732,1.740489,1.529419,2.505238,1.744155,1.870777,2.212815,1.371714,3.099976,1.304002,1.396984,1.624148,2.306183,2.84181,1.599133,3.638904,3.447993,4.429791,6.762298,2.514846,1.142636,0.682883,1.164003,1.75367,2.518315,1.54628,0.960783,1.595049,2.137295,1.577946,1.334798,0.939566,1.290988,1.741619,0.781745,0.970195,0.453913,0.752024,1.240184,1.047944,0.76165,1.24606,1.669109,1.906209,2.092114,2.263958,1.418123,1.2904,2.16257,2.023513,1.769345,1.39084,1.554817,2.370197,2.218336,3.021196,1.594832,1.508224,2.523101,1.031663,1.765308,1.282011,1.083426,1.517211,1.292474,0.741226,1.106558,1.522326,2.044989,1.260703,1.643122,2.154825,1.834171,2.711524,1.980667,1.676235,1.985215,1.883284,2.64692,2.757513,2.125869,1.766882,1.683509,2.3904,1.953514,1.88609,2.348872,1.70241,2.828769,2.481309,6.743888,6.424865,8.481416,7.955646,1.647946,1.609421,2.139304,1.728752,2.50472,2.244004,2.261295,2.419792,1.457311,2.851812,2.943521,2.274502,2.386863,1.77171,2.795019,1.115047,0.788999,1.035737,0.72725,1.196869,1.943216,2.147453,2.936876,3.138088,3.429616,3.096379,2.739963,2.774054,2.349527,2.189782,2.52247,3.36418,2.583268,3.434541,3.295184
1764668945.759855,12017,0,4385.384766,4385.641113,4494.102539,4528.077148,4396.025879,4514.358887,4544.102539,4385.769043,4565.897461,4367.692383,4501.153809,4526.410156,4582.307617,4389.230957,4391.282227,4518.461426,4551.794922,4550.769043,4533.717773,4395.897461,4386.794922,4576.410156,4529.102539,4498.717773,4395.769043,4559.871582,4373.974121,4546.282227,4505.897461,4384.358887,4498.205078,4455.384766,2894,0,6,2573,21040,,,,0,4,4,4,4,4,4,4,4,4,4,4,4,4,4,4,4,4,4,4,4,4,4,4,4,4,4,4,4,4,4,4,4,100,,,,,,,,,,,,,,,,,,,,,,,,,,,,,,,,,,,3004,0,0.613032,-0.334045,-0.342957,0.628479,1.012331,-0.014162,-0.026859,18.333334,41,-18.666666,,,,,,,,,,,,,,,,,,,,,,,,,,,,,,,,,,,,,,,,,,,,,,,,,,,,,,,,,,,,,,,,,,,,,,,,,,,,,,,,,,,,,,,,,,,,,,,,,,,,,,,,,,,,,,,,,,,,,,,,,,,,,,,,,,,,,,,,,,,,,,,,,,,,,,,,,,,,,,,,
1764668945.763761,12018,0,4392.307617,4394.102539,4492.05127,4527.179688,4411.666504,4524.487305,4552.94873,4397.436035,4573.589844,4368.846191,4505.512695,4535.897461,4586.794922,4393.205078,4396.538574,4522.179688,4557.692383,4549.230957,4527.820313,4397.692383,4380,4578.461426,4533.974121,4497.179688,4348.461426,4561.025879,4387.692383,4555.769043,4512.307617,4395.641113,4515.897461,4461.538574,1768,0,6,2574,21048,,,,0,4,4,4,4,4,4,4,4,4,4,4,4,4,4,4,4,4,4,4,4,4,4,4,4,4,4,4,4,4,4,4,4,100,,,,,,,,,,,,,,,,,,,,,,,,,,,,,,,,,,,,,,,,,,,,,,,,,,,,,,,,,,,,,,,,,,,,,,,,,,,,,,,,,,,,,,,,,,,,,,,,,,,,,,,,,,,,,,,,,,,,,,,,,,,,,,,,,,,,,,,,,,,,,,,,,,,,,,,,,,,,,,,,,,,,,,,,,,,,,,,,,,,,,,,,,,,,,,,,,,,,,,,,,,,,,,
1764668945.767667,12019,0,4393.461426,4396.666504,4483.205078,4522.179688,4415.512695,4527.820313,4555.897461,4402.307617,4577.563965,4379.743652,4502.820313,4537.436035,4583.846191,4395.384766,4400.256348,4521.025879,4554.102539,4540.512695,4513.461426,4395.769043,4373.461426,4572.563965,4533.461426,4488.974121,4308.717773,4556.282227,4396.666504,4561.410156,4513.461426,4398.205078,4528.717773,4475.256348,2739,0,6,2574,21048,,,,0,4,4,4,4,4,4,4,4,4,4,4,4,4,4,4,4,4,4,4,4,4,4,4,4,4,4,4,4,4,4,4,4,100,,,,,,,,,,,,,,,,,,,,,,,,,,,,,,,,,,,,,,,,,,,,,,,,,,,,,,,,,,,,,,,,,,,,,,,,,,,,,,,,,,,,,,,,,,,,,,,,,,,,,,,,,,,,,,,,,,,,,,,,,,,,,,,,,,,,,,,,,,,,,,,,,,,,,,,,,,,,,,,,,,,,,,,,,,,,,,,,,,,,,,,,,,,,,,,,,,,,,,,,,,,,,,
1764668945.771573,12020,0,4390.512695,4394.871582,4474.230957,4518.077148,4408.846191,4524.871582,4554.230957,4401.282227,4577.94873,4394.871582,4496.666504,4532.563965,4577.179688,4397.179688,4401.922852,4515.641113,4544.871582,4530.128418,4498.974121,4393.333496,4373.974121,4563.846191,4528.974121,4480.641113,4302.820313,4549.743652,4398.846191,4561.922852,4510.256348,4393.461426,4530.641113,4493.077148,2588,0,6,2575,21056,,,,0,4,4,4,4,4,4,4,4,4,4,4,4,4,4,4,4,4,4,4,4,4,4,4,4,4,4,4,4,4,4,4,4,100,,,,,,,,,,,,,,,,,,,,,,,,,,,,,,,,,,,,,,,,,,,,,,,,,,,,,,,,,,,,,,,,,,,,,,,,,,,,,,,,,,,,,,,,,,,,,,,,,,,,,,,,,,,,,,,,,,,,,,,,,,,,,,,,,,,,,,,,,,,,,,,,,,,,,,,,,,,,,,,,,,,,,,,,,,,,,,,,,,,,,,,,,,,,,,,,,,,,,,,,,,,,,,
1764668945.775479,12021,0,4384.358887,4389.230957,4469.230957,4516.410156,4396.282227,4516.922852,4548.846191,4395.384766,4573.461426,4402.692383,4490.128418,4522.94873,4570.897461,4398.077148,4398.717773,4505.769043,4534.358887,4520.769043,4489.871582,4389.615234,4379.615234,4554.358887,4520.384766,4474.487305,4333.461426,4543.461426,4392.307617,4554.871582,4504.230957,4384.487305,4518.717773,4503.717773,2826,0,6,2575,21056,,,,0,4,4,4,4,4,4,4,4,4,4,4,4,4,4,4,4,4,4,4,4,4,4,4,4,4,4,4,4,4,4,4,4,100,,,,,,,,,,,,,,,,,,,,,,,,,,,,,,,,,,,3005,0,0.612897,-0.334595,-0.343445,0.628052,1.012331,-0.014162,-0.026859,17.5,40.166668,-18.666666,,,,,,,,,,,,,,,,,,,,,,,,,,,,,,,,,,,,,,,,,,,,,,,,,,,,,,,,,,,,,,,,,,,,,,,,,,,,,,,,,,,,,,,,,,,,,,,,,,,,,,,,,,,,,,,,,,,,,,,,,,,,,,,,,,,,,,,,,,,,,,,,,,,,,,,,,,,,,,,,
1764668945.779385,12022,0,4375.769043,4378.974121,4467.307617,4515.769043,4382.436035,4505.897461,4539.743652,4384.871582,4563.077148,4394.743652,4484.487305,4510.641113,4565.897461,4395.512695,4388.589844,4492.692383,4524.230957,4512.692383,4488.333496,4382.94873,4382.436035,4544.230957,4508.333496,4468.461426,4377.820313,4536.794922,4378.205078,4540.512695,4496.922852,4374.102539,4496.794922,4497.436035,2916,0,6,2576,21064,,,,0,4,4,4,4,4,4,4,4,4,4,4,4,4,4,4,4,4,4,4,4,4,4,4,4,4,4,4,4,4,4,4,4,100,,,,,,,,,,,,,,,,,,,,,,,,,,,,,,,,,,,,,,,,,,,,,,,,,,,,,,,,,,,,,,,,,,,,,,,,,,,,,,,,,,,,,,,,,,,,,,,,,,,,,,,,,,,,,,,,,,,,,,,,,,,,,,,,,,,,,,,,,,,,,,,,,,,,,,,,,,,,,,,,,,,,,,,,,,,,,,,,,,,,,,,,,,,,,,,,,,,,,,,,,,,,,,
1764668945.783291,12023,0,4367.307617,4366.922852,4467.05127,4514.743652,4371.666504,4495,4528.974121,4372.179688,4550,4373.461426,4479.743652,4498.461426,4561.666504,4389.487305,4374.871582,4481.153809,4516.153809,4507.692383,4493.974121,4374.358887,4377.563965,4535,4497.179688,4462.436035,4407.94873,4530.641113,4362.820313,4524.615234,4491.410156,4364.871582,4476.153809,4477.436035,2834,0,6,2576,21064,,,,0,4,4,4,4,4,4,4,4,4,4,4,4,4,4,4,4,4,4,4,4,4,4,4,4,4,4,4,4,4,4,4,4,100,,,,,,,,,,,,,,,,,,,,,,,,,,,,,,,,,,,,,,,,,,,,,,,,,,,,,,,,,,,,,,,,,,,,,,,,,,,,,,,,,,,,,,,,,,,,,,,,,,,,,,,,,,,,,,,,,,,,,,,,,,,,,,,,,,,,,,,,,,,,,,,,,,,,,,,,,,,,,,,,,,,,,,,,,,,,,,,,,,,,,,,,,,,,,,,,,,,,,,,,,,,,,,
1764668945.787197,12024,0,4364.487305,4360.256348,4470.128418,4515.384766,4368.846191,4489.871582,4522.179688,4362.94873,4542.820313,4353.205078,4478.205078,4491.666504,4558.974121,4384.102539,4365.641113,4478.461426,4513.461426,4509.871582,4505,4369.230957,4369.358887,4530.897461,4493.974121,4459.615234,4412.820313,4530,4355.512695,4517.179688,4491.153809,4360.897461,4470.128418,4460,2685,0,6,2575,21072,,,,0,4,4,4,4,4,4,4,4,4,4,4,4,4,4,4,4,4,4,4,4,4,4,4,4,4,4,4,4,4,4,4,4,100,,,,,,,,,,,,,,,,,,,,,,,,,,,,,,,,,,,,,,,,,,,,,,,,,,,,,,,,,,,,,,,,,,,,,,,,,,,,,,,,,,,,,,,,,,,,,,,,,,,,,,,,,,,,,,,,,,,,,,,,,,,,,,,,,,,,,,,,,,,,,,,,,,,,,,,,,,,,,,,,,,,,,,,,,,,,,,,,,,,,,,,,,,,,,,,,,,,,,,,,,,,,,,
1764668945.791103,12025,0,4370.641113,4364.871582,4478.974121,4520.641113,4375.769043,4494.358887,4523.846191,4361.922852,4548.077148,4348.589844,4481.794922,4494.230957,4559.615234,4383.846191,4367.820313,4487.692383,4518.589844,4520.384766,4517.05127,4371.410156,4366.922852,4535.256348,4502.179688,4463.589844,4403.333496,4539.487305,4361.282227,4523.846191,4496.410156,4364.230957,4483.461426,4461.410156,2871,0,6,2575,21072,,,,0,4,4,4,4,4,4,4,4,4,4,4,4,4,4,4,4,4,4,4,4,4,4,4,4,4,4,4,4,4,4,4,4,100,,,,,,,,,,,,,,,,,,,,,,,,,,,,,,,,,,,3006,0,0.612704,-0.335144,-0.343811,0.627747,1.010866,-0.010743,-0.01172,17.833334,41,-21.166666,,,,,,,,,,,,,,,,,,,,,,,,,,,,,,,,,,,,,,,,,,,,,,,,,,,,,,,,,,,,,,,,,,,,,,,,,,,,,,,,,,,,,,,,,,,,,,,,,,,,,,,,,,,,,,,,,,,,,,,,,,,,,,,,,,,,,,,,,,,,,,,,,,,,,,,,,,,,,,,,
1764668945.795009,12026,0,4382.436035,4377.563965,4492.05127,4529.102539,4387.307617,4505.769043,4532.820313,4367.307617,4562.692383,4363.077148,4489.102539,4504.230957,4563.717773,4388.461426,4379.615234,4502.820313,4529.102539,4533.333496,4523.974121,4378.333496,4373.717773,4545.256348,4516.282227,4472.436035,4397.94873,4556.025879,4374.487305,4539.871582,4503.333496,4371.922852,4506.025879,4482.05127,1789,0,6,2576,21080,,,,0,4,4,4,4,4,4,4,4,4,4,4,4,4,4,4,4,4,4,4,4,4,4,4,4,4,4,4,4,4,4,4,4,100,,,,,,,,,,,,,,,,,,,,,,,,,,,,,,,,,,,,,,,,,,,,,,,,,,,,,,,,,,,,,,,,,,,,,,,,,,,,,,,,,,,,,,,,,,,,,,,,,,,,,,,,,,,,,,,,,,,,,,,,,,,,,,,,,,,,,,,,,,,,,,,,,,,,,,,,,,,,,,,,,,,,,,,,,,,,,,,,,,,,,,,,,,,,,,,,,,,,,,,,,,,,,,
1764668945.798915,12027,0,4391.282227,4388.205078,4502.94873,4535,4393.589844,4515.769043,4541.410156,4372.179688,4575.641113,4385.128418,4495.512695,4513.846191,4568.077148,4392.692383,4391.282227,4512.436035,4538.205078,4539.871582,4521.922852,4382.436035,4384.102539,4553.461426,4525.256348,4479.743652,4405.769043,4570,4382.692383,4552.179688,4506.153809,4377.820313,4520.897461,4505,2427,0,6,2576,21080,,,,0,4,4,4,4,4,4,4,4,4,4,4,4,4,4,4,4,4,4,4,4,4,4,4,4,4,4,4,4,4,4,4,4,100,,,,,,,,,,,,,,,,,,,,,,,,,,,,,,,,,,,,,,,,,,,,,,,,,,,,,,,,,,,,,,,,,,,,,,,,,,,,,,,,,,,,,,,,,,,,,,,,,,,,,,,,,,,,,,,,,,,,,,,,,,,,,,,,,,,,,,,,,,,,,,,,,,,,,,,,,,,,,,,,,,,,,,,,,,,,,,,,,,,,,,,,,,,,,,,,,,,,,,,,,,,,,,
1764668945.802821,12028,0,4390.769043,4388.333496,4505.256348,4533.589844,4389.487305,4517.692383,4542.692383,4371.410156,4577.179688,4399.102539,4496.794922,4516.666504,4569.358887,4392.436035,4393.846191,4510,4540.384766,4535.641113,4512.563965,4379.487305,4389.871582,4553.846191,4522.307617,4480,4421.410156,4573.077148,4377.94873,4551.153809,4502.692383,4378.717773,4517.94873,4510.128418,2605,0,6,2576,21087,,,,0,4,4,4,4,4,4,4,4,4,4,4,4,4,4,4,4,4,4,4,4,4,4,4,4,4,4,4,4,4,4,4,4,100,,,,,,,,,,,,,,,,,,,,,,,,,,,,,,,,,,,,,,,,,,,,,,,,,,,,,,,,,,,,,,,,,,,,,,,,,,,,,,,,,,,,,,,,,,,,,,,,,,,,,,,,,,,,,,,,,,,,,,,,,,,,,,,,,,,,,,,,,,,,,,,,,,,,,,,,,,,,,,,,,,,,,,,,,,,,,,,,,,,,,,,,,,,,,,,,,,,,,,,,,,,,,,
1764668945.806727,12029,0,4382.692383,4379.230957,4498.205078,4526.282227,4378.846191,4512.307617,4536.794922,4366.794922,4568.077148,4397.307617,4493.846191,4512.692383,4567.05127,4387.820313,4387.436035,4499.487305,4536.538574,4524.871582,4501.666504,4372.563965,4388.974121,4548.077148,4510.641113,4474.102539,4431.282227,4566.153809,4364.230957,4538.461426,4495.769043,4375.897461,4502.307617,4492.563965,2440,0,6,2576,21087,,,,0,4,4,4,4,4,4,4,4,4,4,4,4,4,4,4,4,4,4,4,4,4,4,4,4,4,4,4,4,4,4,4,4,100,,,,,,,,,,,,,,,,,,,,,,,,,,,,,,,,,,,3007,0,0.61252,-0.33551,-0.344116,0.627563,0.984984,-0.021975,-0.015139,17.833334,41,-21.166666,,,,,,,,,,,,,,,,,,,,,,,,,,,,,,,,,,,,,,,,,,,,,,,,,,,,,,,,,,,,,,,,,,,,,,,,,,,,,,,,,,,,,,,,,,,,,,,,,,,,,,,,,,,,,,,,,,,,,,,,,,,,,,,,,,,,,,,,,,,,,,,,,,,,,,,,,,,,,,,,
1764668945.810633,12030,0,4374.358887,4369.615234,4486.538574,4519.230957,4371.538574,4506.282227,4530.512695,4364.743652,4557.820313,4384.230957,4490.769043,4507.820313,4563.846191,4382.94873,4380,4491.153809,4532.307617,4516.153809,4495.128418,4368.974121,4386.282227,4543.077148,4500.384766,4468.461426,4425.256348,4556.025879,4353.846191,4525.512695,4490.641113,4372.820313,4487.820313,4466.153809,2713,0,6,2576,21095,,,,0,4,4,4,4,4,4,4,4,4,4,4,4,4,4,4,4,4,4,4,4,4,4,4,4,4,4,4,4,4,4,4,4,100,,,,,,,,,,,,,,,,,,,,,,,,,,,,,,,,,,,,,,,,,,,,,,,,,,,,,,,,,,,,,,,,,,,,,,,,,,,,,,,,,,,,,,,,,,,,,,,,,,,,,,,,,,,,,,,,,,,,,,,,,,,,,,,,,,,,,,,,,,,,,,,,,,,,,,,,,,,,,,,,,,,,,,,,,,,,,,,,,,,,,,,,,,,,,,,,,,,,,,,,,,,,,,
1764668945.814540,12031,0,4372.436035,4367.820313,4477.563965,4518.589844,4374.743652,4506.025879,4530.512695,4369.358887,4556.282227,4372.307617,4491.794922,4507.820313,4563.846191,4381.666504,4379.615234,4492.307617,4532.94873,4515.641113,4495.897461,4373.077148,4387.563965,4544.871582,4500,4469.102539,4404.743652,4549.871582,4356.666504,4523.333496,4490.769043,4370.641113,4485.256348,4451.538574,2732,0,6,2576,21095,,,,0,4,4,4,4,4,4,4,4,4,4,4,4,4,4,4,4,4,4,4,4,4,4,4,4,4,4,4,4,4,4,4,4,100,,,,,,,,,,,,,,,,,,,,,,,,,,,,,,,,,,,,,,,,,,,,,,,,,,,,,,,,,,,,,,,,,,,,,,,,,,,,,,,,,,,,,,,,,,,,,,,,,,,,,,,,,,,,,,,,,,,,,,,,,,,,,,,,,,,,,,,,,,,,,,,,,,,,,,,,,,,,,,,,,,,,,,,,,,,,,,,,,,,,,,,,,,,,,,,,,,,,,,,,,,,,,,
1764668945.818446,12032,0,4378.461426,4375.512695,4476.410156,4525,4387.307617,4512.563965,4538.077148,4378.717773,4565.256348,4372.307617,4497.307617,4513.717773,4569.871582,4385.384766,4387.563965,4501.410156,4539.871582,4523.333496,4502.563965,4382.436035,4393.846191,4553.846191,4510,4476.922852,4382.692383,4550.512695,4372.179688,4533.717773,4496.025879,4368.589844,4495.128418,4458.589844,2792,0,6,2576,21103,,,,0,4,4,4,4,4,4,4,4,4,4,4,4,4,4,4,4,4,4,4,4,4,4,4,4,4,4,4,4,4,4,4,4,100,,,,,,,,,,,,,,,,,,,,,,,,,,,,,,,,,,,,,,,,,,,,,,,,,,,,,,,,,,,,,,,,,,,,,,,,,,,,,,,,,,,,,,,,,,,,,,,,,,,,,,,,,,,,,,,,,,,,,,,,,,,,,,,,,,,,,,,,,,,,,,,,,,,,,,,,,,,,,,,,,,,,,,,,,,,,,,,,,,,,,,,,,,,,,,,,,,,,,,,,,,,,,,
1764668945.822352,12033,0,4388.717773,4388.333496,4483.974121,4534.487305,4402.436035,4522.563965,4549.358887,4387.692383,4578.589844,4386.794922,4504.743652,4522.820313,4580.897461,4392.820313,4399.358887,4511.282227,4550,4534.743652,4511.794922,4391.282227,4401.666504,4565.256348,4524.102539,4487.307617,4372.563965,4556.538574,4391.025879,4549.358887,4503.717773,4367.436035,4509.743652,4479.871582,2905,0,6,2576,21103,,,,0,4,4,4,4,4,4,4,4,4,4,4,4,4,4,4,4,4,4,4,4,4,4,4,4,4,4,4,4,4,4,4,4,100,,,,,,,,,,,,,,,,,,,,,,,,,,,,,,,,,,,3008,0,0.612269,-0.336243,-0.344849,0.627014,0.99768,-0.015627,-0.022464,17.833334,39.833332,-20,,,,,,,,,,,,,,,,,,,,,,,,,,,,,,,,,,,,,,,,,,,,,,,,,,,,,,,,,,,,,,,,,,,,,,,,,,,,,,,,,,,,,,,,,,,,,,,,,,,,,,,,,,,,,,,,,,,,,,,,,,,,,,,,,,,,,,,,,,,,,,,,,,,,,,,,,,,,,,,,
1764668945.826258,12034,0,4399.230957,4400.128418,4497.692383,4542.307617,4412.94873,4531.538574,4558.846191,4392.94873,4588.589844,4409.743652,4511.025879,4532.179688,4592.820313,4401.025879,4408.974121,4516.282227,4559.358887,4545,4520.128418,4395.897461,4407.179688,4574.358887,4535,4495.256348,4378.461426,4565,4402.563965,4561.025879,4510.769043,4369.615234,4520.769043,4499.487305,2669,0,6,2576,21111,,,,0,4,4,4,4,4,4,4,4,4,4,4,4,4,4,4,4,4,4,4,4,4,4,4,4,4,4,4,4,4,4,4,4,100,,,,,,,,,,,,,,,,,,,,,,,,,,,,,,,,,,,,,,,,,,,,,,,,,,,,,,,,,,,,,,,,,,,,,,,,,,,,,,,,,,,,,,,,,,,,,,,,,,,,,,,,,,,,,,,,,,,,,,,,,,,,,,,,,,,,,,,,,,,,,,,,,,,,,,,,,,,,,,,,,,,,,,,,,,,,,,,,,,,,,,,,,,,,,,,,,,,,,,,,,,,,,,
1764668945.830164,12035,0,4406.794922,4406.410156,4512.692383,4547.307617,4416.282227,4537.179688,4563.205078,4394.871582,4591.410156,4430.256348,4513.717773,4538.846191,4600.769043,4406.666504,4412.05127,4516.538574,4565,4551.666504,4525.384766,4396.922852,4408.846191,4579.230957,4538.461426,4498.205078,4392.05127,4572.179688,4402.692383,4564.743652,4515.128418,4376.794922,4524.871582,4507.05127,2836,0,6,2576,21111,,,,0,4,4,4,4,4,4,4,4,4,4,4,4,4,4,4,4,4,4,4,4,4,4,4,4,4,4,4,4,4,4,4,4,100,,,,,,,,,,,,,,,,,,,,,,,,,,,,,,,,,,,,,,,,,,,,,,,,,,,,,,,,,,,,,,,,,,,,,,,,,,,,,,,,,,,,,,,,,,,,,,,,,,,,,,,,,,,,,,,,,,,,,,,,,,,,,,,,,,,,,,,,,,,,,,,,,,,,,,,,,,,,,,,,,,,,,,,,,,,,,,,,,,,,,,,,,,,,,,,,,,,,,,,,,,,,,,
1764668945.834070,12036,0,4409.102539,4405.641113,4523.205078,4549.358887,4414.102539,4538.589844,4561.282227,4395.128418,4587.692383,4438.974121,4510.897461,4540.512695,4600.128418,4407.05127,4407.820313,4515.769043,4565.128418,4554.358887,4526.282227,4396.410156,4407.307617,4580.512695,4534.871582,4497.179688,4401.538574,4574.871582,4394.102539,4562.692383,4515.512695,4385.769043,4523.205078,4502.94873,2736,0,6,2576,21119,,,,0,4,4,4,4,4,4,4,4,4,4,4,4,4,4,4,4,4,4,4,4,4,4,4,4,4,4,4,4,4,4,4,4,100,,,,,,,,,,,,,,,,,,,,,,,,,,,,,,,,,,,,,,,,,,,,,,,,,,,,,,,,,,,,,,,,,,,,,,,,,,,,,,,,,,,,,,,,,,,,,,,,,,,,,,,,,,,,,,,,,,,,,,,,,,,,,,,,,,,,,,,,,,,,,,,,,,,,,,,,,,,,,,,,,,,,,,,,,,,,,,,,,,,,,,,,,,,,,,,,,,,,,,,,,,,,,,
1764668945.837976,12037,0,4404.743652,4398.077148,4524.743652,4548.461426,4409.487305,4535.641113,4553.846191,4393.589844,4579.230957,4430.384766,4502.692383,4535.256348,4589.871582,4401.153809,4397.94873,4515.897461,4559.743652,4552.307617,4522.179688,4394.487305,4403.077148,4578.589844,4526.922852,4493.846191,4401.922852,4570.512695,4383.077148,4558.333496,4511.666504,4390.384766,4517.820313,4493.717773,2808,0,6,2576,21119,,,,0,4,4,4,4,4,4,4,4,4,4,4,4,4,4,4,4,4,4,4,4,4,4,4,4,4,4,4,4,4,4,4,4,100,,,,,,,,,,,,,,,,,,,,,,,,,,,,,,,,,,,3009,0,0.612236,-0.336609,-0.345215,0.626648,1.00061,-0.007813,-0.019534,19,40,-20.166666,,,,,,,,,,,,,,,,,,,,,,,,,,,,,,,,,,,,,,,,,,,,,,,,,,,,,,,,,,,,,,,,,,,,,,,,,,,,,,,,,,,,,,,,,,,,,,,,,,,,,,,,,,,,,,,,,,,,,,,,,,,,,,,,,,,,,,,,,,,,,,,,,,,,,,,,,,,,,,,,
1764668945.841882,12038,0,4394.743652,4387.179688,4517.179688,4544.487305,4404.615234,4529.230957,4543.974121,4389.230957,4568.205078,4406.794922,4491.794922,4524.230957,4573.461426,4390.897461,4385.512695,4515.384766,4549.871582,4545,4513.589844,4389.487305,4395.769043,4573.077148,4517.692383,4489.230957,4398.589844,4560.641113,4374.615234,4553.589844,4504.871582,4385.769043,4510,4484.487305,2798,0,6,2576,21126,,,,0,4,4,4,4,4,4,4,4,4,4,4,4,4,4,4,4,4,4,4,4,4,4,4,4,4,4,4,4,4,4,4,4,100,,,,,,,,,,,,,,,,,,,,,,,,,,,,,,,,,,,,,,,,,,,,,,,,,,,,,,,,,,,,,,,,,,,,,,,,,,,,,,,,,,,,,,,,,,,,,,,,,,,,,,,,,,,,,,,,,,,,,,,,,,,,,,,,,,,,,,,,,,,,,,,,,,,,,,,,,,,,,,,,,,,,,,,,,,,,,,,,,,,,,,,,,,,,,,,,,,,,,,,,,,,,,,
1764668945.845788,12039,0,4383.974121,4378.974121,4505.897461,4539.102539,4400.897461,4522.436035,4535.897461,4382.692383,4558.461426,4378.589844,4483.717773,4512.820313,4557.94873,4381.538574,4374.615234,4512.563965,4539.743652,4535.128418,4504.358887,4382.179688,4386.538574,4565.128418,4511.153809,4484.487305,4400.256348,4550.769043,4371.666504,4548.974121,4498.717773,4374.615234,4502.563965,4477.307617,2966,0,6,2576,21126,,,,0,4,4,4,4,4,4,4,4,4,4,4,4,4,4,4,4,4,4,4,4,4,4,4,4,4,4,4,4,4,4,4,4,100,,,,,,,,,,,,,,,,,,,,,,,,,,,,,,,,,,,,,,,,,,,,,,,,,,,,,,,,,,,,,,,,,,,,,,,,,,,,,,,,,,,,,,,,,,,,,,,,,,,,,,,,,,,,,,,,,,,,,,,,,,,,,,,,,,,,,,,,,,,,,,,,,,,,,,,,,,,,,,,,,,,,,,,,,,,,,,,,,,,,,,,,,,,,,,,,,,,,,,,,,,,,,,
1764668945.849694,12040,0,4378.974121,4378.974121,4497.820313,4536.153809,4398.846191,4519.230957,4533.589844,4377.563965,4555.256348,4359.871582,4483.717773,4507.307617,4551.282227,4378.077148,4369.743652,4509.230957,4535.384766,4529.102539,4501.025879,4377.436035,4379.487305,4558.077148,4510.769043,4481.666504,4411.282227,4547.820313,4375.128418,4546.282227,4497.692383,4365.256348,4500.384766,4473.717773,2878,0,6,2576,21134,,,,0,4,4,4,4,4,4,4,4,4,4,4,4,4,4,4,4,4,4,4,4,4,4,4,4,4,4,4,4,4,4,4,4,100,,,,,,,,,,,,,,,,,,,,,,,,,,,,,,,,,,,,,,,,,,,,,,,,,,,,,,,,,,,,,,,,,,,,,,,,,,,,,,,,,,,,,,,,,,,,,,,,,,,,,,,,,,,,,,,,,,,,,,,,,,,,,,,,,,,,,,,,,,,,,,,,,,,,,,,,,,,,,,,,,,,,,,,,,,,,,,,,,,,,,,,,,,,,,,,,,,,,,,,,,,,,,,
1764668945.853600,12041,0,4383.333496,4388.333496,4497.05127,4538.974121,4398.846191,4522.307617,4537.820313,4378.205078,4561.538574,4360.641113,4492.820313,4511.282227,4556.666504,4382.307617,4373.333496,4509.358887,4540.512695,4533.077148,4508.974121,4381.153809,4381.153809,4556.794922,4517.692383,4483.974121,4427.179688,4555.641113,4383.846191,4548.333496,4503.846191,4365.384766,4508.333496,4475.769043,2747,0,6,2576,21134,,,,0,4,4,4,4,4,4,4,4,4,4,4,4,4,4,4,4,4,4,4,4,4,4,4,4,4,4,4,4,4,4,4,4,100,,,,,,,,,,,,,,,,,,,,,,,,,,,,,,,,,,,3010,0,0.612151,-0.336792,-0.34552,0.626465,1.024051,-0.008302,-0.024905,18.333334,39.333332,-20,,,,,,,,,,,,,,,,,,,,,,,,,,,,,,,,,,,,,,,,,,,,,,,,,,,,,,,,,,,,,,,,,,,,,,,,,,,,,,,,,,,,,,,,,,,,,,,,,,,,,,,,,,,,,,,,,,,,,,,,,,,,,,,,,,,,,,,,,,,,,,,,,,,,,,,,,,,,,,,,
1764668945.857506,12042,0,4395.256348,4402.820313,4501.666504,4547.436035,4400.512695,4530.128418,4546.410156,4385.769043,4574.487305,4379.230957,4506.666504,4522.179688,4570.897461,4392.307617,4383.974121,4516.025879,4552.94873,4547.94873,4526.410156,4394.487305,4395.512695,4563.846191,4529.230957,4492.179688,4439.871582,4571.538574,4394.743652,4556.282227,4514.102539,4376.538574,4525.512695,4483.717773,2400,0,6,2575,21142,,,,0,4,4,4,4,4,4,4,4,4,4,4,4,4,4,4,4,4,4,4,4,4,4,4,4,4,4,4,4,4,4,4,4,100,,,,,,,,,,,,,,,,,,,,,,,,,,,,,,,,,,,,,,,,,,,,,,,,,,,,,,,,,,,,,,,,,,,,,,,,,,,,,,,,,,,,,,,,,,,,,,,,,,,,,,,,,,,,,,,,,,,,,,,,,,,,,,,,,,,,,,,,,,,,,,,,,,,,,,,,,,,,,,,,,,,,,,,,,,,,,,,,,,,,,,,,,,,,,,,,,,,,,,,,,,,,,,
1764668945.861412,12043,0,4407.563965,4415,4506.410156,4557.436035,4402.307617,4538.461426,4554.487305,4395.897461,4587.05127,4403.461426,4517.05127,4533.205078,4585.256348,4403.461426,4396.410156,4527.307617,4565.769043,4565.897461,4543.846191,4410.128418,4418.077148,4576.538574,4539.871582,4503.077148,4445,4587.436035,4403.333496,4567.179688,4522.307617,4392.05127,4543.717773,4494.230957,2699,0,6,2575,21142,,,,0,4,4,4,4,4,4,4,4,4,4,4,4,4,4,4,4,4,4,4,4,4,4,4,4,4,4,4,4,4,4,4,4,100,,,,,,,,,,,,,,,,,,,,,,,,,,,,,,,,,,,,,,,,,,,,,,,,,,,,,,,,,,,,,,,,,,,,,,,,,,,,,,,,,,,,,,,,,,,,,,,,,,,,,,,,,,,,,,,,,,,,,,,,,,,,,,,,,,,,,,,,,,,,,,,,,,,,,,,,,,,,,,,,,,,,,,,,,,,,,,,,,,,,,,,,,,,,,,,,,,,,,,,,,,,,,,
1764668945.865318,12044,0,4411.666504,4418.205078,4505.384766,4562.307617,4402.307617,4541.153809,4557.436035,4401.410156,4591.538574,4417.436035,4517.692383,4536.538574,4591.538574,4410.256348,4403.333496,4536.410156,4570.641113,4574.102539,4548.717773,4416.666504,4434.871582,4586.666504,4543.077148,4509.487305,4442.692383,4594.358887,4405.256348,4573.589844,4523.077148,4401.794922,4551.282227,4500.897461,2459,0,6,2574,21150,,,,0,4,4,4,4,4,4,4,4,4,4,4,4,4,4,4,4,4,4,4,4,4,4,4,4,4,4,4,4,4,4,4,4,100,,,,,,,,,,,,,,,,,,,,,,,,,,,,,,,,,,,,,,,,,,,,,,,,,,,,,,,,,,,,,,,,,,,,,,,,,,,,,,,,,,,,,,,,,,,,,,,,,,,,,,,,,,,,,,,,,,,,,,,,,,,,,,,,,,,,,,,,,,,,,,,,,,,,,,,,,,,,,,,,,,,,,,,,,,,,,,,,,,,,,,,,,,,,,,,,,,,,,,,,,,,,,,
1764668945.869224,12045,0,4402.94873,4410,4496.794922,4557.94873,4398.717773,4534.358887,4552.692383,4396.922852,4584.743652,4412.692383,4508.333496,4528.717773,4586.538574,4408.589844,4399.230957,4534.615234,4563.077148,4563.461426,4534.615234,4406.922852,4431.922852,4585.512695,4535.256348,4505,4434.102539,4587.563965,4398.205078,4568.717773,4515.256348,4398.974121,4541.410156,4499.102539,2213,0,6,2574,21150,,,,0,4,4,4,4,4,4,4,4,4,4,4,4,4,4,4,4,4,4,4,4,4,4,4,4,4,4,4,4,4,4,4,4,100,,,,,,,,,,,,,,,,,,,,,,,,,,,,,,,,,,,3011,0,0.612071,-0.336914,-0.345764,0.626343,1.007936,-0.009278,-0.018557,19.333334,41.5,-18.833334,,,,,,,,,,,,,,,,,,,,,,,,,,,,,,,,,,,,,,,,,,,,,,,,,,,,,,,,,,,,,,,,,,,,,,,,,,,,,,,,,,,,,,,,,,,,,,,,,,,,,,,,,,,,,,,,,,,,,,,,,,,,,,,,,,,,,,,,,,,,,,,,,,,,,,,,,,,,,,,,
1764668945.873130,12046,0,4386.025879,4395.256348,4485,4546.282227,4392.179688,4520.384766,4542.563965,4384.743652,4570.769043,4393.589844,4495.512695,4513.589844,4574.358887,4398.974121,4385.641113,4519.743652,4546.794922,4537.820313,4507.94873,4384.871582,4407.05127,4571.538574,4519.871582,4489.743652,4419.871582,4570.128418,4384.871582,4552.94873,4503.077148,4385.384766,4519.487305,4491.153809,2708,0,6,2568,21158,,,,0,4,4,4,4,4,4,4,4,4,4,4,4,4,4,4,4,4,4,4,4,4,4,4,4,4,4,4,4,4,4,4,4,100,,,,,,,,,,,,,,,,,,,,,,,,,,,,,,,,,,,,,,,,,,,,,,,,,,,,,,,,,,,,,,,,,,,,,,,,,,,,,,,,,,,,,,,,,,,,,,,,,,,,,,,,,,,,,,,,,,,,,,,,,,,,,,,,,,,,,,,,,,,,,,,,,,,,,,,,,,,,,,,,,,,,,,,,,,,,,,,,,,,,,,,,,,,,,,,,,,,,,,,,,,,,,,
1764668945.877036,12047,0,4371.410156,4382.820313,4478.205078,4535.256348,4386.794922,4507.307617,4533.589844,4373.974121,4559.102539,4375,4488.333496,4501.666504,4564.102539,4387.436035,4370.897461,4499.230957,4531.922852,4513.077148,4484.487305,4365,4374.615234,4552.563965,4506.153809,4472.436035,4402.436035,4551.922852,4372.307617,4535.512695,4493.717773,4370.512695,4499.358887,4484.743652,2421,0,6,2568,21158,,,,0,4,4,4,4,4,4,4,4,4,4,4,4,4,4,4,4,4,4,4,4,4,4,4,4,4,4,4,4,4,4,4,4,100,,,,,,,,,,,,,,,,,,,,,,,,,,,,,,,,,,,,,,,,,,,,,,,,,,,,,,,,,,,,,,,,,,,,,,,,,,,,,,,,,,,,,,,,,,,,,,,,,,,,,,,,,,,,,,,,,,,,,,,,,,,,,,,,,,,,,,,,,,,,,,,,,,,,,,,,,,,,,,,,,,,,,,,,,,,,,,,,,,,,,,,,,,,,,,,,,,,,,,,,,,,,,,
1764668945.880942,12048,0,4368.461426,4380.256348,4480.769043,4531.794922,4388.205078,4503.461426,4531.538574,4373.077148,4557.94873,4370,4490.897461,4500.897461,4562.563965,4381.794922,4364.871582,4486.666504,4527.820313,4505.897461,4479.230957,4361.282227,4355.128418,4541.282227,4502.692383,4463.461426,4387.05127,4541.922852,4367.692383,4527.563965,4492.179688,4364.230957,4492.563965,4485.897461,2872,0,6,2564,21165,,,,0,4,4,4,4,4,4,4,4,4,4,4,4,4,4,4,4,4,4,4,4,4,4,4,4,4,4,4,4,4,4,4,4,100,0.886719,25,3,3,1,3,3,4,3,3,3,1,4,4,4,4,4,3,3,3,4,4,3,3,3,3,1,3,3,3,4,3,3,1,,,,,,,,,,,,,3.131613,1.522961,1.925871,1.334646,2.054119,2.107394,2.098578,2.231056,1.610793,2.585016,3.051949,2.047895,1.864821,2.809405,2.912325,2.79193,1.383751,1.458286,1.69569,2.608211,2.561612,1.892258,3.477769,2.989786,2.912256,3.194295,1.389728,1.871783,1.278473,2.046522,2.553654,1.601152,1.43193,1.478437,2.416258,2.109923,1.73008,1.8441,1.183909,2.933853,1.731292,1.477088,1.43509,2.166152,2.553267,2.322541,3.545798,3.619572,4.128643,5.565932,3.113255,1.191371,0.608907,1.11711,1.622497,3.257887,1.712875,0.753377,1.515821,2.007119,2.020051,1.441578,0.788733,1.234018,1.65182,0.891214,0.953686,0.451774,0.802681,1.195659,1.444572,0.982285,1.281015,1.690234,1.891767,2.132214,2.165781,1.51618,1.289762,1.962065,2.647303,1.93152,1.180195,1.447162,2.18317,2.739862,3.214437,1.794116,1.459576,2.2646,1.159771,1.803672,1.453909,1.089069,1.39476,1.302536,0.756486,0.951995,1.517583,1.77275,1.356431,1.434792,1.874065,1.913782,2.672328,2.469488,1.894171,1.72782,1.740517,2.475998,3.332819,2.269766,1.466005,1.565446,2.18302,2.35625,2.055251,1.972954,1.636907,2.602337,2.483068,5.938352,5.185493,8.56074,8.328521,1.828516,1.679491,1.676623,1.641414,2.230618,2.684284,2.381452,1.915481,1.378618,2.569203,3.8244,2.425689,2.005328,1.706858,2.61049,1.405678,0.769217,0.914888,0.680183,1.083749,2.112925,2.055044,2.3766,2.827242,3.060913,3.199243,2.724746,2.221768,2.240822,1.989228,2.499367,2.848569,2.220469,3.242311,3.0494
1764668945.884848,12049,0,4377.563965,4387.307617,4489.871582,4536.282227,4397.692383,4511.025879,4536.794922,4382.692383,4566.538574,4381.410156,4499.358887,4511.025879,4569.743652,4385.384766,4370.769043,4491.410156,4536.666504,4520.512695,4494.871582,4375.897461,4360,4544.615234,4510.641113,4467.563965,4377.94873,4542.820313,4372.820313,4533.974121,4497.692383,4368.717773,4499.230957,4492.820313,2885,0,6,2564,21165,,,,0,4,4,4,4,4,4,4,4,4,4,4,4,4,4,4,4,4,4,4,4,4,4,4,4,4,4,4,4,4,4,4,4,100,,,,,,,,,,,,,,,,,,,,,,,,,,,,,,,,,,,3012,0,0.611958,-0.337158,-0.345947,0.626221,1.007936,-0.009278,-0.018557,20.333334,41.333332,-20,,,,,,,,,,,,,,,,,,,,,,,,,,,,,,,,,,,,,,,,,,,,,,,,,,,,,,,,,,,,,,,,,,,,,,,,,,,,,,,,,,,,,,,,,,,,,,,,,,,,,,,,,,,,,,,,,,,,,,,,,,,,,,,,,,,,,,,,,,,,,,,,,,,,,,,,,,,,,,,,
1764668945.888754,12050,0,4391.410156,4397.820313,4499.871582,4543.333496,4411.025879,4524.102539,4545.256348,4395.769043,4576.922852,4401.153809,4506.922852,4524.615234,4579.743652,4395.512695,4384.102539,4510.641113,4552.436035,4545.512695,4520.897461,4398.589844,4383.461426,4560,4524.102539,4481.538574,4376.153809,4550.256348,4383.846191,4550.256348,4506.153809,4378.589844,4510,4498.589844,1764,0,6,2562,21173,,,,0,4,4,4,4,4,4,4,4,4,4,4,4,4,4,4,4,4,4,4,4,4,4,4,4,4,4,4,4,4,4,4,4,100,,,,,,,,,,,,,,,,,,,,,,,,,,,,,,,,,,,,,,,,,,,,,,,,,,,,,,,,,,,,,,,,,,,,,,,,,,,,,,,,,,,,,,,,,,,,,,,,,,,,,,,,,,,,,,,,,,,,,,,,,,,,,,,,,,,,,,,,,,,,,,,,,,,,,,,,,,,,,,,,,,,,,,,,,,,,,,,,,,,,,,,,,,,,,,,,,,,,,,,,,,,,,,
1764668945.892660,12051,0,4402.05127,4406.282227,4509.358887,4548.717773,4421.794922,4535.512695,4553.333496,4405.256348,4582.307617,4418.974121,4510.384766,4534.487305,4587.307617,4407.307617,4397.563965,4533.077148,4567.307617,4565.256348,4541.282227,4415.769043,4410,4579.230957,4536.666504,4498.077148,4382.307617,4559.230957,4394.871582,4567.692383,4514.487305,4388.333496,4517.436035,4500,2737,0,6,2562,21173,,,,0,4,4,4,4,4,4,4,4,4,4,4,4,4,4,4,4,4,4,4,4,4,4,4,4,4,4,4,4,4,4,4,4,100,,,,,,,,,,,,,,,,,,,,,,,,,,,,,,,,,,,,,,,,,,,,,,,,,,,,,,,,,,,,,,,,,,,,,,,,,,,,,,,,,,,,,,,,,,,,,,,,,,,,,,,,,,,,,,,,,,,,,,,,,,,,,,,,,,,,,,,,,,,,,,,,,,,,,,,,,,,,,,,,,,,,,,,,,,,,,,,,,,,,,,,,,,,,,,,,,,,,,,,,,,,,,,
1764668945.896566,12052,0,4407.179688,4412.179688,4521.538574,4553.461426,4426.666504,4542.563965,4560.256348,4410,4583.205078,4428.589844,4511.666504,4539.615234,4591.025879,4416.794922,4405.641113,4546.922852,4576.794922,4570.641113,4545.641113,4421.025879,4426.025879,4594.102539,4545.256348,4510.897461,4396.025879,4568.205078,4402.94873,4579.358887,4521.538574,4396.794922,4521.410156,4501.153809,2578,0,6,2563,21181,,,,0,4,4,4,4,4,4,4,4,4,4,4,4,4,4,4,4,4,4,4,4,4,4,4,4,4,4,4,4,4,4,4,4,100,,,,,,,,,,,,,,,,,,,,,,,,,,,,,,,,,,,,,,,,,,,,,,,,,,,,,,,,,,,,,,,,,,,,,,,,,,,,,,,,,,,,,,,,,,,,,,,,,,,,,,,,,,,,,,,,,,,,,,,,,,,,,,,,,,,,,,,,,,,,,,,,,,,,,,,,,,,,,,,,,,,,,,,,,,,,,,,,,,,,,,,,,,,,,,,,,,,,,,,,,,,,,,
1764668945.900472,12053,0,4408.077148,4416.666504,4537.05127,4560.128418,4425.897461,4545.641113,4566.410156,4412.436035,4584.615234,4428.846191,4514.358887,4542.179688,4592.820313,4421.666504,4407.05127,4546.538574,4579.871582,4563.205078,4534.871582,4417.307617,4427.179688,4599.743652,4549.230957,4516.282227,4410.384766,4576.282227,4407.307617,4582.436035,4526.282227,4403.077148,4526.025879,4507.05127,2801,0,6,2563,21181,,,,0,4,4,4,4,4,4,4,4,4,4,4,4,4,4,4,4,4,4,4,4,4,4,4,4,4,4,4,4,4,4,4,4,100,,,,,,,,,,,,,,,,,,,,,,,,,,,,,,,,,,,3013,0,0.611975,-0.337341,-0.346069,0.626038,1.004517,-0.001465,-0.020999,18.333334,39.333332,-20,,,,,,,,,,,,,,,,,,,,,,,,,,,,,,,,,,,,,,,,,,,,,,,,,,,,,,,,,,,,,,,,,,,,,,,,,,,,,,,,,,,,,,,,,,,,,,,,,,,,,,,,,,,,,,,,,,,,,,,,,,,,,,,,,,,,,,,,,,,,,,,,,,,,,,,,,,,,,,,,
1764668945.904378,12054,0,4406.025879,4418.461426,4548.974121,4567.436035,4421.025879,4545,4569.358887,4413.333496,4588.077148,4421.153809,4518.205078,4542.436035,4593.333496,4420.256348,4402.179688,4534.487305,4577.179688,4550.256348,4518.589844,4409.615234,4417.692383,4595.512695,4547.563965,4513.589844,4413.205078,4580.256348,4406.538574,4577.05127,4526.666504,4404.230957,4531.153809,4514.358887,2913,0,6,2048,21189,,,,0,4,4,4,4,4,4,4,4,4,4,4,4,4,4,4,4,4,4,4,4,4,4,4,4,4,4,4,4,4,4,4,4,100,,,,,,,,,,,,,,,,,,,,,,,,,,,,,,,,,,,,,,,,,,,,,,,,,,,,,,,,,,,,,,,,,,,,,,,,,,,,,,,,,,,,,,,,,,,,,,,,,,,,,,,,,,,,,,,,,,,,,,,,,,,,,,,,,,,,,,,,,,,,,,,,,,,,,,,,,,,,,,,,,,,,,,,,,,,,,,,,,,,,,,,,,,,,,,,,,,,,,,,,,,,,,,
1764668945.908284,12055,0,4400.512695,4414.358887,4546.025879,4570,4412.436035,4539.230957,4566.538574,4410.897461,4589.487305,4407.436035,4519.102539,4538.077148,4590.512695,4412.05127,4392.820313,4518.333496,4569.230957,4539.358887,4507.820313,4401.025879,4404.230957,4583.589844,4540,4504.358887,4397.820313,4575.384766,4399.230957,4565.897461,4521.153809,4396.794922,4532.05127,4512.436035,2836,0,6,2048,21189,,,,0,4,4,4,4,4,4,4,4,4,4,4,4,4,4,4,4,4,4,4,4,4,4,4,4,4,4,4,4,4,4,4,4,100,,,,,,,,,,,,,,,,,,,,,,,,,,,,,,,,,,,,,,,,,,,,,,,,,,,,,,,,,,,,,,,,,,,,,,,,,,,,,,,,,,,,,,,,,,,,,,,,,,,,,,,,,,,,,,,,,,,,,,,,,,,,,,,,,,,,,,,,,,,,,,,,,,,,,,,,,,,,,,,,,,,,,,,,,,,,,,,,,,,,,,,,,,,,,,,,,,,,,,,,,,,,,,
1764668945.912190,12056,0,4392.05127,4404.487305,4524.743652,4564.102539,4401.282227,4529.615234,4557.820313,4402.94873,4584.102539,4391.153809,4513.974121,4528.589844,4583.333496,4400,4381.794922,4506.794922,4558.333496,4535,4507.563965,4392.307617,4392.820313,4569.102539,4528.717773,4492.307617,4372.307617,4561.666504,4385.769043,4553.333496,4511.794922,4382.820313,4524.487305,4493.461426,2688,0,6,2304,21197,,,,0,4,4,4,4,4,4,4,4,4,4,4,4,4,4,4,4,4,4,4,4,4,4,4,4,4,4,4,4,4,4,4,4,100,,,,,,,,,,,,,,,,,,,,,,,,,,,,,,,,,,,,,,,,,,,,,,,,,,,,,,,,,,,,,,,,,,,,,,,,,,,,,,,,,,,,,,,,,,,,,,,,,,,,,,,,,,,,,,,,,,,,,,,,,,,,,,,,,,,,,,,,,,,,,,,,,,,,,,,,,,,,,,,,,,,,,,,,,,,,,,,,,,,,,,,,,,,,,,,,,,,,,,,,,,,,,,
1764668945.916096,12057,0,4383.974121,4393.717773,4496.666504,4551.666504,4391.410156,4520.769043,4547.05127,4391.538574,4572.563965,4378.077148,4504.615234,4518.077148,4573.974121,4390.384766,4373.846191,4505.641113,4548.974121,4537.563965,4515,4385.256348,4387.307617,4558.846191,4518.717773,4482.692383,4355.769043,4546.538574,4370.769043,4544.743652,4503.974121,4370.128418,4510.769043,4463.077148,2865,0,6,2304,21197,,,,0,4,4,4,4,4,4,4,4,4,4,4,4,4,4,4,4,4,4,4,4,4,4,4,4,4,4,4,4,4,4,4,4,100,,,,,,,,,,,,,,,,,,,,,,,,,,,,,,,,,,,3014,0,0.611986,-0.337524,-0.346313,0.625793,1.004517,-0.001465,-0.020999,18.666666,41,-19.166666,,,,,,,,,,,,,,,,,,,,,,,,,,,,,,,,,,,,,,,,,,,,,,,,,,,,,,,,,,,,,,,,,,,,,,,,,,,,,,,,,,,,,,,,,,,,,,,,,,,,,,,,,,,,,,,,,,,,,,,,,,,,,,,,,,,,,,,,,,,,,,,,,,,,,,,,,,,,,,,,
