Timestamp,EEG.Counter,EEG.Interpolated,EEG.Cz,EEG.Fz,EEG.Fp1,EEG.F7,EEG.F3,EEG.FC1,EEG.C3,EEG.FC5,EEG.FT9,EEG.T7,EEG.CP5,EEG.CP1,EEG.P3,EEG.P7,EEG.PO9,EEG.O1,EEG.Pz,EEG.Oz,EEG.O2,EEG.PO10,EEG.P8,EEG.P4,EEG.CP2,EEG.CP6,EEG.T8,EEG.FT10,EEG.FC6,EEG.C4,EEG.FC2,EEG.F4,EEG.F8,EEG.Fp2,EEG.RawCq,EEG.Battery,EEG.BatteryPercent,EEG.FwBufferSize,EEG.FwClockTime,MarkerIndex,MarkerType,MarkerValueInt,EEG.MarkerHardware,CQ.Cz,CQ.Fz,CQ.Fp1,CQ.F7,CQ.F3,CQ.FC1,CQ.C3,CQ.FC5,CQ.FT9,CQ.T7,CQ.CP5,CQ.CP1,CQ.P3,CQ.P7,CQ.PO9,CQ.O1,CQ.Pz,CQ.Oz,CQ.O2,CQ.PO10,CQ.P8,CQ.P4,CQ.CP2,CQ.CP6,CQ.T8,CQ.FT10,CQ.FC6,CQ.C4,CQ.FC2,CQ.F4,CQ.F8,CQ.Fp2,CQ.Overall,EQ.SampleRateQuality,EQ.OVERALL,EQ.Cz,EQ.Fz,EQ.Fp1,EQ.F7,EQ.F3,EQ.FC1,EQ.C3,EQ.FC5,EQ.FT9,EQ.T7,EQ.CP5,EQ.CP1,EQ.P3,EQ.P7,EQ.PO9,EQ.O1,EQ.Pz,EQ.Oz,EQ.O2,EQ.PO10,EQ.P8,EQ.P4,EQ.CP2,EQ.CP6,EQ.T8,EQ.FT10,EQ.FC6,EQ.C4,EQ.FC2,EQ.F4,EQ.F8,EQ.Fp2,MOT.CounterMems,MOT.InterpolatedMems,MOT.Q0,MOT.Q1,MOT.Q2,MOT.Q3,MOT.AccX,MOT.AccY,MOT.AccZ,MOT.MagX,MOT.MagY,MOT.MagZ,POW.Cz.Theta,POW.Cz.Alpha,POW.Cz.BetaL,POW.Cz.BetaH,POW.Cz.Gamma,POW.Fz.Theta,POW.Fz.Alpha,POW.Fz.BetaL,POW.Fz.BetaH,POW.Fz.Gamma,POW.Fp1.Theta,POW.Fp1.Alpha,POW.Fp1.BetaL,POW.Fp1.BetaH,POW.Fp1.Gamma,POW.F7.Theta,POW.F7.Alpha,POW.F7.BetaL,POW.F7.BetaH,POW.F7.Gamma,POW.F3.Theta,POW.F3.Alpha,POW.F3.BetaL,POW.F3.BetaH,POW.F3.Gamma,POW.FC1.Theta,POW.FC1.Alpha,POW.FC1.BetaL,POW.FC1.BetaH,POW.FC1.Gamma,POW.C3.Theta,POW.C3.Alpha,POW.C3.BetaL,POW.C3.BetaH,POW.C3.Gamma,POW.FC5.Theta,POW.FC5.Alpha,POW.FC5.BetaL,POW.FC5.BetaH,POW.FC5.Gamma,POW.FT9.Theta,POW.FT9.Alpha,POW.FT9.BetaL,POW.FT9.BetaH,POW.FT9.Gamma,POW.T7.Theta,POW.T7.Alpha,POW.T7.BetaL,POW.T7.BetaH,POW.T7.Gamma,POW.CP5.Theta,POW.CP5.Alpha,POW.CP5.BetaL,POW.CP5.BetaH,POW.CP5.Gamma,POW.CP1.Theta,POW.CP1.Alpha,POW.CP1.BetaL,POW.CP1.BetaH,POW.CP1.Gamma,POW.P3.Theta,POW.P3.Alpha,POW.P3.BetaL,POW.P3.BetaH,POW.P3.Gamma,POW.P7.Theta,POW.P7.Alpha,POW.P7.BetaL,POW.P7.BetaH,POW.P7.Gamma,POW.PO9.Theta,POW.PO9.Alpha,POW.PO9.BetaL,POW.PO9.BetaH,POW.PO9.Gamma,POW.O1.Theta,POW.O1.Alpha,POW.O1.BetaL,POW.O1.BetaH,POW.O1.Gamma,POW.Pz.Theta,POW.Pz.Alpha,POW.Pz.BetaL,POW.Pz.BetaH,POW.Pz.Gamma,POW.Oz.Theta,POW.Oz.Alpha,POW.Oz.BetaL,POW.Oz.BetaH,POW.Oz.Gamma,POW.O2.Theta,POW.O2.Alpha,POW.O2.BetaL,POW.O2.BetaH,POW.O2.Gamma,POW.PO10.Theta,POW.PO10.Alpha,POW.PO10.BetaL,POW.PO10.BetaH,POW.PO10.Gamma,POW.P8.Theta,POW.P8.Alpha,POW.P8.BetaL,POW.P8.BetaH,POW.P8.Gamma,POW.P4.Theta,POW.P4.Alpha,POW.P4.BetaL,POW.P4.BetaH,POW.P4.Gamma,POW.CP2.Theta,POW.CP2.Alpha,POW.CP2.BetaL,POW.CP2.BetaH,POW.CP2.Gamma,POW.CP6.Theta,POW.CP6.Alpha,POW.CP6.BetaL,POW.CP6.BetaH,POW.CP6.Gamma,POW.T8.Theta,POW.T8.Alpha,POW.T8.BetaL,POW.T8.BetaH,POW.T8.Gamma,POW.FT10.Theta,POW.FT10.Alpha,POW.FT10.BetaL,POW.FT10.BetaH,POW.FT10.Gamma,POW.FC6.Theta,POW.FC6.Alpha,POW.FC6.BetaL,POW.FC6.BetaH,POW.FC6.Gamma,POW.C4.Theta,POW.C4.Alpha,POW.C4.BetaL,POW.C4.BetaH,POW.C4.Gamma,POW.FC2.Theta,POW.FC2.Alpha,POW.FC2.BetaL,POW.FC2.BetaH,POW.FC2.Gamma,POW.F4.Theta,POW.F4.Alpha,POW.F4.BetaL,POW.F4.BetaH,POW.F4.Gamma,POW.F8.Theta,POW.F8.Alpha,POW.F8.BetaL,POW.F8.BetaH,POW.F8.Gamma,POW.Fp2.Theta,POW.Fp2.Alpha,POW.Fp2.BetaL,POW.Fp2.BetaH,POW.Fp2.Gamma
1763976010.5003,21772.0,0.0,4331.153809,4353.333496,4431.282227,4551.666504,4379.230957,4497.307617,4511.538574,4431.282227,4562.820313,4349.871582,4465.384766,4472.820313,4510.128418,4332.05127,4310.128418,4446.922852,4509.102539,4497.820313,4489.871582,4386.666504,4323.846191,4528.717773,4488.205078,4484.871582,4339.102539,4566.666504,4358.974121,4534.102539,4478.205078,4372.563965,4459.358887,4434.358887,2999.0,0.0,11.0,2304.0,26926.0,1.0,1.0,7.0,0.0,4.0,4.0,4.0,4.0,4.0,4.0,4.0,4.0,4.0,4.0,4.0,4.0,4.0,4.0,4.0,4.0,4.0,4.0,4.0,4.0,4.0,4.0,4.0,4.0,4.0,4.0,4.0,4.0,4.0,4.0,4.0,4.0,100.0,,,,,,,,,,,,,,,,,,,,,,,,,,,,,,,,,,,,,,,,,,,,,,,,,,,,,,,,,,,,,,,,,,,,,,,,,,,,,,,,,,,,,,,,,,,,,,,,,,,,,,,,,,,,,,,,,,,,,,,,,,,,,,,,,,,,,,,,,,,,,,,,,,,,,,,,,,,,,,,,,,,,,,,,,,,,,,,,,,,,,,,,,,,,,,,,,,,,,,,,,,,,,,
1763976010.504206,21773.0,0.0,4329.743652,4352.820313,4427.436035,4528.205078,4385.384766,4499.230957,4506.153809,4427.563965,4552.436035,4331.922852,4441.153809,4467.820313,4494.743652,4332.05127,4323.461426,4466.153809,4503.205078,4502.563965,4501.025879,4389.358887,4346.410156,4523.974121,4481.025879,4469.358887,4360.256348,4589.487305,4359.358887,4524.358887,4480.384766,4388.717773,4471.153809,4451.666504,2625.0,0.0,11.0,2304.0,26926.0,,,,0.0,4.0,4.0,4.0,4.0,4.0,4.0,4.0,4.0,4.0,4.0,4.0,4.0,4.0,4.0,4.0,4.0,4.0,4.0,4.0,4.0,4.0,4.0,4.0,4.0,4.0,4.0,4.0,4.0,4.0,4.0,4.0,4.0,100.0,,,,,,,,,,,,,,,,,,,,,,,,,,,,,,,,,,,5443.0,0.0,0.253706,0.803467,0.516174,0.153748,0.872177,-0.350629,-0.117202,26.333334,-19.666666,39.333332,,,,,,,,,,,,,,,,,,,,,,,,,,,,,,,,,,,,,,,,,,,,,,,,,,,,,,,,,,,,,,,,,,,,,,,,,,,,,,,,,,,,,,,,,,,,,,,,,,,,,,,,,,,,,,,,,,,,,,,,,,,,,,,,,,,,,,,,,,,,,,,,,,,,,,,,,,,,,,,,
1763976010.508112,21774.0,0.0,4334.358887,4358.333496,4437.05127,4519.615234,4394.871582,4506.410156,4514.102539,4430.897461,4562.307617,4355.256348,4444.230957,4473.205078,4499.487305,4338.974121,4336.410156,4482.307617,4505.128418,4509.871582,4512.05127,4395.256348,4371.410156,4530.128418,4480.641113,4457.307617,4376.666504,4597.94873,4369.102539,4518.717773,4485.256348,4403.589844,4479.743652,4474.487305,2747.0,0.0,11.0,2560.0,26934.0,,,,0.0,4.0,4.0,4.0,4.0,4.0,4.0,4.0,4.0,4.0,4.0,4.0,4.0,4.0,4.0,4.0,4.0,4.0,4.0,4.0,4.0,4.0,4.0,4.0,4.0,4.0,4.0,4.0,4.0,4.0,4.0,4.0,4.0,100.0,,,,,,,,,,,,,,,,,,,,,,,,,,,,,,,,,,,,,,,,,,,,,,,,,,,,,,,,,,,,,,,,,,,,,,,,,,,,,,,,,,,,,,,,,,,,,,,,,,,,,,,,,,,,,,,,,,,,,,,,,,,,,,,,,,,,,,,,,,,,,,,,,,,,,,,,,,,,,,,,,,,,,,,,,,,,,,,,,,,,,,,,,,,,,,,,,,,,,,,,,,,,,,
1763976010.512018,21775.0,0.0,4337.436035,4363.077148,4447.05127,4523.974121,4398.205078,4511.538574,4524.358887,4433.974121,4579.230957,4401.538574,4466.025879,4480.512695,4515.0,4344.487305,4339.743652,4485.128418,4507.307617,4510.641113,4510.641113,4395.384766,4380.256348,4536.410156,4480.384766,4451.410156,4372.692383,4591.153809,4380.512695,4516.538574,4486.282227,4406.025879,4478.717773,4488.077148,2921.0,0.0,11.0,2560.0,26934.0,,,,0.0,4.0,4.0,4.0,4.0,4.0,4.0,4.0,4.0,4.0,4.0,4.0,4.0,4.0,4.0,4.0,4.0,4.0,4.0,4.0,4.0,4.0,4.0,4.0,4.0,4.0,4.0,4.0,4.0,4.0,4.0,4.0,4.0,100.0,,,,,,,,,,,,,,,,,,,,,,,,,,,,,,,,,,,,,,,,,,,,,,,,,,,,,,,,,,,,,,,,,,,,,,,,,,,,,,,,,,,,,,,,,,,,,,,,,,,,,,,,,,,,,,,,,,,,,,,,,,,,,,,,,,,,,,,,,,,,,,,,,,,,,,,,,,,,,,,,,,,,,,,,,,,,,,,,,,,,,,,,,,,,,,,,,,,,,,,,,,,,,,
1763976010.515924,21776.0,0.0,4332.563965,4361.153809,4443.461426,4529.358887,4390.641113,4508.461426,4523.846191,4428.077148,4584.102539,4438.846191,4483.333496,4479.230957,4523.333496,4339.102539,4328.205078,4471.025879,4500.897461,4498.333496,4492.05127,4383.333496,4367.692383,4531.794922,4473.461426,4450.0,4350.641113,4577.94873,4380.512695,4515.897461,4480.641113,4393.205078,4467.563965,4483.333496,2977.0,0.0,11.0,2560.0,26942.0,,,,0.0,4.0,4.0,4.0,4.0,4.0,4.0,4.0,4.0,4.0,4.0,4.0,4.0,4.0,4.0,4.0,4.0,4.0,4.0,4.0,4.0,4.0,4.0,4.0,4.0,4.0,4.0,4.0,4.0,4.0,4.0,4.0,4.0,100.0,,,,,,,,,,,,,,,,,,,,,,,,,,,,,,,,,,,,,,,,,,,,,,,,,,,,,,,,,,,,,,,,,,,,,,,,,,,,,,,,,,,,,,,,,,,,,,,,,,,,,,,,,,,,,,,,,,,,,,,,,,,,,,,,,,,,,,,,,,,,,,,,,,,,,,,,,,,,,,,,,,,,,,,,,,,,,,,,,,,,,,,,,,,,,,,,,,,,,,,,,,,,,,
1763976010.51983,21777.0,0.0,4322.563965,4355.0,4426.922852,4530.256348,4377.692383,4500.0,4513.077148,4415.0,4573.205078,4449.358887,4482.820313,4469.487305,4518.205078,4324.615234,4308.846191,4449.871582,4486.666504,4479.615234,4468.717773,4363.589844,4350.128418,4517.436035,4462.436035,4452.307617,4334.102539,4572.563965,4364.487305,4516.794922,4473.846191,4375.128418,4453.333496,4466.410156,3095.0,0.0,11.0,2560.0,26942.0,,,,0.0,4.0,4.0,4.0,4.0,4.0,4.0,4.0,4.0,4.0,4.0,4.0,4.0,4.0,4.0,4.0,4.0,4.0,4.0,4.0,4.0,4.0,4.0,4.0,4.0,4.0,4.0,4.0,4.0,4.0,4.0,4.0,4.0,100.0,,,,,,,,,,,,,,,,,,,,,,,,,,,,,,,,,,,5444.0,0.0,0.245535,0.804199,0.519104,0.15332,0.872177,-0.350629,-0.117202,26.333334,-19.666666,39.333332,,,,,,,,,,,,,,,,,,,,,,,,,,,,,,,,,,,,,,,,,,,,,,,,,,,,,,,,,,,,,,,,,,,,,,,,,,,,,,,,,,,,,,,,,,,,,,,,,,,,,,,,,,,,,,,,,,,,,,,,,,,,,,,,,,,,,,,,,,,,,,,,,,,,,,,,,,,,,,,,
1763976010.523736,21778.0,0.0,4317.94873,4352.307617,4411.410156,4532.820313,4370.256348,4495.256348,4505.512695,4406.538574,4563.333496,4438.846191,4472.692383,4462.179688,4510.897461,4316.410156,4297.307617,4439.230957,4476.025879,4470.128418,4460.769043,4349.615234,4349.871582,4506.794922,4457.820313,4459.615234,4345.897461,4584.615234,4341.922852,4521.282227,4474.743652,4367.05127,4445.641113,4453.461426,2839.0,0.0,11.0,2561.0,26949.0,,,,0.0,4.0,4.0,4.0,4.0,4.0,4.0,4.0,4.0,4.0,4.0,4.0,4.0,4.0,4.0,4.0,4.0,4.0,4.0,4.0,4.0,4.0,4.0,4.0,4.0,4.0,4.0,4.0,4.0,4.0,4.0,4.0,4.0,100.0,,,,,,,,,,,,,,,,,,,,,,,,,,,,,,,,,,,,,,,,,,,,,,,,,,,,,,,,,,,,,,,,,,,,,,,,,,,,,,,,,,,,,,,,,,,,,,,,,,,,,,,,,,,,,,,,,,,,,,,,,,,,,,,,,,,,,,,,,,,,,,,,,,,,,,,,,,,,,,,,,,,,,,,,,,,,,,,,,,,,,,,,,,,,,,,,,,,,,,,,,,,,,,
1763976010.527642,21779.0,0.0,4326.282227,4357.563965,4407.307617,4542.179688,4374.615234,4500.0,4512.692383,4410.0,4573.846191,4424.230957,4470.897461,4467.563965,4516.153809,4328.205078,4303.333496,4447.436035,4478.846191,4478.461426,4476.666504,4350.384766,4371.025879,4511.666504,4466.282227,4471.794922,4381.153809,4610.512695,4327.563965,4529.487305,4486.410156,4375.256348,4447.436035,4455.512695,3008.0,0.0,11.0,2561.0,26949.0,,,,0.0,4.0,4.0,4.0,4.0,4.0,4.0,4.0,4.0,4.0,4.0,4.0,4.0,4.0,4.0,4.0,4.0,4.0,4.0,4.0,4.0,4.0,4.0,4.0,4.0,4.0,4.0,4.0,4.0,4.0,4.0,4.0,4.0,100.0,,,,,,,,,,,,,,,,,,,,,,,,,,,,,,,,,,,,,,,,,,,,,,,,,,,,,,,,,,,,,,,,,,,,,,,,,,,,,,,,,,,,,,,,,,,,,,,,,,,,,,,,,,,,,,,,,,,,,,,,,,,,,,,,,,,,,,,,,,,,,,,,,,,,,,,,,,,,,,,,,,,,,,,,,,,,,,,,,,,,,,,,,,,,,,,,,,,,,,,,,,,,,,
1763976010.531548,21780.0,0.0,4343.589844,4366.410156,4411.666504,4551.025879,4386.025879,4510.769043,4531.282227,4417.820313,4607.179688,4414.487305,4484.743652,4483.974121,4535.512695,4357.307617,4320.384766,4465.0,4493.461426,4496.922852,4503.717773,4362.307617,4391.666504,4530.384766,4482.820313,4485.641113,4408.461426,4635.384766,4327.563965,4538.205078,4501.282227,4389.871582,4451.922852,4468.077148,3027.0,0.0,11.0,1792.0,26957.0,,,,0.0,4.0,4.0,4.0,4.0,4.0,4.0,4.0,4.0,4.0,4.0,4.0,4.0,4.0,4.0,4.0,4.0,4.0,4.0,4.0,4.0,4.0,4.0,4.0,4.0,4.0,4.0,4.0,4.0,4.0,4.0,4.0,4.0,100.0,,,,,,,,,,,,,,,,,,,,,,,,,,,,,,,,,,,,,,,,,,,,,,,,,,,,,,,,,,,,,,,,,,,,,,,,,,,,,,,,,,,,,,,,,,,,,,,,,,,,,,,,,,,,,,,,,,,,,,,,,,,,,,,,,,,,,,,,,,,,,,,,,,,,,,,,,,,,,,,,,,,,,,,,,,,,,,,,,,,,,,,,,,,,,,,,,,,,,,,,,,,,,,
1763976010.535454,21781.0,0.0,4357.179688,4369.102539,4412.820313,4544.615234,4393.589844,4517.179688,4545.641113,4414.102539,4644.487305,4405.384766,4502.436035,4498.077148,4553.846191,4384.743652,4331.025879,4473.846191,4507.05127,4507.94873,4518.333496,4370.897461,4383.974121,4547.820313,4494.487305,4494.615234,4398.077148,4645.128418,4335.512695,4542.307617,4506.538574,4394.102539,4449.743652,4477.692383,2929.0,0.0,11.0,1792.0,26957.0,,,,0.0,4.0,4.0,4.0,4.0,4.0,4.0,4.0,4.0,4.0,4.0,4.0,4.0,4.0,4.0,4.0,4.0,4.0,4.0,4.0,4.0,4.0,4.0,4.0,4.0,4.0,4.0,4.0,4.0,4.0,4.0,4.0,4.0,100.0,,,,,,,,,,,,,,,,,,,,,,,,,,,,,,,,,,,5445.0,0.0,0.239162,0.80426,0.522156,0.15271,0.913197,-0.348187,0.006348,26.166666,-17.833334,41.166668,,,,,,,,,,,,,,,,,,,,,,,,,,,,,,,,,,,,,,,,,,,,,,,,,,,,,,,,,,,,,,,,,,,,,,,,,,,,,,,,,,,,,,,,,,,,,,,,,,,,,,,,,,,,,,,,,,,,,,,,,,,,,,,,,,,,,,,,,,,,,,,,,,,,,,,,,,,,,,,,
1763976010.53936,21782.0,0.0,4355.384766,4358.974121,4402.692383,4515.512695,4388.846191,4511.282227,4541.410156,4389.487305,4660.769043,4386.282227,4503.846191,4496.410156,4553.077148,4389.615234,4322.05127,4463.077148,4506.410156,4498.717773,4505.641113,4363.333496,4339.487305,4547.179688,4490.384766,4491.666504,4348.077148,4637.820313,4340.897461,4538.846191,4494.743652,4379.230957,4438.333496,4474.102539,3018.0,0.0,11.0,1792.0,26965.0,,,,0.0,4.0,4.0,4.0,4.0,4.0,4.0,4.0,4.0,4.0,4.0,4.0,4.0,4.0,4.0,4.0,4.0,4.0,4.0,4.0,4.0,4.0,4.0,4.0,4.0,4.0,4.0,4.0,4.0,4.0,4.0,4.0,4.0,100.0,,,,,,,,,,,,,,,,,,,,,,,,,,,,,,,,,,,,,,,,,,,,,,,,,,,,,,,,,,,,,,,,,,,,,,,,,,,,,,,,,,,,,,,,,,,,,,,,,,,,,,,,,,,,,,,,,,,,,,,,,,,,,,,,,,,,,,,,,,,,,,,,,,,,,,,,,,,,,,,,,,,,,,,,,,,,,,,,,,,,,,,,,,,,,,,,,,,,,,,,,,,,,,
1763976010.543266,21783.0,0.0,4336.538574,4337.436035,4382.94873,4474.230957,4370.897461,4492.94873,4516.666504,4352.94873,4646.153809,4354.615234,4479.871582,4476.282227,4528.205078,4365.256348,4296.410156,4438.717773,4488.333496,4471.794922,4471.025879,4338.846191,4279.102539,4524.230957,4469.871582,4473.077148,4287.94873,4623.974121,4337.820313,4528.461426,4468.974121,4352.307617,4423.974121,4459.230957,2960.0,0.0,11.0,1792.0,26965.0,,,,0.0,4.0,4.0,4.0,4.0,4.0,4.0,4.0,4.0,4.0,4.0,4.0,4.0,4.0,4.0,4.0,4.0,4.0,4.0,4.0,4.0,4.0,4.0,4.0,4.0,4.0,4.0,4.0,4.0,4.0,4.0,4.0,4.0,100.0,,,,,,,,,,,,,,,,,,,,,,,,,,,,,,,,,,,,,,,,,,,,,,,,,,,,,,,,,,,,,,,,,,,,,,,,,,,,,,,,,,,,,,,,,,,,,,,,,,,,,,,,,,,,,,,,,,,,,,,,,,,,,,,,,,,,,,,,,,,,,,,,,,,,,,,,,,,,,,,,,,,,,,,,,,,,,,,,,,,,,,,,,,,,,,,,,,,,,,,,,,,,,,
1763976010.547172,21784.0,0.0,4310.512695,4314.615234,4363.717773,4445.128418,4346.922852,4471.666504,4483.077148,4327.94873,4617.820313,4321.922852,4441.282227,4448.205078,4492.94873,4327.05127,4272.563965,4418.717773,4463.333496,4444.487305,4437.436035,4311.282227,4239.230957,4491.410156,4443.333496,4444.871582,4259.230957,4618.846191,4328.974121,4513.589844,4441.538574,4331.153809,4416.282227,4445.897461,2887.0,0.0,11.0,2048.0,26973.0,,,,0.0,4.0,4.0,4.0,4.0,4.0,4.0,4.0,4.0,4.0,4.0,4.0,4.0,4.0,4.0,4.0,4.0,4.0,4.0,4.0,4.0,4.0,4.0,4.0,4.0,4.0,4.0,4.0,4.0,4.0,4.0,4.0,4.0,100.0,,,,,,,,,,,,,,,,,,,,,,,,,,,,,,,,,,,,,,,,,,,,,,,,,,,,,,,,,,,,,,,,,,,,,,,,,,,,,,,,,,,,,,,,,,,,,,,,,,,,,,,,,,,,,,,,,,,,,,,,,,,,,,,,,,,,,,,,,,,,,,,,,,,,,,,,,,,,,,,,,,,,,,,,,,,,,,,,,,,,,,,,,,,,,,,,,,,,,,,,,,,,,,
1763976010.551078,21785.0,0.0,4291.922852,4302.436035,4356.025879,4449.230957,4328.205078,4459.102539,4457.179688,4333.846191,4608.205078,4308.589844,4410.641113,4428.461426,4469.487305,4301.794922,4271.153809,4420.0,4448.077148,4436.666504,4429.487305,4299.743652,4245.128418,4469.615234,4425.128418,4420.769043,4285.641113,4631.410156,4320.256348,4498.333496,4425.256348,4328.717773,4420.769043,4446.666504,2889.0,0.0,11.0,2048.0,26973.0,,,,0.0,4.0,4.0,4.0,4.0,4.0,4.0,4.0,4.0,4.0,4.0,4.0,4.0,4.0,4.0,4.0,4.0,4.0,4.0,4.0,4.0,4.0,4.0,4.0,4.0,4.0,4.0,4.0,4.0,4.0,4.0,4.0,4.0,100.0,,,,,,,,,,,,,,,,,,,,,,,,,,,,,,,,,,,5446.0,0.0,0.234982,0.803955,0.524536,0.152649,0.948358,-0.325723,0.045904,26.333334,-18.0,41.0,,,,,,,,,,,,,,,,,,,,,,,,,,,,,,,,,,,,,,,,,,,,,,,,,,,,,,,,,,,,,,,,,,,,,,,,,,,,,,,,,,,,,,,,,,,,,,,,,,,,,,,,,,,,,,,,,,,,,,,,,,,,,,,,,,,,,,,,,,,,,,,,,,,,,,,,,,,,,,,,
1763976010.554984,21786.0,0.0,4289.487305,4305.0,4362.692383,4484.358887,4322.307617,4461.282227,4448.589844,4368.846191,4636.025879,4326.282227,4402.94873,4426.282227,4469.615234,4306.153809,4296.794922,4443.974121,4452.563965,4454.871582,4453.461426,4312.820313,4291.666504,4471.666504,4423.461426,4412.436035,4351.153809,4657.436035,4315.256348,4486.666504,4425.256348,4343.461426,4434.358887,4462.692383,2815.0,0.0,11.0,2304.0,26981.0,,,,0.0,4.0,4.0,4.0,4.0,4.0,4.0,4.0,4.0,4.0,4.0,4.0,4.0,4.0,4.0,4.0,4.0,4.0,4.0,4.0,4.0,4.0,4.0,4.0,4.0,4.0,4.0,4.0,4.0,4.0,4.0,4.0,4.0,100.0,,,,,,,,,,,,,,,,,,,,,,,,,,,,,,,,,,,,,,,,,,,,,,,,,,,,,,,,,,,,,,,,,,,,,,,,,,,,,,,,,,,,,,,,,,,,,,,,,,,,,,,,,,,,,,,,,,,,,,,,,,,,,,,,,,,,,,,,,,,,,,,,,,,,,,,,,,,,,,,,,,,,,,,,,,,,,,,,,,,,,,,,,,,,,,,,,,,,,,,,,,,,,,
1763976010.55889,21787.0,0.0,4300.256348,4315.769043,4376.025879,4524.743652,4328.974121,4473.589844,4454.487305,4409.615234,4687.94873,4365.641113,4416.025879,4437.820313,4486.666504,4332.94873,4332.436035,4473.974121,4471.794922,4486.153809,4492.307617,4341.282227,4347.563965,4492.820313,4434.487305,4420.256348,4406.153809,4683.205078,4314.230957,4482.307617,4436.282227,4360.641113,4448.461426,4483.589844,3007.0,0.0,11.0,2304.0,26981.0,,,,0.0,4.0,4.0,4.0,4.0,4.0,4.0,4.0,4.0,4.0,4.0,4.0,4.0,4.0,4.0,4.0,4.0,4.0,4.0,4.0,4.0,4.0,4.0,4.0,4.0,4.0,4.0,4.0,4.0,4.0,4.0,4.0,4.0,100.0,,,,,,,,,,,,,,,,,,,,,,,,,,,,,,,,,,,,,,,,,,,,,,,,,,,,,,,,,,,,,,,,,,,,,,,,,,,,,,,,,,,,,,,,,,,,,,,,,,,,,,,,,,,,,,,,,,,,,,,,,,,,,,,,,,,,,,,,,,,,,,,,,,,,,,,,,,,,,,,,,,,,,,,,,,,,,,,,,,,,,,,,,,,,,,,,,,,,,,,,,,,,,,
1763976010.562796,21788.0,0.0,4314.615234,4324.743652,4385.641113,4542.307617,4342.692383,4486.922852,4466.153809,4430.0,4731.153809,4401.282227,4436.794922,4452.179688,4504.743652,4358.205078,4352.179688,4488.205078,4491.282227,4509.743652,4519.358887,4366.282227,4380.128418,4517.820313,4449.230957,4437.307617,4407.179688,4700.256348,4318.589844,4488.205078,4449.230957,4368.205078,4460.128418,4498.717773,2962.0,0.0,11.0,2304.0,26989.0,,,,0.0,4.0,4.0,4.0,4.0,4.0,4.0,4.0,4.0,4.0,4.0,4.0,4.0,4.0,4.0,4.0,4.0,4.0,4.0,4.0,4.0,4.0,4.0,4.0,4.0,4.0,4.0,4.0,4.0,4.0,4.0,4.0,4.0,100.0,,,,,,,,,,,,,,,,,,,,,,,,,,,,,,,,,,,,,,,,,,,,,,,,,,,,,,,,,,,,,,,,,,,,,,,,,,,,,,,,,,,,,,,,,,,,,,,,,,,,,,,,,,,,,,,,,,,,,,,,,,,,,,,,,,,,,,,,,,,,,,,,,,,,,,,,,,,,,,,,,,,,,,,,,,,,,,,,,,,,,,,,,,,,,,,,,,,,,,,,,,,,,,
1763976010.566702,21789.0,0.0,4327.692383,4330.256348,4389.743652,4531.666504,4358.846191,4497.563965,4480.641113,4423.461426,4746.153809,4412.307617,4456.410156,4464.615234,4516.282227,4364.230957,4345.897461,4481.153809,4503.333496,4516.538574,4524.102539,4377.692383,4381.153809,4536.922852,4463.974121,4458.461426,4356.410156,4716.025879,4335.512695,4507.436035,4461.410156,4369.102539,4477.94873,4508.077148,2837.0,0.0,11.0,2304.0,26989.0,,,,0.0,4.0,4.0,4.0,4.0,4.0,4.0,4.0,4.0,4.0,4.0,4.0,4.0,4.0,4.0,4.0,4.0,4.0,4.0,4.0,4.0,4.0,4.0,4.0,4.0,4.0,4.0,4.0,4.0,4.0,4.0,4.0,4.0,100.0,,,,,,,,,,,,,,,,,,,,,,,,,,,,,,,,,,,5447.0,0.0,0.234111,0.803101,0.526001,0.153442,0.936638,-0.351117,-0.003907,24.5,-17.0,41.666668,,,,,,,,,,,,,,,,,,,,,,,,,,,,,,,,,,,,,,,,,,,,,,,,,,,,,,,,,,,,,,,,,,,,,,,,,,,,,,,,,,,,,,,,,,,,,,,,,,,,,,,,,,,,,,,,,,,,,,,,,,,,,,,,,,,,,,,,,,,,,,,,,,,,,,,,,,,,,,,,
1763976010.570608,21790.0,0.0,4344.358887,4340.641113,4398.205078,4515.0,4377.563965,4511.025879,4504.102539,4409.230957,4745.384766,4399.358887,4476.922852,4481.025879,4529.230957,4356.153809,4329.358887,4469.871582,4513.717773,4518.077148,4520.512695,4383.333496,4371.282227,4553.717773,4485.0,4485.512695,4303.077148,4747.179688,4372.94873,4541.538574,4478.974121,4379.743652,4514.871582,4521.922852,3056.0,0.0,11.0,1536.0,26996.0,,,,0.0,4.0,4.0,4.0,4.0,4.0,4.0,4.0,4.0,4.0,4.0,4.0,4.0,4.0,4.0,4.0,4.0,4.0,4.0,4.0,4.0,4.0,4.0,4.0,4.0,4.0,4.0,4.0,4.0,4.0,4.0,4.0,4.0,100.0,,,,,,,,,,,,,,,,,,,,,,,,,,,,,,,,,,,,,,,,,,,,,,,,,,,,,,,,,,,,,,,,,,,,,,,,,,,,,,,,,,,,,,,,,,,,,,,,,,,,,,,,,,,,,,,,,,,,,,,,,,,,,,,,,,,,,,,,,,,,,,,,,,,,,,,,,,,,,,,,,,,,,,,,,,,,,,,,,,,,,,,,,,,,,,,,,,,,,,,,,,,,,,
1763976010.574514,21791.0,0.0,4371.666504,4365.512695,4422.94873,4523.077148,4400.769043,4533.974121,4541.538574,4414.102539,4758.717773,4385.769043,4505.0,4509.487305,4555.769043,4355.769043,4329.487305,4478.461426,4533.846191,4533.205078,4531.666504,4399.102539,4379.102539,4577.820313,4519.102539,4519.230957,4300.512695,4801.538574,4428.589844,4586.794922,4508.589844,4411.666504,4573.589844,4549.230957,2949.0,0.0,11.0,1536.0,26996.0,,,,0.0,4.0,4.0,4.0,4.0,4.0,4.0,4.0,4.0,4.0,4.0,4.0,4.0,4.0,4.0,4.0,4.0,4.0,4.0,4.0,4.0,4.0,4.0,4.0,4.0,4.0,4.0,4.0,4.0,4.0,4.0,4.0,4.0,100.0,,,,,,,,,,,,,,,,,,,,,,,,,,,,,,,,,,,,,,,,,,,,,,,,,,,,,,,,,,,,,,,,,,,,,,,,,,,,,,,,,,,,,,,,,,,,,,,,,,,,,,,,,,,,,,,,,,,,,,,,,,,,,,,,,,,,,,,,,,,,,,,,,,,,,,,,,,,,,,,,,,,,,,,,,,,,,,,,,,,,,,,,,,,,,,,,,,,,,,,,,,,,,,
1763976010.57842,21792.0,0.0,4406.410156,4401.666504,4463.974121,4567.179688,4425.0,4563.717773,4585.384766,4447.05127,4800.641113,4397.94873,4539.102539,4546.410156,4594.615234,4377.307617,4357.563965,4512.94873,4565.256348,4565.641113,4563.846191,4428.717773,4413.205078,4609.615234,4560.512695,4552.307617,4359.871582,4864.871582,4482.563965,4630.384766,4545.256348,4456.666504,4637.563965,4586.794922,2903.0,0.0,11.0,1280.0,27004.0,,,,0.0,4.0,4.0,4.0,4.0,4.0,4.0,4.0,4.0,4.0,4.0,4.0,4.0,4.0,4.0,4.0,4.0,4.0,4.0,4.0,4.0,4.0,4.0,4.0,4.0,4.0,4.0,4.0,4.0,4.0,4.0,4.0,4.0,100.0,,,,,,,,,,,,,,,,,,,,,,,,,,,,,,,,,,,,,,,,,,,,,,,,,,,,,,,,,,,,,,,,,,,,,,,,,,,,,,,,,,,,,,,,,,,,,,,,,,,,,,,,,,,,,,,,,,,,,,,,,,,,,,,,,,,,,,,,,,,,,,,,,,,,,,,,,,,,,,,,,,,,,,,,,,,,,,,,,,,,,,,,,,,,,,,,,,,,,,,,,,,,,,
1763976010.582326,21793.0,0.0,4431.538574,4431.538574,4503.589844,4626.538574,4440.641113,4585.384766,4615.512695,4487.563965,4853.077148,4438.589844,4565.0,4573.461426,4626.282227,4410.512695,4395.512695,4551.153809,4592.05127,4596.025879,4596.025879,4456.153809,4452.05127,4634.230957,4588.974121,4569.743652,4441.794922,4906.410156,4506.153809,4652.820313,4571.153809,4489.871582,4677.307617,4617.94873,2891.0,0.0,11.0,1280.0,27004.0,,,,0.0,4.0,4.0,4.0,4.0,4.0,4.0,4.0,4.0,4.0,4.0,4.0,4.0,4.0,4.0,4.0,4.0,4.0,4.0,4.0,4.0,4.0,4.0,4.0,4.0,4.0,4.0,4.0,4.0,4.0,4.0,4.0,4.0,100.0,,,,,,,,,,,,,,,,,,,,,,,,,,,,,,,,,,,5448.0,0.0,0.236624,0.801514,0.5271,0.154114,0.913686,-0.33549,-0.119644,24.0,-15.833333,41.666668,,,,,,,,,,,,,,,,,,,,,,,,,,,,,,,,,,,,,,,,,,,,,,,,,,,,,,,,,,,,,,,,,,,,,,,,,,,,,,,,,,,,,,,,,,,,,,,,,,,,,,,,,,,,,,,,,,,,,,,,,,,,,,,,,,,,,,,,,,,,,,,,,,,,,,,,,,,,,,,,
1763976010.586232,21794.0,0.0,4428.717773,4435.897461,4518.717773,4663.461426,4438.846191,4584.358887,4614.487305,4502.692383,4881.410156,4478.974121,4565.897461,4571.282227,4628.077148,4429.358887,4411.153809,4560.512695,4593.205078,4597.692383,4598.717773,4458.205078,4462.05127,4632.05127,4583.205078,4561.410156,4490.641113,4901.153809,4480.641113,4639.615234,4567.820313,4488.974121,4672.436035,4625.128418,2305.0,0.0,11.0,1536.0,27012.0,,,,0.0,4.0,4.0,4.0,4.0,4.0,4.0,4.0,4.0,4.0,4.0,4.0,4.0,4.0,4.0,4.0,4.0,4.0,4.0,4.0,4.0,4.0,4.0,4.0,4.0,4.0,4.0,4.0,4.0,4.0,4.0,4.0,4.0,100.0,,,,,,,,,,,,,,,,,,,,,,,,,,,,,,,,,,,,,,,,,,,,,,,,,,,,,,,,,,,,,,,,,,,,,,,,,,,,,,,,,,,,,,,,,,,,,,,,,,,,,,,,,,,,,,,,,,,,,,,,,,,,,,,,,,,,,,,,,,,,,,,,,,,,,,,,,,,,,,,,,,,,,,,,,,,,,,,,,,,,,,,,,,,,,,,,,,,,,,,,,,,,,,
1763976010.590138,21795.0,0.0,4395.641113,4410.256348,4499.615234,4653.846191,4420.384766,4559.487305,4583.461426,4477.563965,4867.563965,4482.436035,4537.94873,4537.05127,4594.358887,4417.05127,4388.461426,4529.487305,4561.538574,4563.461426,4563.589844,4426.666504,4428.846191,4597.307617,4541.025879,4532.563965,4478.846191,4850.897461,4414.743652,4593.717773,4533.846191,4452.692383,4628.461426,4604.871582,3035.0,0.0,11.0,1536.0,27012.0,,,,0.0,4.0,4.0,4.0,4.0,4.0,4.0,4.0,4.0,4.0,4.0,4.0,4.0,4.0,4.0,4.0,4.0,4.0,4.0,4.0,4.0,4.0,4.0,4.0,4.0,4.0,4.0,4.0,4.0,4.0,4.0,4.0,4.0,100.0,,,,,,,,,,,,,,,,,,,,,,,,,,,,,,,,,,,,,,,,,,,,,,,,,,,,,,,,,,,,,,,,,,,,,,,,,,,,,,,,,,,,,,,,,,,,,,,,,,,,,,,,,,,,,,,,,,,,,,,,,,,,,,,,,,,,,,,,,,,,,,,,,,,,,,,,,,,,,,,,,,,,,,,,,,,,,,,,,,,,,,,,,,,,,,,,,,,,,,,,,,,,,,
1763976010.594044,21796.0,0.0,4350.769043,4370.384766,4458.717773,4607.179688,4396.282227,4525.641113,4541.666504,4428.589844,4826.794922,4438.589844,4494.487305,4489.487305,4544.358887,4382.05127,4342.820313,4479.487305,4513.077148,4515.0,4514.358887,4377.820313,4371.538574,4546.666504,4484.871582,4501.666504,4423.589844,4786.922852,4343.333496,4537.563965,4488.846191,4403.589844,4576.153809,4571.922852,2843.0,0.0,11.0,1792.0,27020.0,,,,0.0,4.0,4.0,4.0,4.0,4.0,4.0,4.0,4.0,4.0,4.0,4.0,4.0,4.0,4.0,4.0,4.0,4.0,4.0,4.0,4.0,4.0,4.0,4.0,4.0,4.0,4.0,4.0,4.0,4.0,4.0,4.0,4.0,100.0,,,,,,,,,,,,,,,,,,,,,,,,,,,,,,,,,,,,,,,,,,,,,,,,,,,,,,,,,,,,,,,,,,,,,,,,,,,,,,,,,,,,,,,,,,,,,,,,,,,,,,,,,,,,,,,,,,,,,,,,,,,,,,,,,,,,,,,,,,,,,,,,,,,,,,,,,,,,,,,,,,,,,,,,,,,,,,,,,,,,,,,,,,,,,,,,,,,,,,,,,,,,,,
1763976010.59795,21797.0,0.0,4320.256348,4340.512695,4421.666504,4559.358887,4379.871582,4502.820313,4512.05127,4390.384766,4795.512695,4375.256348,4458.077148,4455.384766,4507.05127,4350.256348,4307.179688,4446.666504,4475.512695,4484.487305,4486.922852,4340.0,4326.922852,4508.717773,4446.922852,4486.666504,4366.666504,4750.512695,4306.153809,4501.025879,4459.358887,4372.307617,4551.282227,4548.589844,2407.0,0.0,11.0,1792.0,27020.0,,,,0.0,4.0,4.0,4.0,4.0,4.0,4.0,4.0,4.0,4.0,4.0,4.0,4.0,4.0,4.0,4.0,4.0,4.0,4.0,4.0,4.0,4.0,4.0,4.0,4.0,4.0,4.0,4.0,4.0,4.0,4.0,4.0,4.0,100.0,,,,,,,,,,,,,,,,,,,,,,,,,,,,,,,,,,,5449.0,0.0,0.240754,0.799805,0.527771,0.154297,0.941521,-0.31205,-0.151386,25.5,-15.333333,41.833332,,,,,,,,,,,,,,,,,,,,,,,,,,,,,,,,,,,,,,,,,,,,,,,,,,,,,,,,,,,,,,,,,,,,,,,,,,,,,,,,,,,,,,,,,,,,,,,,,,,,,,,,,,,,,,,,,,,,,,,,,,,,,,,,,,,,,,,,,,,,,,,,,,,,,,,,,,,,,,,,
1763976010.601856,21798.0,0.0,4320.384766,4336.922852,4410.512695,4542.820313,4378.461426,4502.563965,4506.538574,4388.077148,4801.538574,4336.282227,4447.436035,4451.282227,4501.794922,4340.128418,4304.102539,4450.256348,4468.717773,4489.230957,4498.077148,4332.05127,4318.717773,4504.358887,4447.692383,4493.333496,4340.897461,4764.230957,4320.769043,4503.589844,4461.410156,4377.436035,4571.025879,4549.615234,3034.0,0.0,11.0,2048.0,27028.0,,,,0.0,4.0,4.0,4.0,4.0,4.0,4.0,4.0,4.0,4.0,4.0,4.0,4.0,4.0,4.0,4.0,4.0,4.0,4.0,4.0,4.0,4.0,4.0,4.0,4.0,4.0,4.0,4.0,4.0,4.0,4.0,4.0,4.0,100.0,,,,,,,,,,,,,,,,,,,,,,,,,,,,,,,,,,,,,,,,,,,,,,,,,,,,,,,,,,,,,,,,,,,,,,,,,,,,,,,,,,,,,,,,,,,,,,,,,,,,,,,,,,,,,,,,,,,,,,,,,,,,,,,,,,,,,,,,,,,,,,,,,,,,,,,,,,,,,,,,,,,,,,,,,,,,,,,,,,,,,,,,,,,,,,,,,,,,,,,,,,,,,,
1763976010.605762,21799.0,0.0,4347.94873,4358.846191,4430.0,4563.717773,4391.666504,4522.563965,4523.717773,4421.153809,4844.102539,4346.410156,4468.974121,4475.512695,4527.563965,4348.461426,4329.743652,4479.102539,4492.05127,4519.358887,4533.077148,4351.538574,4341.538574,4532.05127,4482.307617,4513.205078,4352.307617,4816.410156,4370.0,4541.794922,4490.641113,4413.589844,4622.692383,4573.589844,3008.0,0.0,11.0,2048.0,27028.0,,,,0.0,4.0,4.0,4.0,4.0,4.0,4.0,4.0,4.0,4.0,4.0,4.0,4.0,4.0,4.0,4.0,4.0,4.0,4.0,4.0,4.0,4.0,4.0,4.0,4.0,4.0,4.0,4.0,4.0,4.0,4.0,4.0,4.0,100.0,,,,,,,,,,,,,,,,,,,,,,,,,,,,,,,,,,,,,,,,,,,,,,,,,,,,,,,,,,,,,,,,,,,,,,,,,,,,,,,,,,,,,,,,,,,,,,,,,,,,,,,,,,,,,,,,,,,,,,,,,,,,,,,,,,,,,,,,,,,,,,,,,,,,,,,,,,,,,,,,,,,,,,,,,,,,,,,,,,,,,,,,,,,,,,,,,,,,,,,,,,,,,,
1763976010.609668,21800.0,0.0,4384.358887,4391.025879,4466.794922,4601.794922,4412.692383,4549.487305,4552.692383,4465.769043,4897.05127,4394.871582,4513.589844,4511.410156,4566.282227,4355.512695,4361.153809,4504.230957,4526.538574,4548.974121,4559.487305,4380.256348,4370.384766,4570.256348,4526.282227,4531.922852,4382.563965,4870.256348,4416.025879,4590.769043,4526.922852,4457.436035,4674.102539,4605.256348,2698.0,0.0,11.0,2304.0,27035.0,,,,0.0,4.0,4.0,4.0,4.0,4.0,4.0,4.0,4.0,4.0,4.0,4.0,4.0,4.0,4.0,4.0,4.0,4.0,4.0,4.0,4.0,4.0,4.0,4.0,4.0,4.0,4.0,4.0,4.0,4.0,4.0,4.0,4.0,100.0,,,,,,,,,,,,,,,,,,,,,,,,,,,,,,,,,,,,,,,,,,,,,,,5.649987,17.859829,22.442163,14.090934,8.833614,6.072205,22.724079,24.503496,15.05899,8.360393,5.515304,25.812923,33.57225,16.706846,9.23045,4.559253,22.632105,28.146742,17.90053,10.28018,6.090033,15.297447,17.855289,11.072083,5.924511,4.235433,15.423902,13.307663,8.708152,6.007332,5.253788,17.201328,19.798353,15.595992,9.98585,6.896824,19.829281,24.150412,21.315243,11.314795,12.122297,22.418449,22.762697,15.48448,11.180908,3.501687,14.698044,23.175669,19.350235,28.817606,5.820454,12.291642,17.393129,16.303286,12.328463,5.156501,15.052662,18.610729,14.275946,8.865931,5.830431,16.609676,26.144924,16.983458,11.058273,10.213521,11.185388,8.805862,9.846596,12.204915,2.755947,9.460406,16.238918,9.145892,10.689116,4.581119,10.444086,27.276001,18.218611,13.310741,4.931617,15.658429,35.23407,14.217206,9.117029,3.025572,17.104511,40.377274,24.653692,12.441101,6.852603,36.069778,57.462433,31.413641,18.861723,19.046206,17.063766,31.966436,15.009446,11.561499,6.249868,57.631958,60.418087,17.602982,13.75781,4.376524,38.394321,36.964245,19.349087,12.240286,4.227459,23.433546,25.853329,18.471685,10.503742,4.694178,33.886169,41.724651,17.579908,13.634062,8.371116,35.247906,53.508938,23.034643,30.735729,8.872766,32.684811,42.255772,18.095873,10.813572,5.798018,29.09844,32.761715,16.165651,9.396104,5.829084,26.119434,26.963772,18.460455,9.799038,6.030338,21.443089,24.989359,15.4491,8.865944,5.253381,24.505013,31.436283,16.023657,9.140229,6.616629,27.828253,36.376862,15.984356,10.942948,4.553078,25.807619,33.64806,15.93061,10.309965
1763976010.613574,21801.0,0.0,4407.94873,4412.94873,4496.153809,4627.820313,4431.025879,4566.922852,4577.436035,4491.153809,4928.333496,4447.179688,4558.205078,4537.436035,4594.487305,4343.461426,4374.487305,4503.846191,4548.333496,4555.256348,4551.666504,4397.436035,4381.410156,4591.153809,4550.897461,4537.436035,4405.256348,4890.769043,4427.05127,4619.358887,4547.820313,4482.179688,4696.282227,4625.384766,2901.0,0.0,11.0,2304.0,27035.0,,,,0.0,4.0,4.0,4.0,4.0,4.0,4.0,4.0,4.0,4.0,4.0,4.0,4.0,4.0,4.0,4.0,4.0,4.0,4.0,4.0,4.0,4.0,4.0,4.0,4.0,4.0,4.0,4.0,4.0,4.0,4.0,4.0,4.0,100.0,,,,,,,,,,,,,,,,,,,,,,,,,,,,,,,,,,,5450.0,0.0,0.24981,0.797302,0.527527,0.153687,0.938103,-0.260286,-0.140642,24.166666,-18.833334,39.666668,,,,,,,,,,,,,,,,,,,,,,,,,,,,,,,,,,,,,,,,,,,,,,,,,,,,,,,,,,,,,,,,,,,,,,,,,,,,,,,,,,,,,,,,,,,,,,,,,,,,,,,,,,,,,,,,,,,,,,,,,,,,,,,,,,,,,,,,,,,,,,,,,,,,,,,,,,,,,,,,
1763976010.61748,21802.0,0.0,4403.461426,4408.846191,4496.410156,4621.282227,4434.102539,4562.692383,4580.897461,4476.282227,4919.102539,4468.717773,4574.743652,4536.538574,4593.846191,4311.410156,4360.769043,4477.436035,4541.538574,4531.794922,4507.692383,4391.153809,4366.538574,4577.436035,4539.358887,4523.205078,4401.410156,4867.05127,4397.692383,4607.563965,4539.230957,4473.717773,4681.282227,4620.641113,2645.0,0.0,11.0,2560.0,27043.0,,,,0.0,4.0,4.0,4.0,4.0,4.0,4.0,4.0,4.0,4.0,4.0,4.0,4.0,4.0,4.0,4.0,4.0,4.0,4.0,4.0,4.0,4.0,4.0,4.0,4.0,4.0,4.0,4.0,4.0,4.0,4.0,4.0,4.0,100.0,,,,,,,,,,,,,,,,,,,,,,,,,,,,,,,,,,,,,,,,,,,,,,,,,,,,,,,,,,,,,,,,,,,,,,,,,,,,,,,,,,,,,,,,,,,,,,,,,,,,,,,,,,,,,,,,,,,,,,,,,,,,,,,,,,,,,,,,,,,,,,,,,,,,,,,,,,,,,,,,,,,,,,,,,,,,,,,,,,,,,,,,,,,,,,,,,,,,,,,,,,,,,,
1763976010.621386,21803.0,0.0,4370.0,4376.922852,4462.563965,4581.025879,4414.358887,4535.0,4553.205078,4423.077148,4873.974121,4448.461426,4544.871582,4505.769043,4560.512695,4276.282227,4329.615234,4443.974121,4507.563965,4491.153809,4448.846191,4364.230957,4336.025879,4531.794922,4495.384766,4491.025879,4369.102539,4816.282227,4347.436035,4557.820313,4503.077148,4436.538574,4645.128418,4592.692383,3026.0,0.0,11.0,2560.0,27043.0,,,,0.0,4.0,4.0,4.0,4.0,4.0,4.0,4.0,4.0,4.0,4.0,4.0,4.0,4.0,4.0,4.0,4.0,4.0,4.0,4.0,4.0,4.0,4.0,4.0,4.0,4.0,4.0,4.0,4.0,4.0,4.0,4.0,4.0,100.0,,,,,,,,,,,,,,,,,,,,,,,,,,,,,,,,,,,,,,,,,,,,,,,,,,,,,,,,,,,,,,,,,,,,,,,,,,,,,,,,,,,,,,,,,,,,,,,,,,,,,,,,,,,,,,,,,,,,,,,,,,,,,,,,,,,,,,,,,,,,,,,,,,,,,,,,,,,,,,,,,,,,,,,,,,,,,,,,,,,,,,,,,,,,,,,,,,,,,,,,,,,,,,
1763976010.625292,21804.0,0.0,4323.461426,4332.436035,4413.333496,4528.205078,4377.179688,4495.897461,4502.05127,4357.692383,4818.333496,4406.025879,4475.897461,4459.487305,4509.487305,4261.794922,4302.692383,4426.794922,4465.256348,4456.538574,4406.153809,4332.436035,4310.769043,4478.333496,4442.307617,4452.179688,4325.384766,4770.128418,4306.153809,4495.512695,4457.563965,4390.641113,4615.128418,4559.487305,3030.0,0.0,11.0,2560.0,27051.0,,,,0.0,4.0,4.0,4.0,4.0,4.0,4.0,4.0,4.0,4.0,4.0,4.0,4.0,4.0,4.0,4.0,4.0,4.0,4.0,4.0,4.0,4.0,4.0,4.0,4.0,4.0,4.0,4.0,4.0,4.0,4.0,4.0,4.0,100.0,,,,,,,,,,,,,,,,,,,,,,,,,,,,,,,,,,,,,,,,,,,,,,,,,,,,,,,,,,,,,,,,,,,,,,,,,,,,,,,,,,,,,,,,,,,,,,,,,,,,,,,,,,,,,,,,,,,,,,,,,,,,,,,,,,,,,,,,,,,,,,,,,,,,,,,,,,,,,,,,,,,,,,,,,,,,,,,,,,,,,,,,,,,,,,,,,,,,,,,,,,,,,,
1763976010.629198,21805.0,0.0,4290.897461,4301.538574,4381.794922,4495.897461,4343.205078,4466.922852,4453.717773,4318.461426,4783.974121,4375.769043,4402.563965,4424.358887,4469.230957,4281.666504,4298.974121,4438.717773,4441.282227,4448.974121,4402.05127,4316.282227,4309.487305,4449.743652,4412.05127,4425.256348,4295.641113,4754.230957,4296.922852,4457.05127,4429.102539,4362.820313,4613.461426,4546.410156,2655.0,0.0,11.0,2560.0,27051.0,,,,0.0,4.0,4.0,4.0,4.0,4.0,4.0,4.0,4.0,4.0,4.0,4.0,4.0,4.0,4.0,4.0,4.0,4.0,4.0,4.0,4.0,4.0,4.0,4.0,4.0,4.0,4.0,4.0,4.0,4.0,4.0,4.0,4.0,100.0,,,,,,,,,,,,,,,,,,,,,,,,,,,,,,,,,,,5451.0,0.0,0.255167,0.796204,0.52655,0.153931,0.917592,-0.307166,-0.202661,23.666666,-16.333334,40.833332,,,,,,,,,,,,,,,,,,,,,,,,,,,,,,,,,,,,,,,,,,,,,,,,,,,,,,,,,,,,,,,,,,,,,,,,,,,,,,,,,,,,,,,,,,,,,,,,,,,,,,,,,,,,,,,,,,,,,,,,,,,,,,,,,,,,,,,,,,,,,,,,,,,,,,,,,,,,,,,,
1763976010.633104,21806.0,0.0,4294.102539,4305.256348,4392.05127,4507.307617,4336.538574,4467.05127,4439.615234,4331.922852,4788.461426,4376.922852,4368.717773,4423.846191,4465.897461,4329.871582,4322.820313,4473.077148,4453.333496,4473.974121,4436.922852,4327.94873,4335.384766,4466.794922,4425.256348,4425.897461,4297.820313,4774.358887,4323.974121,4468.461426,4436.538574,4371.025879,4644.102539,4568.205078,2776.0,0.0,11.0,2561.0,27059.0,,,,0.0,4.0,4.0,4.0,4.0,4.0,4.0,4.0,4.0,4.0,4.0,4.0,4.0,4.0,4.0,4.0,4.0,4.0,4.0,4.0,4.0,4.0,4.0,4.0,4.0,4.0,4.0,4.0,4.0,4.0,4.0,4.0,4.0,100.0,,,,,,,,,,,,,,,,,,,,,,,,,,,,,,,,,,,,,,,,,,,,,,,,,,,,,,,,,,,,,,,,,,,,,,,,,,,,,,,,,,,,,,,,,,,,,,,,,,,,,,,,,,,,,,,,,,,,,,,,,,,,,,,,,,,,,,,,,,,,,,,,,,,,,,,,,,,,,,,,,,,,,,,,,,,,,,,,,,,,,,,,,,,,,,,,,,,,,,,,,,,,,,
1763976010.63701,21807.0,0.0,4333.205078,4342.436035,4439.230957,4556.538574,4364.743652,4498.205078,4472.307617,4393.077148,4823.589844,4395.512695,4397.05127,4460.256348,4504.102539,4382.692383,4360.128418,4510.128418,4496.410156,4517.05127,4489.743652,4360.897461,4374.358887,4522.05127,4476.282227,4454.871582,4332.307617,4815.769043,4369.871582,4525.641113,4476.794922,4411.025879,4689.743652,4614.487305,2946.0,0.0,11.0,2561.0,27059.0,,,,0.0,4.0,4.0,4.0,4.0,4.0,4.0,4.0,4.0,4.0,4.0,4.0,4.0,4.0,4.0,4.0,4.0,4.0,4.0,4.0,4.0,4.0,4.0,4.0,4.0,4.0,4.0,4.0,4.0,4.0,4.0,4.0,4.0,100.0,,,,,,,,,,,,,,,,,,,,,,,,,,,,,,,,,,,,,,,,,,,,,,,,,,,,,,,,,,,,,,,,,,,,,,,,,,,,,,,,,,,,,,,,,,,,,,,,,,,,,,,,,,,,,,,,,,,,,,,,,,,,,,,,,,,,,,,,,,,,,,,,,,,,,,,,,,,,,,,,,,,,,,,,,,,,,,,,,,,,,,,,,,,,,,,,,,,,,,,,,,,,,,
1763976010.640916,21808.0,0.0,4383.461426,4388.077148,4489.743652,4610.128418,4409.230957,4540.384766,4532.179688,4463.974121,4861.153809,4395.641113,4468.717773,4511.025879,4560.641113,4413.333496,4387.94873,4529.871582,4544.743652,4553.333496,4532.05127,4394.230957,4403.461426,4582.307617,4534.102539,4494.615234,4382.05127,4853.589844,4403.589844,4592.94873,4524.102539,4455.641113,4722.05127,4652.94873,3024.0,0.0,11.0,2561.0,27067.0,,,,0.0,4.0,4.0,4.0,4.0,4.0,4.0,4.0,4.0,4.0,4.0,4.0,4.0,4.0,4.0,4.0,4.0,4.0,4.0,4.0,4.0,4.0,4.0,4.0,4.0,4.0,4.0,4.0,4.0,4.0,4.0,4.0,4.0,100.0,,,,,,,,,,,,,,,,,,,,,,,,,,,,,,,,,,,,,,,,,,,,,,,,,,,,,,,,,,,,,,,,,,,,,,,,,,,,,,,,,,,,,,,,,,,,,,,,,,,,,,,,,,,,,,,,,,,,,,,,,,,,,,,,,,,,,,,,,,,,,,,,,,,,,,,,,,,,,,,,,,,,,,,,,,,,,,,,,,,,,,,,,,,,,,,,,,,,,,,,,,,,,,
1763976010.644822,21809.0,0.0,4410.769043,4408.974121,4505.512695,4628.846191,4436.666504,4563.974121,4577.94873,4498.205078,4872.94873,4353.589844,4532.05127,4542.307617,4597.307617,4407.436035,4389.743652,4524.871582,4567.94873,4563.205078,4545.897461,4406.794922,4406.538574,4610.128418,4561.666504,4519.487305,4419.743652,4867.692383,4400.769043,4626.538574,4546.282227,4472.563965,4721.153809,4652.692383,3216.0,0.0,11.0,2561.0,27067.0,,,,0.0,4.0,4.0,4.0,4.0,4.0,4.0,4.0,4.0,4.0,4.0,4.0,4.0,4.0,4.0,4.0,4.0,4.0,4.0,4.0,4.0,4.0,4.0,4.0,4.0,4.0,4.0,4.0,4.0,4.0,4.0,4.0,4.0,100.0,,,,,,,,,,,,,,,,,,,,,,,,,,,,,,,,,,,5452.0,0.0,0.261415,0.794617,0.525757,0.154358,0.917592,-0.307166,-0.202661,26.5,-17.0,40.333332,,,,,,,,,,,,,,,,,,,,,,,,,,,,,,,,,,,,,,,,,,,,,,,,,,,,,,,,,,,,,,,,,,,,,,,,,,,,,,,,,,,,,,,,,,,,,,,,,,,,,,,,,,,,,,,,,,,,,,,,,,,,,,,,,,,,,,,,,,,,,,,,,,,,,,,,,,,,,,,,
1763976010.648728,21810.0,0.0,4396.538574,4389.487305,4472.820313,4597.05127,4424.615234,4551.538574,4576.666504,4472.94873,4851.025879,4283.589844,4540.641113,4532.436035,4587.692383,4371.025879,4364.487305,4502.307617,4552.179688,4544.230957,4531.282227,4391.538574,4384.871582,4591.153809,4542.692383,4515.128418,4420.769043,4854.102539,4364.487305,4605.128418,4527.820313,4449.230957,4691.282227,4610.897461,2886.0,0.0,11.0,2560.0,27074.0,,,,0.0,4.0,4.0,4.0,4.0,4.0,4.0,4.0,4.0,4.0,4.0,4.0,4.0,4.0,4.0,4.0,4.0,4.0,4.0,4.0,4.0,4.0,4.0,4.0,4.0,4.0,4.0,4.0,4.0,4.0,4.0,4.0,4.0,100.0,,,,,,,,,,,,,,,,,,,,,,,,,,,,,,,,,,,,,,,,,,,,,,,,,,,,,,,,,,,,,,,,,,,,,,,,,,,,,,,,,,,,,,,,,,,,,,,,,,,,,,,,,,,,,,,,,,,,,,,,,,,,,,,,,,,,,,,,,,,,,,,,,,,,,,,,,,,,,,,,,,,,,,,,,,,,,,,,,,,,,,,,,,,,,,,,,,,,,,,,,,,,,,
1763976010.652634,21811.0,0.0,4353.333496,4344.615234,4416.666504,4537.307617,4381.410156,4512.436035,4529.871582,4407.563965,4813.461426,4235.384766,4491.538574,4490.641113,4539.102539,4326.410156,4328.333496,4478.077148,4511.666504,4512.307617,4505.384766,4360.897461,4357.307617,4545.384766,4494.358887,4492.307617,4381.538574,4826.410156,4325.641113,4547.94873,4483.589844,4404.871582,4660.512695,4560.769043,3048.0,0.0,11.0,2560.0,27074.0,,,,0.0,4.0,4.0,4.0,4.0,4.0,4.0,4.0,4.0,4.0,4.0,4.0,4.0,4.0,4.0,4.0,4.0,4.0,4.0,4.0,4.0,4.0,4.0,4.0,4.0,4.0,4.0,4.0,4.0,4.0,4.0,4.0,4.0,100.0,,,,,,,,,,,,,,,,,,,,,,,,,,,,,,,,,,,,,,,,,,,,,,,,,,,,,,,,,,,,,,,,,,,,,,,,,,,,,,,,,,,,,,,,,,,,,,,,,,,,,,,,,,,,,,,,,,,,,,,,,,,,,,,,,,,,,,,,,,,,,,,,,,,,,,,,,,,,,,,,,,,,,,,,,,,,,,,,,,,,,,,,,,,,,,,,,,,,,,,,,,,,,,
1763976010.65654,21812.0,0.0,4317.307617,4310.897461,4383.333496,4496.666504,4341.153809,4477.692383,4475.641113,4349.487305,4791.666504,4259.615234,4430.0,4451.282227,4490.0,4299.487305,4305.512695,4467.307617,4479.487305,4492.179688,4490.0,4337.05127,4347.05127,4513.205078,4456.794922,4479.615234,4330.0,4809.102539,4320.769043,4500.512695,4449.102539,4377.692383,4661.666504,4548.589844,3089.0,0.0,11.0,2048.0,27082.0,,,,0.0,4.0,4.0,4.0,4.0,4.0,4.0,4.0,4.0,4.0,4.0,4.0,4.0,4.0,4.0,4.0,4.0,4.0,4.0,4.0,4.0,4.0,4.0,4.0,4.0,4.0,4.0,4.0,4.0,4.0,4.0,4.0,4.0,100.0,,,,,,,,,,,,,,,,,,,,,,,,,,,,,,,,,,,,,,,,,,,,,,,,,,,,,,,,,,,,,,,,,,,,,,,,,,,,,,,,,,,,,,,,,,,,,,,,,,,,,,,,,,,,,,,,,,,,,,,,,,,,,,,,,,,,,,,,,,,,,,,,,,,,,,,,,,,,,,,,,,,,,,,,,,,,,,,,,,,,,,,,,,,,,,,,,,,,,,,,,,,,,,
1763976010.660446,21813.0,0.0,4320.384766,4317.820313,4404.615234,4511.025879,4336.282227,4475.384766,4458.717773,4338.333496,4807.307617,4364.358887,4412.563965,4448.333496,4481.025879,4305.128418,4313.205078,4477.05127,4482.563965,4500.256348,4498.333496,4337.436035,4364.743652,4524.102539,4462.179688,4498.077148,4309.871582,4820.256348,4360.512695,4500.769043,4453.077148,4394.230957,4706.153809,4595.897461,2980.0,0.0,11.0,2048.0,27082.0,,,,0.0,4.0,4.0,4.0,4.0,4.0,4.0,4.0,4.0,4.0,4.0,4.0,4.0,4.0,4.0,4.0,4.0,4.0,4.0,4.0,4.0,4.0,4.0,4.0,4.0,4.0,4.0,4.0,4.0,4.0,4.0,4.0,4.0,100.0,,,,,,,,,,,,,,,,,,,,,,,,,,,,,,,,,,,5453.0,0.0,0.268251,0.792847,0.524841,0.154846,0.907826,-0.268099,-0.330607,22.333334,-20.166666,40.833332,,,,,,,,,,,,,,,,,,,,,,,,,,,,,,,,,,,,,,,,,,,,,,,,,,,,,,,,,,,,,,,,,,,,,,,,,,,,,,,,,,,,,,,,,,,,,,,,,,,,,,,,,,,,,,,,,,,,,,,,,,,,,,,,,,,,,,,,,,,,,,,,,,,,,,,,,,,,,,,,
1763976010.664352,21814.0,0.0,4363.461426,4363.205078,4471.410156,4575.897461,4370.512695,4507.692383,4493.205078,4378.205078,4853.717773,4497.563965,4457.179688,4486.666504,4521.666504,4339.230957,4347.692383,4502.307617,4520.641113,4532.94873,4525.897461,4361.666504,4400.384766,4572.05127,4508.974121,4540.384766,4345.256348,4857.436035,4419.871582,4548.846191,4494.743652,4446.153809,4772.820313,4678.205078,3069.0,0.0,11.0,768.0,27090.0,,,,0.0,4.0,4.0,4.0,4.0,4.0,4.0,4.0,4.0,4.0,4.0,4.0,4.0,4.0,4.0,4.0,4.0,4.0,4.0,4.0,4.0,4.0,4.0,4.0,4.0,4.0,4.0,4.0,4.0,4.0,4.0,4.0,4.0,100.0,,,,,,,,,,,,,,,,,,,,,,,,,,,,,,,,,,,,,,,,,,,,,,,,,,,,,,,,,,,,,,,,,,,,,,,,,,,,,,,,,,,,,,,,,,,,,,,,,,,,,,,,,,,,,,,,,,,,,,,,,,,,,,,,,,,,,,,,,,,,,,,,,,,,,,,,,,,,,,,,,,,,,,,,,,,,,,,,,,,,,,,,,,,,,,,,,,,,,,,,,,,,,,
1763976010.668258,21815.0,0.0,4415.897461,4414.102539,4539.358887,4649.743652,4416.666504,4549.487305,4550.641113,4438.077148,4898.333496,4577.563965,4528.589844,4537.820313,4581.282227,4380.897461,4386.794922,4529.102539,4565.641113,4568.717773,4555.256348,4392.05127,4431.025879,4620.512695,4562.563965,4574.615234,4415.512695,4896.538574,4456.153809,4609.230957,4543.589844,4495.0,4821.410156,4741.538574,2995.0,0.0,11.0,768.0,27090.0,,,,0.0,4.0,4.0,4.0,4.0,4.0,4.0,4.0,4.0,4.0,4.0,4.0,4.0,4.0,4.0,4.0,4.0,4.0,4.0,4.0,4.0,4.0,4.0,4.0,4.0,4.0,4.0,4.0,4.0,4.0,4.0,4.0,4.0,100.0,,,,,,,,,,,,,,,,,,,,,,,,,,,,,,,,,,,,,,,,,,,,,,,,,,,,,,,,,,,,,,,,,,,,,,,,,,,,,,,,,,,,,,,,,,,,,,,,,,,,,,,,,,,,,,,,,,,,,,,,,,,,,,,,,,,,,,,,,,,,,,,,,,,,,,,,,,,,,,,,,,,,,,,,,,,,,,,,,,,,,,,,,,,,,,,,,,,,,,,,,,,,,,
1763976010.672164,21816.0,0.0,4439.102539,4433.717773,4563.589844,4686.410156,4439.230957,4567.94873,4583.846191,4478.205078,4905.897461,4552.94873,4568.589844,4562.692383,4613.974121,4405.256348,4405.0,4541.538574,4583.974121,4584.230957,4569.487305,4406.922852,4438.846191,4632.563965,4582.820313,4570.512695,4468.717773,4909.102539,4442.563965,4638.717773,4563.333496,4504.102539,4822.94873,4744.230957,2932.0,0.0,11.0,1024.0,27098.0,,,,0.0,4.0,4.0,4.0,4.0,4.0,4.0,4.0,4.0,4.0,4.0,4.0,4.0,4.0,4.0,4.0,4.0,4.0,4.0,4.0,4.0,4.0,4.0,4.0,4.0,4.0,4.0,4.0,4.0,4.0,4.0,4.0,4.0,100.0,,,,,,,,,,,,,,,,,,,,,,,,,,,,,,,,,,,,,,,,,,,,,,,,,,,,,,,,,,,,,,,,,,,,,,,,,,,,,,,,,,,,,,,,,,,,,,,,,,,,,,,,,,,,,,,,,,,,,,,,,,,,,,,,,,,,,,,,,,,,,,,,,,,,,,,,,,,,,,,,,,,,,,,,,,,,,,,,,,,,,,,,,,,,,,,,,,,,,,,,,,,,,,
1763976010.67607,21817.0,0.0,4417.307617,4408.974121,4531.282227,4668.461426,4422.307617,4549.358887,4567.05127,4476.538574,4866.282227,4441.025879,4546.153809,4542.692383,4595.641113,4399.102539,4392.436035,4531.025879,4561.922852,4570.256348,4561.794922,4396.025879,4421.666504,4598.717773,4554.871582,4525.897461,4463.974121,4883.717773,4386.922852,4619.102539,4539.871582,4467.436035,4780.0,4688.205078,2921.0,0.0,11.0,1024.0,27098.0,,,,0.0,4.0,4.0,4.0,4.0,4.0,4.0,4.0,4.0,4.0,4.0,4.0,4.0,4.0,4.0,4.0,4.0,4.0,4.0,4.0,4.0,4.0,4.0,4.0,4.0,4.0,4.0,4.0,4.0,4.0,4.0,4.0,4.0,100.0,,,,,,,,,,,,,,,,,,,,,,,,,,,,,,,,,,,5454.0,0.0,0.274631,0.791504,0.523621,0.154663,0.908314,-0.267611,-0.388231,22.833334,-18.166666,41.166668,,,,,,,,,,,,,,,,,,,,,,,,,,,,,,,,,,,,,,,,,,,,,,,,,,,,,,,,,,,,,,,,,,,,,,,,,,,,,,,,,,,,,,,,,,,,,,,,,,,,,,,,,,,,,,,,,,,,,,,,,,,,,,,,,,,,,,,,,,,,,,,,,,,,,,,,,,,,,,,,
1763976010.679976,21818.0,0.0,4367.179688,4359.358887,4468.846191,4615.769043,4379.615234,4507.820313,4515.512695,4439.230957,4802.307617,4315.256348,4480.512695,4493.077148,4541.025879,4369.102539,4359.487305,4501.666504,4514.871582,4537.307617,4537.563965,4366.666504,4391.794922,4543.077148,4498.461426,4468.717773,4402.94873,4835.641113,4324.102539,4566.922852,4490.0,4412.179688,4723.589844,4616.025879,2850.0,0.0,11.0,256.0,27106.0,,,,0.0,4.0,4.0,4.0,4.0,4.0,4.0,4.0,4.0,4.0,4.0,4.0,4.0,4.0,4.0,4.0,4.0,4.0,4.0,4.0,4.0,4.0,4.0,4.0,4.0,4.0,4.0,4.0,4.0,4.0,4.0,4.0,4.0,100.0,,,,,,,,,,,,,,,,,,,,,,,,,,,,,,,,,,,,,,,,,,,,,,,,,,,,,,,,,,,,,,,,,,,,,,,,,,,,,,,,,,,,,,,,,,,,,,,,,,,,,,,,,,,,,,,,,,,,,,,,,,,,,,,,,,,,,,,,,,,,,,,,,,,,,,,,,,,,,,,,,,,,,,,,,,,,,,,,,,,,,,,,,,,,,,,,,,,,,,,,,,,,,,
1763976010.683882,21819.0,0.0,4323.461426,4318.846191,4418.077148,4565.897461,4341.282227,4472.307617,4469.358887,4391.282227,4752.563965,4249.871582,4422.820313,4448.205078,4490.256348,4335.512695,4328.077148,4469.230957,4473.205078,4505.256348,4508.077148,4337.307617,4365.512695,4501.282227,4450.256348,4435.256348,4324.871582,4795.0,4290.0,4516.666504,4447.179688,4376.153809,4689.743652,4575.641113,3061.0,0.0,11.0,256.0,27106.0,,,,0.0,4.0,4.0,4.0,4.0,4.0,4.0,4.0,4.0,4.0,4.0,4.0,4.0,4.0,4.0,4.0,4.0,4.0,4.0,4.0,4.0,4.0,4.0,4.0,4.0,4.0,4.0,4.0,4.0,4.0,4.0,4.0,4.0,100.0,,,,,,,,,,,,,,,,,,,,,,,,,,,,,,,,,,,,,,,,,,,,,,,,,,,,,,,,,,,,,,,,,,,,,,,,,,,,,,,,,,,,,,,,,,,,,,,,,,,,,,,,,,,,,,,,,,,,,,,,,,,,,,,,,,,,,,,,,,,,,,,,,,,,,,,,,,,,,,,,,,,,,,,,,,,,,,,,,,,,,,,,,,,,,,,,,,,,,,,,,,,,,,
1763976010.687788,21820.0,0.0,4311.794922,4311.282227,4406.282227,4547.820313,4331.153809,4464.743652,4461.282227,4359.871582,4744.230957,4269.871582,4414.102539,4435.769043,4476.410156,4317.436035,4316.282227,4451.025879,4459.743652,4490.256348,4484.230957,4324.615234,4352.436035,4495.128418,4437.179688,4443.333496,4275.384766,4785.641113,4299.230957,4496.025879,4436.153809,4379.230957,4696.282227,4586.153809,3023.0,0.0,11.0,512.0,27114.0,,,,0.0,4.0,4.0,4.0,4.0,4.0,4.0,4.0,4.0,4.0,4.0,4.0,4.0,4.0,4.0,4.0,4.0,4.0,4.0,4.0,4.0,4.0,4.0,4.0,4.0,4.0,4.0,4.0,4.0,4.0,4.0,4.0,4.0,100.0,,,,,,,,,,,,,,,,,,,,,,,,,,,,,,,,,,,,,,,,,,,,,,,,,,,,,,,,,,,,,,,,,,,,,,,,,,,,,,,,,,,,,,,,,,,,,,,,,,,,,,,,,,,,,,,,,,,,,,,,,,,,,,,,,,,,,,,,,,,,,,,,,,,,,,,,,,,,,,,,,,,,,,,,,,,,,,,,,,,,,,,,,,,,,,,,,,,,,,,,,,,,,,
1763976010.691694,21821.0,0.0,4332.94873,4334.871582,4431.282227,4565.897461,4351.025879,4485.128418,4492.307617,4358.205078,4775.897461,4341.922852,4455.256348,4457.94873,4502.820313,4320.0,4326.538574,4454.743652,4475.897461,4494.871582,4473.205078,4332.05127,4351.410156,4518.717773,4459.102539,4480.512695,4277.692383,4809.615234,4337.563965,4508.846191,4457.820313,4413.077148,4734.743652,4629.615234,2882.0,0.0,11.0,512.0,27114.0,,,,0.0,4.0,4.0,4.0,4.0,4.0,4.0,4.0,4.0,4.0,4.0,4.0,4.0,4.0,4.0,4.0,4.0,4.0,4.0,4.0,4.0,4.0,4.0,4.0,4.0,4.0,4.0,4.0,4.0,4.0,4.0,4.0,4.0,100.0,,,,,,,,,,,,,,,,,,,,,,,,,,,,,,,,,,,5455.0,0.0,0.283216,0.790222,0.521606,0.152527,0.931266,-0.285679,-0.356489,23.833334,-19.166666,38.5,,,,,,,,,,,,,,,,,,,,,,,,,,,,,,,,,,,,,,,,,,,,,,,,,,,,,,,,,,,,,,,,,,,,,,,,,,,,,,,,,,,,,,,,,,,,,,,,,,,,,,,,,,,,,,,,,,,,,,,,,,,,,,,,,,,,,,,,,,,,,,,,,,,,,,,,,,,,,,,,
1763976010.6956,21822.0,0.0,4365.0,4366.666504,4468.974121,4602.05127,4382.179688,4514.102539,4534.871582,4377.94873,4820.512695,4406.666504,4508.205078,4492.820313,4543.077148,4334.487305,4345.769043,4472.94873,4502.820313,4508.717773,4476.282227,4348.589844,4353.461426,4547.05127,4492.05127,4514.871582,4321.538574,4846.666504,4373.974121,4535.769043,4490.128418,4448.846191,4779.102539,4670.512695,3096.0,0.0,11.0,768.0,27121.0,,,,0.0,4.0,4.0,4.0,4.0,4.0,4.0,4.0,4.0,4.0,4.0,4.0,4.0,4.0,4.0,4.0,4.0,4.0,4.0,4.0,4.0,4.0,4.0,4.0,4.0,4.0,4.0,4.0,4.0,4.0,4.0,4.0,4.0,100.0,,,,,,,,,,,,,,,,,,,,,,,,,,,,,,,,,,,,,,,,,,,,,,,,,,,,,,,,,,,,,,,,,,,,,,,,,,,,,,,,,,,,,,,,,,,,,,,,,,,,,,,,,,,,,,,,,,,,,,,,,,,,,,,,,,,,,,,,,,,,,,,,,,,,,,,,,,,,,,,,,,,,,,,,,,,,,,,,,,,,,,,,,,,,,,,,,,,,,,,,,,,,,,
1763976010.699506,21823.0,0.0,4381.794922,4381.666504,4492.436035,4628.717773,4401.153809,4528.717773,4555.512695,4397.436035,4846.794922,4423.717773,4527.05127,4512.307617,4563.717773,4348.077148,4356.153809,4490.256348,4517.436035,4517.94873,4489.487305,4356.794922,4350.897461,4556.538574,4508.333496,4518.589844,4374.230957,4867.94873,4381.282227,4551.282227,4506.794922,4459.487305,4803.846191,4683.717773,3006.0,0.0,11.0,768.0,27121.0,,,,0.0,4.0,4.0,4.0,4.0,4.0,4.0,4.0,4.0,4.0,4.0,4.0,4.0,4.0,4.0,4.0,4.0,4.0,4.0,4.0,4.0,4.0,4.0,4.0,4.0,4.0,4.0,4.0,4.0,4.0,4.0,4.0,4.0,100.0,,,,,,,,,,,,,,,,,,,,,,,,,,,,,,,,,,,,,,,,,,,,,,,,,,,,,,,,,,,,,,,,,,,,,,,,,,,,,,,,,,,,,,,,,,,,,,,,,,,,,,,,,,,,,,,,,,,,,,,,,,,,,,,,,,,,,,,,,,,,,,,,,,,,,,,,,,,,,,,,,,,,,,,,,,,,,,,,,,,,,,,,,,,,,,,,,,,,,,,,,,,,,,
1763976010.703412,21824.0,0.0,4373.333496,4371.538574,4490.256348,4627.436035,4397.820313,4519.743652,4540.641113,4398.974121,4841.666504,4395.0,4495.384766,4504.102539,4550.769043,4355.256348,4348.974121,4495.256348,4510.769043,4515.512695,4505.256348,4346.922852,4344.487305,4543.205078,4498.717773,4489.871582,4400.641113,4857.05127,4355.512695,4544.615234,4497.820313,4438.974121,4800.512695,4669.615234,2876.0,0.0,11.0,1024.0,27129.0,,,,0.0,4.0,4.0,4.0,4.0,4.0,4.0,4.0,4.0,4.0,4.0,4.0,4.0,4.0,4.0,4.0,4.0,4.0,4.0,4.0,4.0,4.0,4.0,4.0,4.0,4.0,4.0,4.0,4.0,4.0,4.0,4.0,4.0,100.0,,,,,,,,,,,,,,,,,,,,,,,,,,,,,,,,,,,,,,,,,,,,,,,,,,,,,,,,,,,,,,,,,,,,,,,,,,,,,,,,,,,,,,,,,,,,,,,,,,,,,,,,,,,,,,,,,,,,,,,,,,,,,,,,,,,,,,,,,,,,,,,,,,,,,,,,,,,,,,,,,,,,,,,,,,,,,,,,,,,,,,,,,,,,,,,,,,,,,,,,,,,,,,
1763976010.707318,21825.0,0.0,4351.922852,4348.846191,4471.282227,4602.179688,4382.05127,4498.205078,4505.641113,4384.102539,4819.102539,4353.205078,4439.487305,4480.0,4520.128418,4358.077148,4330.897461,4488.333496,4493.717773,4505.512695,4516.538574,4324.615234,4341.666504,4524.102539,4478.077148,4453.205078,4386.282227,4823.846191,4319.871582,4528.077148,4475.897461,4408.333496,4783.077148,4648.974121,2916.0,0.0,11.0,1024.0,27129.0,,,,0.0,4.0,4.0,4.0,4.0,4.0,4.0,4.0,4.0,4.0,4.0,4.0,4.0,4.0,4.0,4.0,4.0,4.0,4.0,4.0,4.0,4.0,4.0,4.0,4.0,4.0,4.0,4.0,4.0,4.0,4.0,4.0,4.0,100.0,,,,,,,,,,,,,,,,,,,,,,,,,,,,,,,,,,,5456.0,0.0,0.286123,0.789856,0.520752,0.151917,0.918081,-0.264681,-0.339397,23.166666,-20.666666,39.5,,,,,,,,,,,,,,,,,,,,,,,,,,,,,,,,,,,,,,,,,,,,,,,,,,,,,,,,,,,,,,,,,,,,,,,,,,,,,,,,,,,,,,,,,,,,,,,,,,,,,,,,,,,,,,,,,,,,,,,,,,,,,,,,,,,,,,,,,,,,,,,,,,,,,,,,,,,,,,,,
1763976010.711224,21826.0,0.0,4340.128418,4336.282227,4455.256348,4574.358887,4372.436035,4484.743652,4480.384766,4370.897461,4806.666504,4330.128418,4407.692383,4465.0,4502.179688,4359.230957,4316.794922,4478.717773,4486.538574,4498.461426,4519.102539,4307.05127,4347.94873,4521.410156,4471.282227,4440.641113,4346.282227,4798.205078,4306.922852,4524.871582,4464.230957,4398.077148,4776.922852,4644.615234,2311.0,0.0,11.0,1280.0,27137.0,,,,0.0,4.0,4.0,4.0,4.0,4.0,4.0,4.0,4.0,4.0,4.0,4.0,4.0,4.0,4.0,4.0,4.0,4.0,4.0,4.0,4.0,4.0,4.0,4.0,4.0,4.0,4.0,4.0,4.0,4.0,4.0,4.0,4.0,100.0,,,,,,,,,,,,,,,,,,,,,,,,,,,,,,,,,,,,,,,,,,,,,,,,,,,,,,,,,,,,,,,,,,,,,,,,,,,,,,,,,,,,,,,,,,,,,,,,,,,,,,,,,,,,,,,,,,,,,,,,,,,,,,,,,,,,,,,,,,,,,,,,,,,,,,,,,,,,,,,,,,,,,,,,,,,,,,,,,,,,,,,,,,,,,,,,,,,,,,,,,,,,,,
1763976010.71513,21827.0,0.0,4352.05127,4348.077148,4457.179688,4565.641113,4381.538574,4493.333496,4486.666504,4376.794922,4822.436035,4336.922852,4430.769043,4476.153809,4517.05127,4357.436035,4318.077148,4476.282227,4502.179688,4502.94873,4513.974121,4309.230957,4360.769043,4544.102539,4492.05127,4466.538574,4314.871582,4806.922852,4334.743652,4548.077148,4477.692383,4424.743652,4800.128418,4665.512695,3004.0,0.0,11.0,1280.0,27137.0,,,,0.0,4.0,4.0,4.0,4.0,4.0,4.0,4.0,4.0,4.0,4.0,4.0,4.0,4.0,4.0,4.0,4.0,4.0,4.0,4.0,4.0,4.0,4.0,4.0,4.0,4.0,4.0,4.0,4.0,4.0,4.0,4.0,4.0,100.0,,,,,,,,,,,,,,,,,,,,,,,,,,,,,,,,,,,,,,,,,,,,,,,,,,,,,,,,,,,,,,,,,,,,,,,,,,,,,,,,,,,,,,,,,,,,,,,,,,,,,,,,,,,,,,,,,,,,,,,,,,,,,,,,,,,,,,,,,,,,,,,,,,,,,,,,,,,,,,,,,,,,,,,,,,,,,,,,,,,,,,,,,,,,,,,,,,,,,,,,,,,,,,
1763976010.719036,21828.0,0.0,4384.358887,4381.282227,4479.487305,4583.461426,4407.692383,4522.05127,4523.205078,4403.333496,4863.461426,4365.769043,4498.077148,4510.384766,4559.358887,4351.538574,4335.384766,4485.769043,4536.794922,4520.384766,4508.077148,4334.615234,4373.589844,4582.436035,4533.077148,4518.461426,4319.358887,4852.820313,4393.077148,4591.282227,4512.692383,4479.102539,4850.641113,4704.102539,2944.0,0.0,11.0,1536.0,27145.0,,,,0.0,4.0,4.0,4.0,4.0,4.0,4.0,4.0,4.0,4.0,4.0,4.0,4.0,4.0,4.0,4.0,4.0,4.0,4.0,4.0,4.0,4.0,4.0,4.0,4.0,4.0,4.0,4.0,4.0,4.0,4.0,4.0,4.0,100.0,,,,,,,,,,,,,,,,,,,,,,,,,,,,,,,,,,,,,,,,,,,,,,,,,,,,,,,,,,,,,,,,,,,,,,,,,,,,,,,,,,,,,,,,,,,,,,,,,,,,,,,,,,,,,,,,,,,,,,,,,,,,,,,,,,,,,,,,,,,,,,,,,,,,,,,,,,,,,,,,,,,,,,,,,,,,,,,,,,,,,,,,,,,,,,,,,,,,,,,,,,,,,,
1763976010.722942,21829.0,0.0,4421.282227,4420.897461,4513.846191,4618.589844,4438.333496,4556.153809,4570.0,4436.153809,4910.641113,4400.897461,4567.436035,4549.102539,4605.384766,4345.512695,4361.666504,4506.410156,4574.615234,4545.897461,4510.384766,4372.820313,4382.820313,4617.179688,4573.846191,4567.307617,4360.641113,4912.179688,4452.820313,4634.743652,4552.820313,4534.487305,4909.230957,4745.897461,2417.0,0.0,11.0,1536.0,27145.0,,,,0.0,4.0,4.0,4.0,4.0,4.0,4.0,4.0,4.0,4.0,4.0,4.0,4.0,4.0,4.0,4.0,4.0,4.0,4.0,4.0,4.0,4.0,4.0,4.0,4.0,4.0,4.0,4.0,4.0,4.0,4.0,4.0,4.0,100.0,,,,,,,,,,,,,,,,,,,,,,,,,,,,,,,,,,,5457.0,0.0,0.288393,0.789612,0.519958,0.151611,0.922964,-0.277866,-0.351605,23.166666,-19.0,40.333332,,,,,,,,,,,,,,,,,,,,,,,,,,,,,,,,,,,,,,,,,,,,,,,,,,,,,,,,,,,,,,,,,,,,,,,,,,,,,,,,,,,,,,,,,,,,,,,,,,,,,,,,,,,,,,,,,,,,,,,,,,,,,,,,,,,,,,,,,,,,,,,,,,,,,,,,,,,,,,,,
1763976010.726848,21830.0,0.0,4445.128418,4448.717773,4546.410156,4653.717773,4458.077148,4578.333496,4602.307617,4457.436035,4942.94873,4425.512695,4596.666504,4571.538574,4629.615234,4345.641113,4386.282227,4531.922852,4597.94873,4569.487305,4523.717773,4405.512695,4389.871582,4632.563965,4594.230957,4586.538574,4413.205078,4950.384766,4483.846191,4657.94873,4578.846191,4564.358887,4950.769043,4777.94873,3060.0,0.0,11.0,1792.0,27153.0,,,,0.0,4.0,4.0,4.0,4.0,4.0,4.0,4.0,4.0,4.0,4.0,4.0,4.0,4.0,4.0,4.0,4.0,4.0,4.0,4.0,4.0,4.0,4.0,4.0,4.0,4.0,4.0,4.0,4.0,4.0,4.0,4.0,4.0,100.0,,,,,,,,,,,,,,,,,,,,,,,,,,,,,,,,,,,,,,,,,,,,,,,,,,,,,,,,,,,,,,,,,,,,,,,,,,,,,,,,,,,,,,,,,,,,,,,,,,,,,,,,,,,,,,,,,,,,,,,,,,,,,,,,,,,,,,,,,,,,,,,,,,,,,,,,,,,,,,,,,,,,,,,,,,,,,,,,,,,,,,,,,,,,,,,,,,,,,,,,,,,,,,
1763976010.730754,21831.0,0.0,4442.692383,4450.384766,4561.538574,4671.025879,4454.358887,4575.128418,4601.282227,4454.102539,4947.307617,4424.358887,4568.717773,4563.589844,4616.794922,4351.666504,4398.077148,4548.205078,4593.846191,4578.205078,4537.692383,4413.589844,4393.205078,4620.0,4582.307617,4564.615234,4442.563965,4943.333496,4468.461426,4646.666504,4575.897461,4553.205078,4954.871582,4788.589844,3043.0,0.0,11.0,1792.0,27153.0,,,,0.0,4.0,4.0,4.0,4.0,4.0,4.0,4.0,4.0,4.0,4.0,4.0,4.0,4.0,4.0,4.0,4.0,4.0,4.0,4.0,4.0,4.0,4.0,4.0,4.0,4.0,4.0,4.0,4.0,4.0,4.0,4.0,4.0,100.0,,,,,,,,,,,,,,,,,,,,,,,,,,,,,,,,,,,,,,,,,,,,,,,,,,,,,,,,,,,,,,,,,,,,,,,,,,,,,,,,,,,,,,,,,,,,,,,,,,,,,,,,,,,,,,,,,,,,,,,,,,,,,,,,,,,,,,,,,,,,,,,,,,,,,,,,,,,,,,,,,,,,,,,,,,,,,,,,,,,,,,,,,,,,,,,,,,,,,,,,,,,,,,
1763976010.73466,21832.0,0.0,4409.487305,4419.230957,4546.666504,4659.358887,4422.820313,4542.94873,4561.153809,4423.333496,4921.153809,4390.897461,4496.922852,4524.102539,4567.94873,4355.128418,4388.846191,4540.512695,4559.358887,4561.282227,4533.717773,4388.461426,4385.384766,4580.641113,4538.461426,4508.974121,4427.94873,4891.282227,4409.230957,4598.333496,4539.230957,4501.410156,4916.666504,4769.230957,2734.0,0.0,11.0,2048.0,27160.0,,,,0.0,4.0,4.0,4.0,4.0,4.0,4.0,4.0,4.0,4.0,4.0,4.0,4.0,4.0,4.0,4.0,4.0,4.0,4.0,4.0,4.0,4.0,4.0,4.0,4.0,4.0,4.0,4.0,4.0,4.0,4.0,4.0,4.0,100.0,1.0,0.0,1.0,1.0,1.0,1.0,1.0,1.0,1.0,1.0,1.0,0.0,1.0,1.0,1.0,1.0,1.0,1.0,1.0,1.0,0.0,1.0,1.0,1.0,1.0,1.0,0.0,1.0,1.0,1.0,1.0,1.0,1.0,1.0,,,,,,,,,,,,,5.641031,15.277524,17.535471,12.644903,8.471591,5.788389,20.179319,19.646212,13.529125,8.103965,5.802146,22.385834,27.095783,15.064658,8.985006,4.542351,19.770712,22.435526,15.89506,10.095112,5.526871,13.735823,14.307115,9.903737,5.783583,4.005796,14.207626,10.249554,7.596731,5.871794,5.123381,15.437815,15.839999,13.487776,9.910859,6.588875,18.092457,19.495922,18.576759,10.762401,10.580483,19.622051,18.095778,14.120032,11.442637,3.291016,12.872294,19.421408,20.244202,32.87513,5.457865,11.212358,14.601152,14.124623,12.130615,4.998946,13.305141,14.52265,12.682364,8.640759,5.537337,15.959717,22.193014,15.050076,10.858329,9.50453,10.764399,7.247965,9.15386,11.669927,2.341704,8.254736,12.685798,8.534081,10.165917,5.057737,10.43409,22.38558,17.292616,12.271182,4.868177,13.368199,27.085232,12.96525,8.711535,2.461838,14.050249,31.595312,22.841707,11.481976,5.540984,29.86047,46.432869,28.733736,17.109936,17.072624,14.542923,25.201427,13.588887,11.380446,5.336112,49.819283,52.257229,16.616934,12.342026,3.88177,32.929527,29.162468,17.309046,11.488162,4.098739,20.03437,19.380373,16.772429,10.097987,4.139329,29.277966,33.722427,15.319458,13.263808,7.658308,30.473501,44.4739,22.102016,28.9174,8.601919,28.020895,34.819153,16.046196,10.242843,5.706128,25.496853,26.693794,13.633499,8.791681,5.59787,22.54336,21.401857,16.720644,9.060097,5.627116,18.385199,20.111441,13.765175,8.542771,5.205743,21.422903,26.089848,13.831927,9.075745,7.058416,23.943176,30.276926,13.876195,10.563764,4.625915,22.261143,27.49313,13.842305,9.900179
1763976010.738566,21833.0,0.0,4356.025879,4365.256348,4503.333496,4623.589844,4373.205078,4492.692383,4495.384766,4375.256348,4877.179688,4337.820313,4416.282227,4467.563965,4502.05127,4349.358887,4361.666504,4507.436035,4506.153809,4521.794922,4503.974121,4340.512695,4362.05127,4527.94873,4478.589844,4445.641113,4377.179688,4821.794922,4331.922852,4529.230957,4480.641113,4429.487305,4854.615234,4724.615234,2932.0,0.0,11.0,2048.0,27160.0,,,,0.0,4.0,4.0,4.0,4.0,4.0,4.0,4.0,4.0,4.0,4.0,4.0,4.0,4.0,4.0,4.0,4.0,4.0,4.0,4.0,4.0,4.0,4.0,4.0,4.0,4.0,4.0,4.0,4.0,4.0,4.0,4.0,4.0,100.0,,,,,,,,,,,,,,,,,,,,,,,,,,,,,,,,,,,5458.0,0.0,0.29048,0.789185,0.519409,0.151733,0.908314,-0.261262,-0.384324,22.0,-19.5,38.666668,,,,,,,,,,,,,,,,,,,,,,,,,,,,,,,,,,,,,,,,,,,,,,,,,,,,,,,,,,,,,,,,,,,,,,,,,,,,,,,,,,,,,,,,,,,,,,,,,,,,,,,,,,,,,,,,,,,,,,,,,,,,,,,,,,,,,,,,,,,,,,,,,,,,,,,,,,,,,,,,
1763976010.742472,21834.0,0.0,4309.487305,4315.769043,4453.717773,4587.307617,4329.615234,4449.487305,4436.282227,4334.615234,4842.05127,4295.384766,4367.179688,4422.05127,4451.922852,4339.743652,4334.358887,4469.615234,4461.025879,4482.820313,4465.641113,4298.717773,4334.615234,4488.461426,4432.94873,4410.256348,4324.102539,4776.666504,4278.205078,4472.563965,4429.871582,4373.717773,4807.94873,4678.589844,2692.0,0.0,11.0,2304.0,27168.0,,,,0.0,4.0,4.0,4.0,4.0,4.0,4.0,4.0,4.0,4.0,4.0,4.0,4.0,4.0,4.0,4.0,4.0,4.0,4.0,4.0,4.0,4.0,4.0,4.0,4.0,4.0,4.0,4.0,4.0,4.0,4.0,4.0,4.0,100.0,,,,,,,,,,,,,,,,,,,,,,,,,,,,,,,,,,,,,,,,,,,,,,,,,,,,,,,,,,,,,,,,,,,,,,,,,,,,,,,,,,,,,,,,,,,,,,,,,,,,,,,,,,,,,,,,,,,,,,,,,,,,,,,,,,,,,,,,,,,,,,,,,,,,,,,,,,,,,,,,,,,,,,,,,,,,,,,,,,,,,,,,,,,,,,,,,,,,,,,,,,,,,,
1763976010.746378,21835.0,0.0,4298.846191,4300.897461,4429.230957,4579.102539,4317.307617,4438.589844,4418.205078,4327.05127,4842.820313,4292.94873,4374.615234,4414.615234,4446.794922,4340.256348,4329.615234,4456.410156,4451.538574,4473.333496,4450.641113,4291.153809,4325.897461,4487.179688,4429.230957,4426.025879,4306.538574,4785.769043,4280.384766,4461.666504,4417.692383,4365.512695,4812.179688,4662.05127,3080.0,0.0,11.0,2304.0,27168.0,,,,0.0,4.0,4.0,4.0,4.0,4.0,4.0,4.0,4.0,4.0,4.0,4.0,4.0,4.0,4.0,4.0,4.0,4.0,4.0,4.0,4.0,4.0,4.0,4.0,4.0,4.0,4.0,4.0,4.0,4.0,4.0,4.0,4.0,100.0,,,,,,,,,,,,,,,,,,,,,,,,,,,,,,,,,,,,,,,,,,,,,,,,,,,,,,,,,,,,,,,,,,,,,,,,,,,,,,,,,,,,,,,,,,,,,,,,,,,,,,,,,,,,,,,,,,,,,,,,,,,,,,,,,,,,,,,,,,,,,,,,,,,,,,,,,,,,,,,,,,,,,,,,,,,,,,,,,,,,,,,,,,,,,,,,,,,,,,,,,,,,,,
1763976010.750284,21836.0,0.0,4331.282227,4329.230957,4446.794922,4609.358887,4342.563965,4465.512695,4452.179688,4359.358887,4883.717773,4333.205078,4432.05127,4450.512695,4489.487305,4357.820313,4354.743652,4479.871582,4484.230957,4503.077148,4474.615234,4322.692383,4349.230957,4526.538574,4469.743652,4484.230957,4337.179688,4842.94873,4334.487305,4502.436035,4452.307617,4407.692383,4869.487305,4687.692383,3060.0,0.0,11.0,1280.0,27176.0,,,,0.0,4.0,4.0,4.0,4.0,4.0,4.0,4.0,4.0,4.0,4.0,4.0,4.0,4.0,4.0,4.0,4.0,4.0,4.0,4.0,4.0,4.0,4.0,4.0,4.0,4.0,4.0,4.0,4.0,4.0,4.0,4.0,4.0,100.0,,,,,,,,,,,,,,,,,,,,,,,,,,,,,,,,,,,,,,,,,,,,,,,,,,,,,,,,,,,,,,,,,,,,,,,,,,,,,,,,,,,,,,,,,,,,,,,,,,,,,,,,,,,,,,,,,,,,,,,,,,,,,,,,,,,,,,,,,,,,,,,,,,,,,,,,,,,,,,,,,,,,,,,,,,,,,,,,,,,,,,,,,,,,,,,,,,,,,,,,,,,,,,
1763976010.75419,21837.0,0.0,4382.692383,4378.974121,4492.94873,4658.846191,4386.666504,4509.615234,4514.871582,4409.871582,4937.307617,4383.333496,4502.563965,4504.615234,4551.794922,4383.333496,4391.666504,4521.794922,4535.256348,4550.0,4519.487305,4368.077148,4391.538574,4579.102539,4525.897461,4544.487305,4391.025879,4907.307617,4400.512695,4566.922852,4509.487305,4468.717773,4943.717773,4737.94873,2702.0,0.0,11.0,1280.0,27176.0,,,,0.0,4.0,4.0,4.0,4.0,4.0,4.0,4.0,4.0,4.0,4.0,4.0,4.0,4.0,4.0,4.0,4.0,4.0,4.0,4.0,4.0,4.0,4.0,4.0,4.0,4.0,4.0,4.0,4.0,4.0,4.0,4.0,4.0,100.0,,,,,,,,,,,,,,,,,,,,,,,,,,,,,,,,,,,5459.0,0.0,0.292163,0.788757,0.519043,0.151978,0.908314,-0.261262,-0.384324,22.333334,-21.0,38.666668,,,,,,,,,,,,,,,,,,,,,,,,,,,,,,,,,,,,,,,,,,,,,,,,,,,,,,,,,,,,,,,,,,,,,,,,,,,,,,,,,,,,,,,,,,,,,,,,,,,,,,,,,,,,,,,,,,,,,,,,,,,,,,,,,,,,,,,,,,,,,,,,,,,,,,,,,,,,,,,,
1763976010.758096,21838.0,0.0,4415.128418,4412.563965,4533.589844,4691.538574,4418.717773,4538.846191,4563.846191,4442.820313,4962.820313,4397.692383,4541.794922,4539.230957,4592.05127,4397.692383,4410.384766,4547.692383,4566.666504,4576.666504,4547.820313,4390.384766,4421.538574,4606.025879,4557.05127,4564.230957,4422.05127,4932.307617,4432.820313,4611.666504,4549.358887,4505.128418,4986.025879,4777.563965,2802.0,0.0,11.0,512.0,27184.0,,,,0.0,4.0,4.0,4.0,4.0,4.0,4.0,4.0,4.0,4.0,4.0,4.0,4.0,4.0,4.0,4.0,4.0,4.0,4.0,4.0,4.0,4.0,4.0,4.0,4.0,4.0,4.0,4.0,4.0,4.0,4.0,4.0,4.0,100.0,,,,,,,,,,,,,,,,,,,,,,,,,,,,,,,,,,,,,,,,,,,,,,,,,,,,,,,,,,,,,,,,,,,,,,,,,,,,,,,,,,,,,,,,,,,,,,,,,,,,,,,,,,,,,,,,,,,,,,,,,,,,,,,,,,,,,,,,,,,,,,,,,,,,,,,,,,,,,,,,,,,,,,,,,,,,,,,,,,,,,,,,,,,,,,,,,,,,,,,,,,,,,,
1763976010.762002,21839.0,0.0,4404.743652,4405.256348,4539.743652,4683.846191,4417.820313,4533.077148,4567.05127,4435.384766,4938.717773,4358.589844,4527.436035,4530.512695,4585.0,4387.179688,4392.563965,4535.0,4555.128418,4561.153809,4537.692383,4369.743652,4415.0,4586.922852,4541.410156,4530.641113,4398.333496,4899.230957,4414.230957,4609.615234,4545.128418,4492.692383,4971.410156,4780.128418,2952.0,0.0,11.0,512.0,27184.0,,,,0.0,4.0,4.0,4.0,4.0,4.0,4.0,4.0,4.0,4.0,4.0,4.0,4.0,4.0,4.0,4.0,4.0,4.0,4.0,4.0,4.0,4.0,4.0,4.0,4.0,4.0,4.0,4.0,4.0,4.0,4.0,4.0,4.0,100.0,,,,,,,,,,,,,,,,,,,,,,,,,,,,,,,,,,,,,,,,,,,,,,,,,,,,,,,,,,,,,,,,,,,,,,,,,,,,,,,,,,,,,,,,,,,,,,,,,,,,,,,,,,,,,,,,,,,,,,,,,,,,,,,,,,,,,,,,,,,,,,,,,,,,,,,,,,,,,,,,,,,,,,,,,,,,,,,,,,,,,,,,,,,,,,,,,,,,,,,,,,,,,,
1763976010.765908,21840.0,0.0,4357.692383,4361.538574,4507.436035,4641.794922,4386.153809,4497.820313,4524.102539,4392.307617,4879.230957,4297.179688,4471.538574,4485.128418,4537.820313,4354.871582,4345.897461,4489.615234,4507.820313,4514.358887,4500.769043,4317.563965,4375.384766,4535.256348,4489.743652,4469.615234,4330.897461,4830.128418,4362.820313,4565.0,4500.769043,4441.025879,4914.871582,4745.641113,3058.0,0.0,11.0,768.0,27192.0,,,,0.0,4.0,4.0,4.0,4.0,4.0,4.0,4.0,4.0,4.0,4.0,4.0,4.0,4.0,4.0,4.0,4.0,4.0,4.0,4.0,4.0,4.0,4.0,4.0,4.0,4.0,4.0,4.0,4.0,4.0,4.0,4.0,4.0,100.0,,,,,,,,,,,,,,,,,,,,,,,,,,,,,,,,,,,,,,,,,,,,,,,,,,,,,,,,,,,,,,,,,,,,,,,,,,,,,,,,,,,,,,,,,,,,,,,,,,,,,,,,,,,,,,,,,,,,,,,,,,,,,,,,,,,,,,,,,,,,,,,,,,,,,,,,,,,,,,,,,,,,,,,,,,,,,,,,,,,,,,,,,,,,,,,,,,,,,,,,,,,,,,
1763976010.769814,21841.0,0.0,4304.615234,4310.256348,4458.717773,4594.230957,4345.384766,4457.692383,4464.358887,4339.487305,4823.717773,4271.282227,4410.128418,4433.589844,4482.820313,4319.743652,4297.436035,4440.897461,4456.282227,4469.102539,4468.846191,4267.307617,4330.769043,4487.179688,4435.769043,4424.102539,4267.94873,4770.0,4312.94873,4507.692383,4445.512695,4383.846191,4857.692383,4698.589844,3228.0,0.0,11.0,768.0,27192.0,,,,0.0,4.0,4.0,4.0,4.0,4.0,4.0,4.0,4.0,4.0,4.0,4.0,4.0,4.0,4.0,4.0,4.0,4.0,4.0,4.0,4.0,4.0,4.0,4.0,4.0,4.0,4.0,4.0,4.0,4.0,4.0,4.0,4.0,100.0,,,,,,,,,,,,,,,,,,,,,,,,,,,,,,,,,,,5460.0,0.0,0.293995,0.788086,0.518921,0.152344,0.912221,-0.286168,-0.395556,22.833334,-20.666666,39.5,,,,,,,,,,,,,,,,,,,,,,,,,,,,,,,,,,,,,,,,,,,,,,,,,,,,,,,,,,,,,,,,,,,,,,,,,,,,,,,,,,,,,,,,,,,,,,,,,,,,,,,,,,,,,,,,,,,,,,,,,,,,,,,,,,,,,,,,,,,,,,,,,,,,,,,,,,,,,,,,
1763976010.77372,21842.0,0.0,4278.589844,4284.871582,4426.025879,4571.666504,4322.692383,4439.871582,4427.307617,4307.563965,4808.333496,4313.077148,4379.102539,4409.102539,4455.0,4304.871582,4275.641113,4420.897461,4433.205078,4454.871582,4464.487305,4251.025879,4313.461426,4474.487305,4413.461426,4422.563965,4257.179688,4755.0,4292.307617,4472.820313,4414.615234,4356.153809,4838.077148,4671.666504,2927.0,0.0,11.0,1024.0,27199.0,,,,0.0,4.0,4.0,4.0,4.0,4.0,4.0,4.0,4.0,4.0,4.0,4.0,4.0,4.0,4.0,4.0,4.0,4.0,4.0,4.0,4.0,4.0,4.0,4.0,4.0,4.0,4.0,4.0,4.0,4.0,4.0,4.0,4.0,100.0,,,,,,,,,,,,,,,,,,,,,,,,,,,,,,,,,,,,,,,,,,,,,,,,,,,,,,,,,,,,,,,,,,,,,,,,,,,,,,,,,,,,,,,,,,,,,,,,,,,,,,,,,,,,,,,,,,,,,,,,,,,,,,,,,,,,,,,,,,,,,,,,,,,,,,,,,,,,,,,,,,,,,,,,,,,,,,,,,,,,,,,,,,,,,,,,,,,,,,,,,,,,,,
1763976010.777626,21843.0,0.0,4295.512695,4302.563965,4431.410156,4588.077148,4334.615234,4457.563965,4438.461426,4316.922852,4842.94873,4396.666504,4395.641113,4427.692383,4470.897461,4321.538574,4292.436035,4443.077148,4452.307617,4477.820313,4485.641113,4278.205078,4337.179688,4504.871582,4436.410156,4462.179688,4308.589844,4790.769043,4309.230957,4481.922852,4428.077148,4374.358887,4868.077148,4684.230957,3053.0,0.0,11.0,1024.0,27199.0,,,,0.0,4.0,4.0,4.0,4.0,4.0,4.0,4.0,4.0,4.0,4.0,4.0,4.0,4.0,4.0,4.0,4.0,4.0,4.0,4.0,4.0,4.0,4.0,4.0,4.0,4.0,4.0,4.0,4.0,4.0,4.0,4.0,4.0,100.0,,,,,,,,,,,,,,,,,,,,,,,,,,,,,,,,,,,,,,,,,,,,,,,,,,,,,,,,,,,,,,,,,,,,,,,,,,,,,,,,,,,,,,,,,,,,,,,,,,,,,,,,,,,,,,,,,,,,,,,,,,,,,,,,,,,,,,,,,,,,,,,,,,,,,,,,,,,,,,,,,,,,,,,,,,,,,,,,,,,,,,,,,,,,,,,,,,,,,,,,,,,,,,
1763976010.781532,21844.0,0.0,4346.025879,4354.102539,4473.205078,4634.743652,4376.538574,4501.794922,4494.615234,4366.922852,4907.563965,4457.820313,4451.153809,4479.743652,4521.025879,4360.384766,4337.307617,4493.461426,4502.436035,4521.666504,4514.230957,4330.384766,4388.974121,4559.615234,4492.692383,4516.794922,4388.461426,4852.436035,4352.94873,4531.153809,4479.102539,4428.974121,4929.230957,4729.743652,3094.0,0.0,11.0,256.0,27207.0,,,,0.0,4.0,4.0,4.0,4.0,4.0,4.0,4.0,4.0,4.0,4.0,4.0,4.0,4.0,4.0,4.0,4.0,4.0,4.0,4.0,4.0,4.0,4.0,4.0,4.0,4.0,4.0,4.0,4.0,4.0,4.0,4.0,4.0,100.0,,,,,,,,,,,,,,,,,,,,,,,,,,,,,,,,,,,,,,,,,,,,,,,,,,,,,,,,,,,,,,,,,,,,,,,,,,,,,,,,,,,,,,,,,,,,,,,,,,,,,,,,,,,,,,,,,,,,,,,,,,,,,,,,,,,,,,,,,,,,,,,,,,,,,,,,,,,,,,,,,,,,,,,,,,,,,,,,,,,,,,,,,,,,,,,,,,,,,,,,,,,,,,
1763976010.785438,21845.0,0.0,4401.666504,4409.743652,4527.307617,4687.307617,4424.871582,4547.692383,4565.0,4433.077148,4965.897461,4450.0,4516.538574,4536.794922,4577.820313,4397.307617,4383.205078,4540.897461,4556.282227,4561.922852,4535.384766,4374.102539,4438.461426,4609.230957,4552.94873,4557.05127,4446.153809,4903.205078,4400.769043,4593.333496,4538.205078,4489.743652,4986.794922,4780.897461,3030.0,0.0,11.0,256.0,27207.0,,,,0.0,4.0,4.0,4.0,4.0,4.0,4.0,4.0,4.0,4.0,4.0,4.0,4.0,4.0,4.0,4.0,4.0,4.0,4.0,4.0,4.0,4.0,4.0,4.0,4.0,4.0,4.0,4.0,4.0,4.0,4.0,4.0,4.0,100.0,,,,,,,,,,,,,,,,,,,,,,,,,,,,,,,,,,,5461.0,0.0,0.293659,0.788086,0.519165,0.152161,0.912221,-0.286168,-0.395556,22.166666,-21.666666,38.833332,,,,,,,,,,,,,,,,,,,,,,,,,,,,,,,,,,,,,,,,,,,,,,,,,,,,,,,,,,,,,,,,,,,,,,,,,,,,,,,,,,,,,,,,,,,,,,,,,,,,,,,,,,,,,,,,,,,,,,,,,,,,,,,,,,,,,,,,,,,,,,,,,,,,,,,,,,,,,,,,
1763976010.789344,21846.0,0.0,4432.563965,4438.077148,4563.589844,4719.230957,4451.538574,4569.743652,4610.769043,4478.717773,4986.410156,4383.589844,4558.846191,4569.487305,4612.94873,4410.512695,4403.333496,4559.615234,4588.461426,4582.436035,4548.846191,4383.077148,4459.230957,4632.436035,4587.179688,4567.563965,4450.384766,4916.538574,4428.974121,4633.205078,4571.538574,4523.205078,5012.436035,4809.871582,3040.0,0.0,11.0,256.0,27215.0,,,,0.0,4.0,4.0,4.0,4.0,4.0,4.0,4.0,4.0,4.0,4.0,4.0,4.0,4.0,4.0,4.0,4.0,4.0,4.0,4.0,4.0,4.0,4.0,4.0,4.0,4.0,4.0,4.0,4.0,4.0,4.0,4.0,4.0,100.0,,,,,,,,,,,,,,,,,,,,,,,,,,,,,,,,,,,,,,,,,,,,,,,,,,,,,,,,,,,,,,,,,,,,,,,,,,,,,,,,,,,,,,,,,,,,,,,,,,,,,,,,,,,,,,,,,,,,,,,,,,,,,,,,,,,,,,,,,,,,,,,,,,,,,,,,,,,,,,,,,,,,,,,,,,,,,,,,,,,,,,,,,,,,,,,,,,,,,,,,,,,,,,
1763976010.79325,21847.0,0.0,4426.410156,4427.05127,4564.615234,4716.538574,4443.589844,4558.846191,4610.128418,4478.589844,4962.692383,4314.102539,4559.487305,4565.512695,4614.102539,4397.05127,4389.358887,4546.922852,4589.871582,4582.820313,4562.179688,4357.179688,4446.025879,4627.05127,4583.589844,4553.077148,4408.974121,4891.153809,4425.897461,4630.384766,4563.333496,4513.589844,5000.384766,4806.794922,2998.0,0.0,11.0,256.0,27215.0,,,,0.0,4.0,4.0,4.0,4.0,4.0,4.0,4.0,4.0,4.0,4.0,4.0,4.0,4.0,4.0,4.0,4.0,4.0,4.0,4.0,4.0,4.0,4.0,4.0,4.0,4.0,4.0,4.0,4.0,4.0,4.0,4.0,4.0,100.0,,,,,,,,,,,,,,,,,,,,,,,,,,,,,,,,,,,,,,,,,,,,,,,,,,,,,,,,,,,,,,,,,,,,,,,,,,,,,,,,,,,,,,,,,,,,,,,,,,,,,,,,,,,,,,,,,,,,,,,,,,,,,,,,,,,,,,,,,,,,,,,,,,,,,,,,,,,,,,,,,,,,,,,,,,,,,,,,,,,,,,,,,,,,,,,,,,,,,,,,,,,,,,
1763976010.797256,21848.0,0.0,4394.743652,4390.384766,4535.769043,4686.922852,4411.410156,4527.563965,4572.179688,4438.461426,4917.436035,4293.205078,4526.025879,4536.153809,4590.384766,4372.436035,4356.410156,4521.410156,4570.641113,4573.589844,4576.538574,4321.153809,4414.615234,4606.794922,4553.333496,4530.384766,4359.102539,4850.0,4398.974121,4592.307617,4525.384766,4472.692383,4969.615234,4783.589844,2959.0,0.0,11.0,512.0,27223.0,,,,0.0,4.0,4.0,4.0,4.0,4.0,4.0,4.0,4.0,4.0,4.0,4.0,4.0,4.0,4.0,4.0,4.0,4.0,4.0,4.0,4.0,4.0,4.0,4.0,4.0,4.0,4.0,4.0,4.0,4.0,4.0,4.0,4.0,100.0,,,,,,,,,,,,,,,,,,,,,,,,,,,,,,,,,,,,,,,,,,,,,,,,,,,,,,,,,,,,,,,,,,,,,,,,,,,,,,,,,,,,,,,,,,,,,,,,,,,,,,,,,,,,,,,,,,,,,,,,,,,,,,,,,,,,,,,,,,,,,,,,,,,,,,,,,,,,,,,,,,,,,,,,,,,,,,,,,,,,,,,,,,,,,,,,,,,,,,,,,,,,,,
1763976010.801162,21849.0,0.0,4362.179688,4355.256348,4499.230957,4654.230957,4378.846191,4498.717773,4526.922852,4389.102539,4884.358887,4327.179688,4483.461426,4504.487305,4562.05127,4355.384766,4328.974121,4503.846191,4548.205078,4562.820313,4578.846191,4303.461426,4385.128418,4586.538574,4520.384766,4513.974121,4337.05127,4823.077148,4369.230957,4548.205078,4486.282227,4429.871582,4947.820313,4761.025879,2946.0,0.0,11.0,512.0,27223.0,,,,0.0,4.0,4.0,4.0,4.0,4.0,4.0,4.0,4.0,4.0,4.0,4.0,4.0,4.0,4.0,4.0,4.0,4.0,4.0,4.0,4.0,4.0,4.0,4.0,4.0,4.0,4.0,4.0,4.0,4.0,4.0,4.0,4.0,100.0,,,,,,,,,,,,,,,,,,,,,,,,,,,,,,,,,,,5462.0,0.0,0.293129,0.788025,0.519592,0.152039,0.911244,-0.294958,-0.364302,24.5,-19.833334,37.833332,,,,,,,,,,,,,,,,,,,,,,,,,,,,,,,,,,,,,,,,,,,,,,,,,,,,,,,,,,,,,,,,,,,,,,,,,,,,,,,,,,,,,,,,,,,,,,,,,,,,,,,,,,,,,,,,,,,,,,,,,,,,,,,,,,,,,,,,,,,,,,,,,,,,,,,,,,,,,,,,
1763976010.805068,21850.0,0.0,4346.666504,4340.769043,4478.461426,4639.615234,4363.846191,4487.820313,4500.641113,4361.794922,4883.333496,4376.666504,4456.282227,4487.436035,4542.94873,4352.05127,4321.025879,4499.615234,4533.077148,4549.871582,4553.077148,4311.922852,4366.025879,4571.282227,4502.179688,4504.871582,4348.974121,4824.487305,4355.641113,4525.769043,4468.461426,4409.615234,4950.0,4752.563965,2870.0,0.0,11.0,768.0,27231.0,,,,0.0,4.0,4.0,4.0,4.0,4.0,4.0,4.0,4.0,4.0,4.0,4.0,4.0,4.0,4.0,4.0,4.0,4.0,4.0,4.0,4.0,4.0,4.0,4.0,4.0,4.0,4.0,4.0,4.0,4.0,4.0,4.0,4.0,100.0,,,,,,,,,,,,,,,,,,,,,,,,,,,,,,,,,,,,,,,,,,,,,,,,,,,,,,,,,,,,,,,,,,,,,,,,,,,,,,,,,,,,,,,,,,,,,,,,,,,,,,,,,,,,,,,,,,,,,,,,,,,,,,,,,,,,,,,,,,,,,,,,,,,,,,,,,,,,,,,,,,,,,,,,,,,,,,,,,,,,,,,,,,,,,,,,,,,,,,,,,,,,,,
1763976010.808974,21851.0,0.0,4349.102539,4346.538574,4481.794922,4646.666504,4367.692383,4494.487305,4499.487305,4365.897461,4906.794922,4395.512695,4452.05127,4486.153809,4534.230957,4355.256348,4328.077148,4499.102539,4525.384766,4531.538574,4501.282227,4330.769043,4354.230957,4558.077148,4501.025879,4495.384766,4369.487305,4843.717773,4362.692383,4532.179688,4474.615234,4415.384766,4968.205078,4756.538574,3096.0,0.0,11.0,768.0,27231.0,,,,0.0,4.0,4.0,4.0,4.0,4.0,4.0,4.0,4.0,4.0,4.0,4.0,4.0,4.0,4.0,4.0,4.0,4.0,4.0,4.0,4.0,4.0,4.0,4.0,4.0,4.0,4.0,4.0,4.0,4.0,4.0,4.0,4.0,100.0,,,,,,,,,,,,,,,,,,,,,,,,,,,,,,,,,,,,,,,,,,,,,,,,,,,,,,,,,,,,,,,,,,,,,,,,,,,,,,,,,,,,,,,,,,,,,,,,,,,,,,,,,,,,,,,,,,,,,,,,,,,,,,,,,,,,,,,,,,,,,,,,,,,,,,,,,,,,,,,,,,,,,,,,,,,,,,,,,,,,,,,,,,,,,,,,,,,,,,,,,,,,,,
1763976010.81288,21852.0,0.0,4359.871582,4359.358887,4500.769043,4663.461426,4380.641113,4508.461426,4512.05127,4388.461426,4932.05127,4372.563965,4462.94873,4491.922852,4531.410156,4356.410156,4337.05127,4493.974121,4521.410156,4512.307617,4452.05127,4338.077148,4346.538574,4545.897461,4508.846191,4482.692383,4369.871582,4858.461426,4381.025879,4555.128418,4492.179688,4433.333496,4982.820313,4762.692383,3042.0,0.0,11.0,1024.0,27239.0,,,,0.0,4.0,4.0,4.0,4.0,4.0,4.0,4.0,4.0,4.0,4.0,4.0,4.0,4.0,4.0,4.0,4.0,4.0,4.0,4.0,4.0,4.0,4.0,4.0,4.0,4.0,4.0,4.0,4.0,4.0,4.0,4.0,4.0,100.0,,,,,,,,,,,,,,,,,,,,,,,,,,,,,,,,,,,,,,,,,,,,,,,,,,,,,,,,,,,,,,,,,,,,,,,,,,,,,,,,,,,,,,,,,,,,,,,,,,,,,,,,,,,,,,,,,,,,,,,,,,,,,,,,,,,,,,,,,,,,,,,,,,,,,,,,,,,,,,,,,,,,,,,,,,,,,,,,,,,,,,,,,,,,,,,,,,,,,,,,,,,,,,
1763976010.816786,21853.0,0.0,4370.512695,4368.077148,4520.0,4677.436035,4392.94873,4521.025879,4525.641113,4411.666504,4942.94873,4339.102539,4477.692383,4498.717773,4533.974121,4356.153809,4341.538574,4488.589844,4522.307617,4506.153809,4442.820313,4327.692383,4347.692383,4542.820313,4519.230957,4476.282227,4347.436035,4856.410156,4398.333496,4577.563965,4508.205078,4448.589844,4982.820313,4765.256348,2917.0,0.0,11.0,1024.0,27239.0,,,,0.0,4.0,4.0,4.0,4.0,4.0,4.0,4.0,4.0,4.0,4.0,4.0,4.0,4.0,4.0,4.0,4.0,4.0,4.0,4.0,4.0,4.0,4.0,4.0,4.0,4.0,4.0,4.0,4.0,4.0,4.0,4.0,4.0,100.0,,,,,,,,,,,,,,,,,,,,,,,,,,,,,,,,,,,5463.0,0.0,0.29239,0.787964,0.519958,0.152527,0.923941,-0.283238,-0.314003,24.5,-19.833334,37.833332,,,,,,,,,,,,,,,,,,,,,,,,,,,,,,,,,,,,,,,,,,,,,,,,,,,,,,,,,,,,,,,,,,,,,,,,,,,,,,,,,,,,,,,,,,,,,,,,,,,,,,,,,,,,,,,,,,,,,,,,,,,,,,,,,,,,,,,,,,,,,,,,,,,,,,,,,,,,,,,,
1763976010.820692,21854.0,0.0,4378.974121,4370.512695,4529.358887,4685.384766,4401.282227,4529.102539,4534.487305,4425.0,4939.487305,4336.153809,4488.846191,4505.641113,4543.205078,4359.743652,4343.589844,4492.692383,4531.153809,4521.922852,4486.282227,4310.384766,4362.436035,4556.025879,4529.871582,4486.538574,4326.538574,4844.358887,4406.410156,4589.487305,4517.307617,4454.615234,4973.205078,4765.897461,3100.0,0.0,11.0,1280.0,27246.0,,,,0.0,4.0,4.0,4.0,4.0,4.0,4.0,4.0,4.0,4.0,4.0,4.0,4.0,4.0,4.0,4.0,4.0,4.0,4.0,4.0,4.0,4.0,4.0,4.0,4.0,4.0,4.0,4.0,4.0,4.0,4.0,4.0,4.0,100.0,,,,,,,,,,,,,,,,,,,,,,,,,,,,,,,,,,,,,,,,,,,,,,,,,,,,,,,,,,,,,,,,,,,,,,,,,,,,,,,,,,,,,,,,,,,,,,,,,,,,,,,,,,,,,,,,,,,,,,,,,,,,,,,,,,,,,,,,,,,,,,,,,,,,,,,,,,,,,,,,,,,,,,,,,,,,,,,,,,,,,,,,,,,,,,,,,,,,,,,,,,,,,,
1763976010.824598,21855.0,0.0,4383.205078,4368.205078,4525.897461,4688.717773,4404.102539,4530.769043,4536.410156,4425.641113,4930.384766,4374.743652,4491.410156,4510.512695,4553.717773,4367.307617,4345.384766,4506.538574,4543.205078,4549.743652,4552.436035,4298.717773,4383.461426,4578.717773,4536.922852,4508.846191,4330.897461,4834.743652,4401.025879,4588.205078,4517.94873,4450.897461,4964.743652,4767.307617,3000.0,0.0,11.0,1280.0,27246.0,,,,0.0,4.0,4.0,4.0,4.0,4.0,4.0,4.0,4.0,4.0,4.0,4.0,4.0,4.0,4.0,4.0,4.0,4.0,4.0,4.0,4.0,4.0,4.0,4.0,4.0,4.0,4.0,4.0,4.0,4.0,4.0,4.0,4.0,100.0,,,,,,,,,,,,,,,,,,,,,,,,,,,,,,,,,,,,,,,,,,,,,,,,,,,,,,,,,,,,,,,,,,,,,,,,,,,,,,,,,,,,,,,,,,,,,,,,,,,,,,,,,,,,,,,,,,,,,,,,,,,,,,,,,,,,,,,,,,,,,,,,,,,,,,,,,,,,,,,,,,,,,,,,,,,,,,,,,,,,,,,,,,,,,,,,,,,,,,,,,,,,,,
1763976010.828504,21856.0,0.0,4378.461426,4360.897461,4512.436035,4686.025879,4399.230957,4523.589844,4528.461426,4412.94873,4920.128418,4426.666504,4480.641113,4507.436035,4552.820313,4370.897461,4343.589844,4517.436035,4545.897461,4564.230957,4587.563965,4295.256348,4392.820313,4590.384766,4532.436035,4523.461426,4359.358887,4832.563965,4380.897461,4573.333496,4508.589844,4438.333496,4961.538574,4767.307617,2877.0,0.0,11.0,1536.0,27254.0,,,,0.0,4.0,4.0,4.0,4.0,4.0,4.0,4.0,4.0,4.0,4.0,4.0,4.0,4.0,4.0,4.0,4.0,4.0,4.0,4.0,4.0,4.0,4.0,4.0,4.0,4.0,4.0,4.0,4.0,4.0,4.0,4.0,4.0,100.0,,,,,,,,,,,,,,,,,,,,,,,,,,,,,,,,,,,,,,,,,,,,,,,,,,,,,,,,,,,,,,,,,,,,,,,,,,,,,,,,,,,,,,,,,,,,,,,,,,,,,,,,,,,,,,,,,,,,,,,,,,,,,,,,,,,,,,,,,,,,,,,,,,,,,,,,,,,,,,,,,,,,,,,,,,,,,,,,,,,,,,,,,,,,,,,,,,,,,,,,,,,,,,
1763976010.83241,21857.0,0.0,4362.563965,4348.846191,4493.974121,4675.512695,4387.05127,4508.205078,4511.153809,4390.641113,4908.077148,4450.512695,4457.563965,4492.692383,4533.717773,4363.846191,4334.871582,4512.820313,4529.871582,4548.205078,4558.333496,4295.256348,4377.820313,4575.0,4513.077148,4513.974121,4389.102539,4832.692383,4350.897461,4548.077148,4490.128418,4420.512695,4960.128418,4762.820313,2941.0,0.0,11.0,1536.0,27254.0,,,,0.0,4.0,4.0,4.0,4.0,4.0,4.0,4.0,4.0,4.0,4.0,4.0,4.0,4.0,4.0,4.0,4.0,4.0,4.0,4.0,4.0,4.0,4.0,4.0,4.0,4.0,4.0,4.0,4.0,4.0,4.0,4.0,4.0,100.0,,,,,,,,,,,,,,,,,,,,,,,,,,,,,,,,,,,5464.0,0.0,0.291638,0.787842,0.520386,0.153137,0.916616,-0.31791,-0.310585,22.166666,-19.666666,38.833332,,,,,,,,,,,,,,,,,,,,,,,,,,,,,,,,,,,,,,,,,,,,,,,,,,,,,,,,,,,,,,,,,,,,,,,,,,,,,,,,,,,,,,,,,,,,,,,,,,,,,,,,,,,,,,,,,,,,,,,,,,,,,,,,,,,,,,,,,,,,,,,,,,,,,,,,,,,,,,,,
1763976010.836316,21858.0,0.0,4342.820313,4337.563965,4479.230957,4661.922852,4374.102539,4492.820313,4493.589844,4370.128418,4895.897461,4427.563965,4433.846191,4472.563965,4505.897461,4350.256348,4323.589844,4494.358887,4501.282227,4510.512695,4482.563965,4295.897461,4345.769043,4538.461426,4487.692383,4484.743652,4398.846191,4830.256348,4325.384766,4523.461426,4470.769043,4406.410156,4958.846191,4756.794922,2312.0,0.0,11.0,1792.0,27262.0,,,,0.0,4.0,4.0,4.0,4.0,4.0,4.0,4.0,4.0,4.0,4.0,4.0,4.0,4.0,4.0,4.0,4.0,4.0,4.0,4.0,4.0,4.0,4.0,4.0,4.0,4.0,4.0,4.0,4.0,4.0,4.0,4.0,4.0,100.0,,,,,,,,,,,,,,,,,,,,,,,,,,,,,,,,,,,,,,,,,,,,,,,,,,,,,,,,,,,,,,,,,,,,,,,,,,,,,,,,,,,,,,,,,,,,,,,,,,,,,,,,,,,,,,,,,,,,,,,,,,,,,,,,,,,,,,,,,,,,,,,,,,,,,,,,,,,,,,,,,,,,,,,,,,,,,,,,,,,,,,,,,,,,,,,,,,,,,,,,,,,,,,
1763976010.840222,21859.0,0.0,4332.820313,4335.769043,4477.436035,4656.538574,4370.0,4488.589844,4488.589844,4365.897461,4889.871582,4374.487305,4426.410156,4461.153809,4490.128418,4342.820313,4320.256348,4478.077148,4480.128418,4481.410156,4416.282227,4299.615234,4320.0,4506.794922,4473.974121,4458.589844,4386.538574,4826.794922,4319.871582,4514.230957,4463.461426,4406.410156,4961.794922,4758.205078,3023.0,0.0,11.0,1792.0,27262.0,,,,0.0,4.0,4.0,4.0,4.0,4.0,4.0,4.0,4.0,4.0,4.0,4.0,4.0,4.0,4.0,4.0,4.0,4.0,4.0,4.0,4.0,4.0,4.0,4.0,4.0,4.0,4.0,4.0,4.0,4.0,4.0,4.0,4.0,100.0,,,,,,,,,,,,,,,,,,,,,,,,,,,,,,,,,,,,,,,,,,,,,,,,,,,,,,,,,,,,,,,,,,,,,,,,,,,,,,,,,,,,,,,,,,,,,,,,,,,,,,,,,,,,,,,,,,,,,,,,,,,,,,,,,,,,,,,,,,,,,,,,,,,,,,,,,,,,,,,,,,,,,,,,,,,,,,,,,,,,,,,,,,,,,,,,,,,,,,,,,,,,,,
1763976010.844128,21860.0,0.0,4341.282227,4348.333496,4492.94873,4667.94873,4379.871582,4500.897461,4502.820313,4384.358887,4895.897461,4328.717773,4443.974121,4469.102539,4500.897461,4351.794922,4332.307617,4479.487305,4482.94873,4486.282227,4408.333496,4309.102539,4321.666504,4504.615234,4483.205078,4457.05127,4368.205078,4827.563965,4340.384766,4528.205078,4475.256348,4424.230957,4974.102539,4773.974121,2930.0,0.0,11.0,2048.0,27270.0,,,,0.0,4.0,4.0,4.0,4.0,4.0,4.0,4.0,4.0,4.0,4.0,4.0,4.0,4.0,4.0,4.0,4.0,4.0,4.0,4.0,4.0,4.0,4.0,4.0,4.0,4.0,4.0,4.0,4.0,4.0,4.0,4.0,4.0,100.0,,,,,,,,,,,,,,,,,,,,,,,,,,,,,,,,,,,,,,,,,,,,,,,,,,,,,,,,,,,,,,,,,,,,,,,,,,,,,,,,,,,,,,,,,,,,,,,,,,,,,,,,,,,,,,,,,,,,,,,,,,,,,,,,,,,,,,,,,,,,,,,,,,,,,,,,,,,,,,,,,,,,,,,,,,,,,,,,,,,,,,,,,,,,,,,,,,,,,,,,,,,,,,
1763976010.848034,21861.0,0.0,4365.384766,4372.307617,4522.05127,4694.743652,4400.641113,4524.358887,4531.153809,4417.94873,4913.077148,4319.743652,4479.230957,4495.256348,4534.871582,4375.769043,4356.538574,4501.025879,4511.025879,4524.743652,4463.974121,4322.563965,4352.692383,4536.153809,4511.922852,4483.077148,4360.512695,4835.641113,4378.589844,4559.615234,4501.282227,4452.307617,4996.025879,4802.563965,2409.0,0.0,11.0,2048.0,27270.0,,,,0.0,4.0,4.0,4.0,4.0,4.0,4.0,4.0,4.0,4.0,4.0,4.0,4.0,4.0,4.0,4.0,4.0,4.0,4.0,4.0,4.0,4.0,4.0,4.0,4.0,4.0,4.0,4.0,4.0,4.0,4.0,4.0,4.0,100.0,,,,,,,,,,,,,,,,,,,,,,,,,,,,,,,,,,,5465.0,0.0,0.290902,0.787537,0.520935,0.154236,0.905384,-0.298376,-0.282749,23.833334,-21.666666,38.5,,,,,,,,,,,,,,,,,,,,,,,,,,,,,,,,,,,,,,,,,,,,,,,,,,,,,,,,,,,,,,,,,,,,,,,,,,,,,,,,,,,,,,,,,,,,,,,,,,,,,,,,,,,,,,,,,,,,,,,,,,,,,,,,,,,,,,,,,,,,,,,,,,,,,,,,,,,,,,,,
1763976010.85194,21862.0,0.0,4393.077148,4397.179688,4553.333496,4725.128418,4423.846191,4547.820313,4561.153809,4449.871582,4934.871582,4350.0,4515.128418,4527.307617,4574.230957,4402.692383,4380.897461,4530.256348,4548.846191,4572.436035,4545.0,4332.94873,4394.871582,4582.820313,4544.102539,4520.512695,4366.794922,4847.94873,4417.94873,4593.333496,4528.589844,4477.179688,5020.512695,4832.820313,3040.0,0.0,11.0,2304.0,27278.0,,,,0.0,4.0,4.0,4.0,4.0,4.0,4.0,4.0,4.0,4.0,4.0,4.0,4.0,4.0,4.0,4.0,4.0,4.0,4.0,4.0,4.0,4.0,4.0,4.0,4.0,4.0,4.0,4.0,4.0,4.0,4.0,4.0,4.0,100.0,,,,,,,,,,,,,,,,,,,,,,,,,,,,,,,,,,,,,,,,,,,,,,,,,,,,,,,,,,,,,,,,,,,,,,,,,,,,,,,,,,,,,,,,,,,,,,,,,,,,,,,,,,,,,,,,,,,,,,,,,,,,,,,,,,,,,,,,,,,,,,,,,,,,,,,,,,,,,,,,,,,,,,,,,,,,,,,,,,,,,,,,,,,,,,,,,,,,,,,,,,,,,,
1763976010.855846,21863.0,0.0,4410.0,4411.025879,4571.666504,4743.717773,4438.333496,4559.487305,4579.487305,4464.230957,4951.282227,4395.384766,4535.512695,4549.615234,4599.102539,4416.922852,4391.282227,4548.333496,4576.025879,4600.0,4601.153809,4332.94873,4422.563965,4617.307617,4562.820313,4546.153809,4377.179688,4856.666504,4441.410156,4613.333496,4542.692383,4486.538574,5035.128418,4849.230957,3011.0,0.0,11.0,2304.0,27278.0,,,,0.0,4.0,4.0,4.0,4.0,4.0,4.0,4.0,4.0,4.0,4.0,4.0,4.0,4.0,4.0,4.0,4.0,4.0,4.0,4.0,4.0,4.0,4.0,4.0,4.0,4.0,4.0,4.0,4.0,4.0,4.0,4.0,4.0,100.0,,,,,,,,,,,,,,,,,,,,,,,,,,,,,,,,,,,,,,,,,,,,,,,,,,,,,,,,,,,,,,,,,,,,,,,,,,,,,,,,,,,,,,,,,,,,,,,,,,,,,,,,,,,,,,,,,,,,,,,,,,,,,,,,,,,,,,,,,,,,,,,,,,,,,,,,,,,,,,,,,,,,,,,,,,,,,,,,,,,,,,,,,,,,,,,,,,,,,,,,,,,,,,
1763976010.859752,21864.0,0.0,4406.794922,4404.615234,4564.102539,4738.461426,4434.743652,4552.05127,4577.820313,4451.666504,4950.769043,4423.333496,4533.077148,4550.512695,4598.205078,4409.615234,4379.102539,4543.077148,4578.717773,4591.794922,4603.717773,4318.589844,4419.615234,4621.025879,4558.077148,4544.615234,4378.077148,4852.820313,4436.153809,4609.871582,4535.0,4473.717773,5028.333496,4839.487305,2695.0,0.0,11.0,1792.0,27285.0,,,,0.0,4.0,4.0,4.0,4.0,4.0,4.0,4.0,4.0,4.0,4.0,4.0,4.0,4.0,4.0,4.0,4.0,4.0,4.0,4.0,4.0,4.0,4.0,4.0,4.0,4.0,4.0,4.0,4.0,4.0,4.0,4.0,4.0,100.0,,,,,,,,,,,,,,,,,,,,,,,,,,,,,,,,,,,,,,,,,,,,,,,5.299378,12.07645,11.830097,10.734097,8.45494,5.009562,16.01734,13.663676,11.350682,8.219621,5.834557,17.277325,18.82906,12.635002,9.071585,4.293215,15.753611,15.368111,13.097004,10.348386,4.777335,11.163366,10.056913,8.167948,5.858103,3.660461,12.085967,6.850218,6.268567,5.931176,4.657663,12.992736,11.138079,10.997821,10.087334,6.123668,15.485098,13.879398,15.112326,10.509602,10.485143,15.701147,12.59622,11.95452,12.196799,2.822056,11.118131,14.872687,21.531706,36.257992,4.761398,9.881124,11.048723,11.763483,12.154959,4.52112,11.219791,10.029273,10.669678,8.71031,5.059337,14.840422,17.401178,12.69791,10.959286,7.896361,9.636698,5.896107,8.368286,11.395336,2.491793,6.689018,8.86047,7.563182,9.969123,6.641598,11.015787,16.356209,15.1857,11.407979,4.396074,11.613412,18.8151,11.108741,8.526361,1.977367,10.97645,21.590878,19.323088,10.713601,4.420351,22.733093,33.432831,24.25873,15.288142,14.626097,11.120428,17.110477,11.713854,11.373599,4.151679,38.270851,40.506218,15.014918,11.091591,3.330315,26.317844,20.942701,14.546579,10.99729,3.832218,16.142593,12.732157,14.463471,10.059855,3.525001,22.9527,23.844023,12.783584,12.887152,6.509604,23.502954,32.244949,20.041653,25.989229,8.978143,21.241604,25.220736,13.504673,10.099841,5.362381,20.050619,19.582605,11.37631,9.464365,4.993578,17.524708,15.197283,14.768038,9.307665,4.803336,14.068386,14.209941,11.648876,8.741809,4.869335,16.603611,19.296675,11.25222,9.608582,7.974095,18.31979,22.554922,11.641692,10.802355,4.327498,16.797482,19.754652,11.358091,9.751143
1763976010.863658,21865.0,0.0,4383.717773,4377.94873,4528.974121,4707.94873,4411.282227,4527.179688,4555.512695,4415.128418,4926.538574,4416.025879,4511.025879,4528.717773,4574.358887,4383.974121,4347.692383,4516.025879,4557.307617,4553.717773,4559.102539,4293.461426,4388.461426,4593.846191,4532.05127,4517.05127,4364.871582,4832.179688,4401.666504,4583.205078,4507.05127,4441.922852,4997.94873,4805.384766,2895.0,0.0,11.0,1792.0,27285.0,,,,0.0,4.0,4.0,4.0,4.0,4.0,4.0,4.0,4.0,4.0,4.0,4.0,4.0,4.0,4.0,4.0,4.0,4.0,4.0,4.0,4.0,4.0,4.0,4.0,4.0,4.0,4.0,4.0,4.0,4.0,4.0,4.0,4.0,100.0,,,,,,,,,,,,,,,,,,,,,,,,,,,,,,,,,,,5466.0,0.0,0.290228,0.787109,0.521484,0.155823,0.908802,-0.323282,-0.293981,23.833334,-20.5,39.333332,,,,,,,,,,,,,,,,,,,,,,,,,,,,,,,,,,,,,,,,,,,,,,,,,,,,,,,,,,,,,,,,,,,,,,,,,,,,,,,,,,,,,,,,,,,,,,,,,,,,,,,,,,,,,,,,,,,,,,,,,,,,,,,,,,,,,,,,,,,,,,,,,,,,,,,,,,,,,,,,
1763976010.867565,21866.0,0.0,4352.307617,4343.589844,4482.563965,4666.538574,4378.205078,4496.282227,4522.05127,4371.153809,4885.512695,4383.974121,4481.025879,4495.769043,4543.077148,4355.0,4312.94873,4483.333496,4525.256348,4508.589844,4498.205078,4269.871582,4349.487305,4553.333496,4498.974121,4480.769043,4344.487305,4801.410156,4354.230957,4546.025879,4472.563965,4405.769043,4958.461426,4765.769043,2649.0,0.0,11.0,768.0,27293.0,,,,0.0,4.0,4.0,4.0,4.0,4.0,4.0,4.0,4.0,4.0,4.0,4.0,4.0,4.0,4.0,4.0,4.0,4.0,4.0,4.0,4.0,4.0,4.0,4.0,4.0,4.0,4.0,4.0,4.0,4.0,4.0,4.0,4.0,100.0,,,,,,,,,,,,,,,,,,,,,,,,,,,,,,,,,,,,,,,,,,,,,,,,,,,,,,,,,,,,,,,,,,,,,,,,,,,,,,,,,,,,,,,,,,,,,,,,,,,,,,,,,,,,,,,,,,,,,,,,,,,,,,,,,,,,,,,,,,,,,,,,,,,,,,,,,,,,,,,,,,,,,,,,,,,,,,,,,,,,,,,,,,,,,,,,,,,,,,,,,,,,,,
1763976010.871471,21867.0,0.0,4330.384766,4320.384766,4451.282227,4638.717773,4354.102539,4476.666504,4494.743652,4342.692383,4849.358887,4357.179688,4458.077148,4470.0,4522.820313,4340.128418,4295.128418,4464.615234,4501.538574,4481.794922,4454.743652,4261.922852,4326.410156,4523.205078,4477.05127,4457.436035,4328.077148,4776.666504,4322.563965,4518.974121,4450.384766,4384.615234,4933.589844,4744.102539,3038.0,0.0,11.0,768.0,27293.0,,,,0.0,4.0,4.0,4.0,4.0,4.0,4.0,4.0,4.0,4.0,4.0,4.0,4.0,4.0,4.0,4.0,4.0,4.0,4.0,4.0,4.0,4.0,4.0,4.0,4.0,4.0,4.0,4.0,4.0,4.0,4.0,4.0,4.0,100.0,,,,,,,,,,,,,,,,,,,,,,,,,,,,,,,,,,,,,,,,,,,,,,,,,,,,,,,,,,,,,,,,,,,,,,,,,,,,,,,,,,,,,,,,,,,,,,,,,,,,,,,,,,,,,,,,,,,,,,,,,,,,,,,,,,,,,,,,,,,,,,,,,,,,,,,,,,,,,,,,,,,,,,,,,,,,,,,,,,,,,,,,,,,,,,,,,,,,,,,,,,,,,,
1763976010.875377,21868.0,0.0,4330.641113,4320.897461,4453.077148,4641.538574,4352.820313,4478.974121,4487.307617,4343.974121,4840.0,4359.743652,4452.692383,4464.871582,4523.205078,4347.307617,4304.615234,4469.487305,4498.589844,4484.871582,4445.128418,4274.358887,4331.153809,4518.461426,4478.589844,4459.615234,4323.077148,4771.538574,4327.436035,4517.307617,4451.922852,4390.0,4940.0,4751.282227,3012.0,0.0,11.0,256.0,27301.0,,,,0.0,4.0,4.0,4.0,4.0,4.0,4.0,4.0,4.0,4.0,4.0,4.0,4.0,4.0,4.0,4.0,4.0,4.0,4.0,4.0,4.0,4.0,4.0,4.0,4.0,4.0,4.0,4.0,4.0,4.0,4.0,4.0,4.0,100.0,,,,,,,,,,,,,,,,,,,,,,,,,,,,,,,,,,,,,,,,,,,,,,,,,,,,,,,,,,,,,,,,,,,,,,,,,,,,,,,,,,,,,,,,,,,,,,,,,,,,,,,,,,,,,,,,,,,,,,,,,,,,,,,,,,,,,,,,,,,,,,,,,,,,,,,,,,,,,,,,,,,,,,,,,,,,,,,,,,,,,,,,,,,,,,,,,,,,,,,,,,,,,,
1763976010.879283,21869.0,0.0,4351.922852,4342.820313,4485.256348,4673.077148,4374.102539,4500.897461,4502.563965,4370.769043,4862.307617,4387.692383,4465.256348,4481.153809,4539.871582,4370.256348,4334.102539,4492.05127,4515.512695,4511.538574,4464.743652,4298.846191,4357.94873,4537.692383,4501.666504,4483.846191,4331.794922,4787.692383,4365.384766,4541.153809,4474.358887,4416.794922,4972.820313,4779.230957,2664.0,0.0,11.0,256.0,27301.0,,,,0.0,4.0,4.0,4.0,4.0,4.0,4.0,4.0,4.0,4.0,4.0,4.0,4.0,4.0,4.0,4.0,4.0,4.0,4.0,4.0,4.0,4.0,4.0,4.0,4.0,4.0,4.0,4.0,4.0,4.0,4.0,4.0,4.0,100.0,,,,,,,,,,,,,,,,,,,,,,,,,,,,,,,,,,,5467.0,0.0,0.28936,0.7854,0.523376,0.159668,0.930289,-0.311561,-0.307655,24.833334,-21.5,40.0,,,,,,,,,,,,,,,,,,,,,,,,,,,,,,,,,,,,,,,,,,,,,,,,,,,,,,,,,,,,,,,,,,,,,,,,,,,,,,,,,,,,,,,,,,,,,,,,,,,,,,,,,,,,,,,,,,,,,,,,,,,,,,,,,,,,,,,,,,,,,,,,,,,,,,,,,,,,,,,,
1763976010.883189,21870.0,0.0,4382.563965,4372.820313,4528.589844,4714.102539,4405.512695,4529.871582,4531.410156,4406.025879,4900.128418,4413.461426,4488.846191,4508.846191,4561.794922,4394.743652,4366.282227,4517.94873,4541.922852,4545.641113,4498.974121,4321.025879,4391.282227,4568.333496,4534.358887,4516.282227,4355.0,4815.897461,4411.794922,4576.794922,4504.487305,4448.846191,5011.153809,4810.0,2764.0,0.0,11.0,256.0,27309.0,,,,0.0,4.0,4.0,4.0,4.0,4.0,4.0,4.0,4.0,4.0,4.0,4.0,4.0,4.0,4.0,4.0,4.0,4.0,4.0,4.0,4.0,4.0,4.0,4.0,4.0,4.0,4.0,4.0,4.0,4.0,4.0,4.0,4.0,100.0,,,,,,,,,,,,,,,,,,,,,,,,,,,,,,,,,,,,,,,,,,,,,,,,,,,,,,,,,,,,,,,,,,,,,,,,,,,,,,,,,,,,,,,,,,,,,,,,,,,,,,,,,,,,,,,,,,,,,,,,,,,,,,,,,,,,,,,,,,,,,,,,,,,,,,,,,,,,,,,,,,,,,,,,,,,,,,,,,,,,,,,,,,,,,,,,,,,,,,,,,,,,,,
1763976010.887095,21871.0,0.0,4408.717773,4396.410156,4560.256348,4743.717773,4431.410156,4551.922852,4561.025879,4432.692383,4930.0,4410.641113,4513.974121,4535.0,4580.256348,4409.358887,4386.410156,4535.641113,4566.410156,4573.717773,4535.384766,4331.153809,4417.179688,4597.436035,4563.333496,4543.077148,4392.563965,4845.256348,4440.256348,4607.563965,4528.974121,4471.025879,5034.230957,4828.717773,2928.0,0.0,11.0,256.0,27309.0,,,,0.0,4.0,4.0,4.0,4.0,4.0,4.0,4.0,4.0,4.0,4.0,4.0,4.0,4.0,4.0,4.0,4.0,4.0,4.0,4.0,4.0,4.0,4.0,4.0,4.0,4.0,4.0,4.0,4.0,4.0,4.0,4.0,4.0,100.0,,,,,,,,,,,,,,,,,,,,,,,,,,,,,,,,,,,,,,,,,,,,,,,,,,,,,,,,,,,,,,,,,,,,,,,,,,,,,,,,,,,,,,,,,,,,,,,,,,,,,,,,,,,,,,,,,,,,,,,,,,,,,,,,,,,,,,,,,,,,,,,,,,,,,,,,,,,,,,,,,,,,,,,,,,,,,,,,,,,,,,,,,,,,,,,,,,,,,,,,,,,,,,
1763976010.8911,21872.0,0.0,4421.282227,4405.512695,4566.794922,4751.282227,4441.794922,4559.615234,4580.384766,4442.307617,4937.179688,4376.153809,4531.922852,4550.256348,4591.538574,4409.615234,4389.230957,4540.384766,4580.769043,4588.717773,4565.384766,4327.692383,4427.820313,4616.025879,4579.230957,4555.256348,4434.871582,4867.692383,4440.256348,4623.205078,4540.641113,4476.794922,5035.128418,4829.871582,3034.0,0.0,11.0,512.0,27317.0,,,,0.0,4.0,4.0,4.0,4.0,4.0,4.0,4.0,4.0,4.0,4.0,4.0,4.0,4.0,4.0,4.0,4.0,4.0,4.0,4.0,4.0,4.0,4.0,4.0,4.0,4.0,4.0,4.0,4.0,4.0,4.0,4.0,4.0,100.0,,,,,,,,,,,,,,,,,,,,,,,,,,,,,,,,,,,,,,,,,,,,,,,,,,,,,,,,,,,,,,,,,,,,,,,,,,,,,,,,,,,,,,,,,,,,,,,,,,,,,,,,,,,,,,,,,,,,,,,,,,,,,,,,,,,,,,,,,,,,,,,,,,,,,,,,,,,,,,,,,,,,,,,,,,,,,,,,,,,,,,,,,,,,,,,,,,,,,,,,,,,,,,
1763976010.895006,21873.0,0.0,4417.05127,4398.717773,4549.230957,4739.102539,4434.743652,4551.666504,4582.05127,4434.358887,4922.05127,4331.666504,4534.487305,4549.230957,4592.436035,4397.563965,4377.307617,4532.307617,4580.384766,4587.94873,4580.0,4313.205078,4420.897461,4619.102539,4577.179688,4549.871582,4457.436035,4875.641113,4419.615234,4621.153809,4536.922852,4467.94873,5019.743652,4817.563965,3142.0,0.0,11.0,512.0,27317.0,,,,0.0,4.0,4.0,4.0,4.0,4.0,4.0,4.0,4.0,4.0,4.0,4.0,4.0,4.0,4.0,4.0,4.0,4.0,4.0,4.0,4.0,4.0,4.0,4.0,4.0,4.0,4.0,4.0,4.0,4.0,4.0,4.0,4.0,100.0,,,,,,,,,,,,,,,,,,,,,,,,,,,,,,,,,,,5468.0,0.0,0.289048,0.784241,0.524536,0.162109,0.909779,-0.295935,-0.338909,22.333334,-20.166666,37.833332,,,,,,,,,,,,,,,,,,,,,,,,,,,,,,,,,,,,,,,,,,,,,,,,,,,,,,,,,,,,,,,,,,,,,,,,,,,,,,,,,,,,,,,,,,,,,,,,,,,,,,,,,,,,,,,,,,,,,,,,,,,,,,,,,,,,,,,,,,,,,,,,,,,,,,,,,,,,,,,,
1763976010.898912,21874.0,0.0,4397.94873,4379.487305,4519.615234,4716.025879,4415.0,4532.436035,4563.333496,4412.05127,4893.846191,4306.922852,4518.077148,4531.282227,4579.487305,4378.333496,4356.794922,4514.358887,4563.589844,4571.282227,4570.769043,4291.666504,4399.102539,4604.615234,4557.179688,4529.230957,4436.666504,4860.897461,4393.717773,4603.589844,4519.487305,4449.871582,4997.307617,4800.769043,2895.0,0.0,11.0,768.0,27324.0,,,,0.0,4.0,4.0,4.0,4.0,4.0,4.0,4.0,4.0,4.0,4.0,4.0,4.0,4.0,4.0,4.0,4.0,4.0,4.0,4.0,4.0,4.0,4.0,4.0,4.0,4.0,4.0,4.0,4.0,4.0,4.0,4.0,4.0,100.0,,,,,,,,,,,,,,,,,,,,,,,,,,,,,,,,,,,,,,,,,,,,,,,,,,,,,,,,,,,,,,,,,,,,,,,,,,,,,,,,,,,,,,,,,,,,,,,,,,,,,,,,,,,,,,,,,,,,,,,,,,,,,,,,,,,,,,,,,,,,,,,,,,,,,,,,,,,,,,,,,,,,,,,,,,,,,,,,,,,,,,,,,,,,,,,,,,,,,,,,,,,,,,
1763976010.902819,21875.0,0.0,4370.512695,4355.128418,4493.077148,4691.666504,4390.897461,4508.846191,4529.615234,4380.256348,4863.717773,4318.333496,4486.794922,4502.179688,4553.717773,4358.589844,4335.641113,4492.307617,4534.871582,4542.436035,4536.794922,4269.487305,4370.256348,4576.025879,4524.871582,4501.666504,4376.153809,4823.333496,4373.717773,4575.0,4493.461426,4428.205078,4974.743652,4787.563965,3015.0,0.0,11.0,768.0,27324.0,,,,0.0,4.0,4.0,4.0,4.0,4.0,4.0,4.0,4.0,4.0,4.0,4.0,4.0,4.0,4.0,4.0,4.0,4.0,4.0,4.0,4.0,4.0,4.0,4.0,4.0,4.0,4.0,4.0,4.0,4.0,4.0,4.0,4.0,100.0,,,,,,,,,,,,,,,,,,,,,,,,,,,,,,,,,,,,,,,,,,,,,,,,,,,,,,,,,,,,,,,,,,,,,,,,,,,,,,,,,,,,,,,,,,,,,,,,,,,,,,,,,,,,,,,,,,,,,,,,,,,,,,,,,,,,,,,,,,,,,,,,,,,,,,,,,,,,,,,,,,,,,,,,,,,,,,,,,,,,,,,,,,,,,,,,,,,,,,,,,,,,,,
1763976010.906725,21876.0,0.0,4344.358887,4333.974121,4478.461426,4673.077148,4371.410156,4489.871582,4493.974121,4347.179688,4839.615234,4358.589844,4452.05127,4472.820313,4522.94873,4344.615234,4321.794922,4474.487305,4504.358887,4511.922852,4490.256348,4255.256348,4345.769043,4542.820313,4491.410156,4478.974121,4314.102539,4777.436035,4362.179688,4543.461426,4467.94873,4408.846191,4956.794922,4781.282227,3033.0,0.0,11.0,1024.0,27332.0,,,,0.0,4.0,4.0,4.0,4.0,4.0,4.0,4.0,4.0,4.0,4.0,4.0,4.0,4.0,4.0,4.0,4.0,4.0,4.0,4.0,4.0,4.0,4.0,4.0,4.0,4.0,4.0,4.0,4.0,4.0,4.0,4.0,4.0,100.0,,,,,,,,,,,,,,,,,,,,,,,,,,,,,,,,,,,,,,,,,,,,,,,,,,,,,,,,,,,,,,,,,,,,,,,,,,,,,,,,,,,,,,,,,,,,,,,,,,,,,,,,,,,,,,,,,,,,,,,,,,,,,,,,,,,,,,,,,,,,,,,,,,,,,,,,,,,,,,,,,,,,,,,,,,,,,,,,,,,,,,,,,,,,,,,,,,,,,,,,,,,,,,
1763976010.910631,21877.0,0.0,4329.358887,4323.589844,4476.922852,4665.256348,4363.333496,4482.307617,4472.05127,4323.974121,4826.794922,4401.538574,4428.205078,4454.871582,4499.615234,4340.384766,4320.256348,4468.077148,4484.230957,4492.307617,4451.538574,4254.743652,4335.0,4517.692383,4470.0,4469.743652,4295.897461,4747.820313,4357.94873,4520.769043,4453.077148,4398.589844,4947.94873,4780.769043,2972.0,0.0,11.0,1024.0,27332.0,,,,0.0,4.0,4.0,4.0,4.0,4.0,4.0,4.0,4.0,4.0,4.0,4.0,4.0,4.0,4.0,4.0,4.0,4.0,4.0,4.0,4.0,4.0,4.0,4.0,4.0,4.0,4.0,4.0,4.0,4.0,4.0,4.0,4.0,100.0,,,,,,,,,,,,,,,,,,,,,,,,,,,,,,,,,,,5469.0,0.0,0.288409,0.783203,0.525696,0.16449,0.909779,-0.295935,-0.338909,24.5,-19.833334,38.666668,,,,,,,,,,,,,,,,,,,,,,,,,,,,,,,,,,,,,,,,,,,,,,,,,,,,,,,,,,,,,,,,,,,,,,,,,,,,,,,,,,,,,,,,,,,,,,,,,,,,,,,,,,,,,,,,,,,,,,,,,,,,,,,,,,,,,,,,,,,,,,,,,,,,,,,,,,,,,,,,
1763976010.914537,21878.0,0.0,4330.384766,4327.307617,4484.358887,4670.256348,4368.461426,4488.077148,4472.307617,4320.897461,4827.563965,4419.230957,4424.102539,4454.487305,4492.94873,4345.897461,4329.871582,4474.871582,4481.666504,4491.025879,4437.05127,4265.256348,4339.871582,4509.871582,4468.589844,4473.846191,4333.461426,4750.641113,4360.0,4517.692383,4455.0,4401.153809,4951.153809,4784.102539,2975.0,0.0,11.0,1280.0,27340.0,,,,0.0,4.0,4.0,4.0,4.0,4.0,4.0,4.0,4.0,4.0,4.0,4.0,4.0,4.0,4.0,4.0,4.0,4.0,4.0,4.0,4.0,4.0,4.0,4.0,4.0,4.0,4.0,4.0,4.0,4.0,4.0,4.0,4.0,100.0,,,,,,,,,,,,,,,,,,,,,,,,,,,,,,,,,,,,,,,,,,,,,,,,,,,,,,,,,,,,,,,,,,,,,,,,,,,,,,,,,,,,,,,,,,,,,,,,,,,,,,,,,,,,,,,,,,,,,,,,,,,,,,,,,,,,,,,,,,,,,,,,,,,,,,,,,,,,,,,,,,,,,,,,,,,,,,,,,,,,,,,,,,,,,,,,,,,,,,,,,,,,,,
1763976010.918443,21879.0,0.0,4344.615234,4341.794922,4494.743652,4685.512695,4382.05127,4501.794922,4490.641113,4339.230957,4839.871582,4401.794922,4437.94873,4468.461426,4503.589844,4356.538574,4343.589844,4488.589844,4494.871582,4505.0,4449.487305,4276.538574,4353.974121,4519.487305,4484.102539,4483.205078,4393.461426,4779.102539,4367.05127,4535.0,4470.897461,4413.461426,4963.077148,4788.974121,2928.0,0.0,11.0,1280.0,27340.0,,,,0.0,4.0,4.0,4.0,4.0,4.0,4.0,4.0,4.0,4.0,4.0,4.0,4.0,4.0,4.0,4.0,4.0,4.0,4.0,4.0,4.0,4.0,4.0,4.0,4.0,4.0,4.0,4.0,4.0,4.0,4.0,4.0,4.0,100.0,,,,,,,,,,,,,,,,,,,,,,,,,,,,,,,,,,,,,,,,,,,,,,,,,,,,,,,,,,,,,,,,,,,,,,,,,,,,,,,,,,,,,,,,,,,,,,,,,,,,,,,,,,,,,,,,,,,,,,,,,,,,,,,,,,,,,,,,,,,,,,,,,,,,,,,,,,,,,,,,,,,,,,,,,,,,,,,,,,,,,,,,,,,,,,,,,,,,,,,,,,,,,,
1763976010.922349,21880.0,0.0,4362.563965,4358.846191,4502.94873,4704.230957,4396.666504,4515.512695,4514.487305,4369.230957,4856.282227,4365.0,4459.358887,4487.179688,4523.205078,4365.897461,4353.205078,4500.384766,4514.743652,4523.077148,4476.538574,4280.0,4367.307617,4539.102539,4505.641113,4490.641113,4426.153809,4809.102539,4374.871582,4561.282227,4490.769043,4426.794922,4975.128418,4793.205078,2889.0,0.0,11.0,1536.0,27348.0,,,,0.0,4.0,4.0,4.0,4.0,4.0,4.0,4.0,4.0,4.0,4.0,4.0,4.0,4.0,4.0,4.0,4.0,4.0,4.0,4.0,4.0,4.0,4.0,4.0,4.0,4.0,4.0,4.0,4.0,4.0,4.0,4.0,4.0,100.0,,,,,,,,,,,,,,,,,,,,,,,,,,,,,,,,,,,,,,,,,,,,,,,,,,,,,,,,,,,,,,,,,,,,,,,,,,,,,,,,,,,,,,,,,,,,,,,,,,,,,,,,,,,,,,,,,,,,,,,,,,,,,,,,,,,,,,,,,,,,,,,,,,,,,,,,,,,,,,,,,,,,,,,,,,,,,,,,,,,,,,,,,,,,,,,,,,,,,,,,,,,,,,
1763976010.926255,21881.0,0.0,4376.794922,4371.666504,4508.077148,4719.871582,4407.05127,4524.358887,4532.436035,4396.922852,4869.743652,4339.358887,4477.692383,4502.307617,4543.205078,4370.128418,4355.0,4505.897461,4532.563965,4536.153809,4502.307617,4275.641113,4375.0,4559.358887,4523.205078,4496.666504,4410.128418,4820.128418,4379.615234,4581.538574,4505.641113,4434.487305,4980.641113,4796.666504,2891.0,0.0,11.0,1536.0,27348.0,,,,0.0,4.0,4.0,4.0,4.0,4.0,4.0,4.0,4.0,4.0,4.0,4.0,4.0,4.0,4.0,4.0,4.0,4.0,4.0,4.0,4.0,4.0,4.0,4.0,4.0,4.0,4.0,4.0,4.0,4.0,4.0,4.0,4.0,100.0,,,,,,,,,,,,,,,,,,,,,,,,,,,,,,,,,,,5470.0,0.0,0.287897,0.781982,0.5271,0.166687,0.921499,-0.314492,-0.343304,24.666666,-20.833334,39.333332,,,,,,,,,,,,,,,,,,,,,,,,,,,,,,,,,,,,,,,,,,,,,,,,,,,,,,,,,,,,,,,,,,,,,,,,,,,,,,,,,,,,,,,,,,,,,,,,,,,,,,,,,,,,,,,,,,,,,,,,,,,,,,,,,,,,,,,,,,,,,,,,,,,,,,,,,,,,,,,,
1763976010.930161,21882.0,0.0,4386.922852,4380.128418,4514.615234,4730.128418,4413.974121,4530.128418,4542.692383,4414.102539,4877.436035,4345.0,4490.769043,4513.461426,4560.769043,4370.769043,4353.717773,4508.461426,4546.666504,4544.358887,4519.230957,4272.307617,4381.025879,4577.05127,4535.128418,4507.563965,4369.358887,4812.436035,4382.307617,4588.974121,4514.487305,4438.333496,4981.282227,4803.333496,2791.0,0.0,11.0,1792.0,27356.0,,,,0.0,4.0,4.0,4.0,4.0,4.0,4.0,4.0,4.0,4.0,4.0,4.0,4.0,4.0,4.0,4.0,4.0,4.0,4.0,4.0,4.0,4.0,4.0,4.0,4.0,4.0,4.0,4.0,4.0,4.0,4.0,4.0,4.0,100.0,,,,,,,,,,,,,,,,,,,,,,,,,,,,,,,,,,,,,,,,,,,,,,,,,,,,,,,,,,,,,,,,,,,,,,,,,,,,,,,,,,,,,,,,,,,,,,,,,,,,,,,,,,,,,,,,,,,,,,,,,,,,,,,,,,,,,,,,,,,,,,,,,,,,,,,,,,,,,,,,,,,,,,,,,,,,,,,,,,,,,,,,,,,,,,,,,,,,,,,,,,,,,,
1763976010.934067,21883.0,0.0,4398.205078,4388.974121,4526.922852,4736.794922,4421.282227,4538.589844,4550.641113,4421.794922,4880.0,4375.641113,4502.436035,4525.897461,4577.820313,4372.692383,4357.05127,4514.871582,4560.641113,4554.230957,4531.153809,4278.589844,4392.436035,4593.846191,4546.282227,4527.179688,4349.487305,4803.717773,4387.820313,4588.333496,4522.563965,4444.487305,4983.589844,4817.179688,3054.0,0.0,11.0,1792.0,27356.0,,,,0.0,4.0,4.0,4.0,4.0,4.0,4.0,4.0,4.0,4.0,4.0,4.0,4.0,4.0,4.0,4.0,4.0,4.0,4.0,4.0,4.0,4.0,4.0,4.0,4.0,4.0,4.0,4.0,4.0,4.0,4.0,4.0,4.0,100.0,,,,,,,,,,,,,,,,,,,,,,,,,,,,,,,,,,,,,,,,,,,,,,,,,,,,,,,,,,,,,,,,,,,,,,,,,,,,,,,,,,,,,,,,,,,,,,,,,,,,,,,,,,,,,,,,,,,,,,,,,,,,,,,,,,,,,,,,,,,,,,,,,,,,,,,,,,,,,,,,,,,,,,,,,,,,,,,,,,,,,,,,,,,,,,,,,,,,,,,,,,,,,,
1763976010.937973,21884.0,0.0,4412.436035,4399.743652,4542.307617,4741.153809,4429.230957,4550.384766,4560.641113,4424.230957,4877.820313,4403.717773,4513.333496,4540.897461,4593.589844,4378.461426,4367.692383,4526.794922,4575.769043,4569.102539,4543.717773,4293.205078,4409.871582,4610.128418,4559.487305,4549.743652,4374.102539,4809.102539,4397.94873,4587.436035,4532.05127,4454.358887,4990.256348,4834.102539,2986.0,0.0,11.0,2048.0,27364.0,,,,0.0,4.0,4.0,4.0,4.0,4.0,4.0,4.0,4.0,4.0,4.0,4.0,4.0,4.0,4.0,4.0,4.0,4.0,4.0,4.0,4.0,4.0,4.0,4.0,4.0,4.0,4.0,4.0,4.0,4.0,4.0,4.0,4.0,100.0,,,,,,,,,,,,,,,,,,,,,,,,,,,,,,,,,,,,,,,,,,,,,,,,,,,,,,,,,,,,,,,,,,,,,,,,,,,,,,,,,,,,,,,,,,,,,,,,,,,,,,,,,,,,,,,,,,,,,,,,,,,,,,,,,,,,,,,,,,,,,,,,,,,,,,,,,,,,,,,,,,,,,,,,,,,,,,,,,,,,,,,,,,,,,,,,,,,,,,,,,,,,,,
1763976010.941879,21885.0,0.0,4422.820313,4406.410156,4549.871582,4740.641113,4432.820313,4559.102539,4568.333496,4421.282227,4868.589844,4405.384766,4516.410156,4551.538574,4600.897461,4385.256348,4378.717773,4537.820313,4586.025879,4582.179688,4554.230957,4303.717773,4424.487305,4620.769043,4569.615234,4562.563965,4424.871582,4825.769043,4407.436035,4588.333496,4537.436035,4461.025879,4996.410156,4842.820313,2858.0,0.0,11.0,2048.0,27364.0,,,,0.0,4.0,4.0,4.0,4.0,4.0,4.0,4.0,4.0,4.0,4.0,4.0,4.0,4.0,4.0,4.0,4.0,4.0,4.0,4.0,4.0,4.0,4.0,4.0,4.0,4.0,4.0,4.0,4.0,4.0,4.0,4.0,4.0,100.0,,,,,,,,,,,,,,,,,,,,,,,,,,,,,,,,,,,5471.0,0.0,0.287152,0.78064,0.528931,0.168457,0.902454,-0.278354,-0.359907,24.666666,-20.833334,39.333332,,,,,,,,,,,,,,,,,,,,,,,,,,,,,,,,,,,,,,,,,,,,,,,,,,,,,,,,,,,,,,,,,,,,,,,,,,,,,,,,,,,,,,,,,,,,,,,,,,,,,,,,,,,,,,,,,,,,,,,,,,,,,,,,,,,,,,,,,,,,,,,,,,,,,,,,,,,,,,,,
1763976010.945785,21886.0,0.0,4419.615234,4401.153809,4540.897461,4732.436035,4426.666504,4557.05127,4565.384766,4409.358887,4852.179688,4380.512695,4505.0,4547.94873,4592.307617,4387.307617,4379.615234,4538.333496,4582.692383,4582.436035,4553.717773,4296.410156,4425.256348,4618.333496,4568.205078,4556.025879,4460.769043,4836.538574,4408.589844,4586.794922,4531.538574,4455.641113,4993.846191,4834.743652,3055.0,0.0,11.0,2304.0,27371.0,,,,0.0,4.0,4.0,4.0,4.0,4.0,4.0,4.0,4.0,4.0,4.0,4.0,4.0,4.0,4.0,4.0,4.0,4.0,4.0,4.0,4.0,4.0,4.0,4.0,4.0,4.0,4.0,4.0,4.0,4.0,4.0,4.0,4.0,100.0,,,,,,,,,,,,,,,,,,,,,,,,,,,,,,,,,,,,,,,,,,,,,,,,,,,,,,,,,,,,,,,,,,,,,,,,,,,,,,,,,,,,,,,,,,,,,,,,,,,,,,,,,,,,,,,,,,,,,,,,,,,,,,,,,,,,,,,,,,,,,,,,,,,,,,,,,,,,,,,,,,,,,,,,,,,,,,,,,,,,,,,,,,,,,,,,,,,,,,,,,,,,,,
1763976010.949691,21887.0,0.0,4401.025879,4383.974121,4518.589844,4718.846191,4411.922852,4544.358887,4550.641113,4388.846191,4834.871582,4350.769043,4482.94873,4529.102539,4570.128418,4382.05127,4366.282227,4525.512695,4564.871582,4566.666504,4538.205078,4269.871582,4410.512695,4602.563965,4553.461426,4532.692383,4454.102539,4828.077148,4398.461426,4580.769043,4514.615234,4437.307617,4980.384766,4814.102539,2954.0,0.0,11.0,2304.0,27371.0,,,,0.0,4.0,4.0,4.0,4.0,4.0,4.0,4.0,4.0,4.0,4.0,4.0,4.0,4.0,4.0,4.0,4.0,4.0,4.0,4.0,4.0,4.0,4.0,4.0,4.0,4.0,4.0,4.0,4.0,4.0,4.0,4.0,4.0,100.0,,,,,,,,,,,,,,,,,,,,,,,,,,,,,,,,,,,,,,,,,,,,,,,,,,,,,,,,,,,,,,,,,,,,,,,,,,,,,,,,,,,,,,,,,,,,,,,,,,,,,,,,,,,,,,,,,,,,,,,,,,,,,,,,,,,,,,,,,,,,,,,,,,,,,,,,,,,,,,,,,,,,,,,,,,,,,,,,,,,,,,,,,,,,,,,,,,,,,,,,,,,,,,
1763976010.953597,21888.0,0.0,4378.846191,4366.153809,4498.077148,4707.94873,4397.94873,4530.897461,4534.230957,4369.358887,4827.436035,4341.282227,4466.025879,4506.922852,4548.205078,4372.94873,4346.410156,4506.922852,4543.717773,4545.256348,4517.307617,4238.974121,4390.512695,4583.589844,4535.769043,4507.436035,4411.538574,4804.487305,4383.333496,4575.641113,4497.820313,4417.436035,4963.333496,4797.05127,2843.0,0.0,11.0,2560.0,27379.0,,,,0.0,4.0,4.0,4.0,4.0,4.0,4.0,4.0,4.0,4.0,4.0,4.0,4.0,4.0,4.0,4.0,4.0,4.0,4.0,4.0,4.0,4.0,4.0,4.0,4.0,4.0,4.0,4.0,4.0,4.0,4.0,4.0,4.0,100.0,,,,,,,,,,,,,,,,,,,,,,,,,,,,,,,,,,,,,,,,,,,,,,,,,,,,,,,,,,,,,,,,,,,,,,,,,,,,,,,,,,,,,,,,,,,,,,,,,,,,,,,,,,,,,,,,,,,,,,,,,,,,,,,,,,,,,,,,,,,,,,,,,,,,,,,,,,,,,,,,,,,,,,,,,,,,,,,,,,,,,,,,,,,,,,,,,,,,,,,,,,,,,,
1763976010.957503,21889.0,0.0,4369.743652,4362.307617,4495.769043,4708.333496,4395.384766,4528.717773,4530.384766,4363.846191,4837.179688,4362.179688,4468.846191,4498.205078,4542.307617,4366.538574,4333.846191,4494.615234,4534.871582,4533.846191,4507.692383,4224.358887,4380.641113,4576.410156,4529.487305,4497.820313,4365.256348,4783.974121,4374.487305,4580.256348,4495.256348,4410.384766,4954.615234,4797.820313,2907.0,0.0,11.0,2560.0,27379.0,,,,0.0,4.0,4.0,4.0,4.0,4.0,4.0,4.0,4.0,4.0,4.0,4.0,4.0,4.0,4.0,4.0,4.0,4.0,4.0,4.0,4.0,4.0,4.0,4.0,4.0,4.0,4.0,4.0,4.0,4.0,4.0,4.0,4.0,100.0,,,,,,,,,,,,,,,,,,,,,,,,,,,,,,,,,,,5472.0,0.0,0.285221,0.778442,0.532654,0.170166,0.909779,-0.288609,-0.365279,24.5,-21.5,37.833332,,,,,,,,,,,,,,,,,,,,,,,,,,,,,,,,,,,,,,,,,,,,,,,,,,,,,,,,,,,,,,,,,,,,,,,,,,,,,,,,,,,,,,,,,,,,,,,,,,,,,,,,,,,,,,,,,,,,,,,,,,,,,,,,,,,,,,,,,,,,,,,,,,,,,,,,,,,,,,,,
1763976010.961409,21890.0,0.0,4380.512695,4376.282227,4514.487305,4720.512695,4406.922852,4540.641113,4543.205078,4376.666504,4860.769043,4401.922852,4490.769043,4508.461426,4555.769043,4366.666504,4336.538574,4494.615234,4544.615234,4540.0,4517.436035,4234.358887,4387.563965,4586.538574,4540.384766,4509.102539,4343.974121,4782.307617,4378.717773,4597.05127,4510.384766,4421.794922,4960.384766,4815.256348,2278.0,0.0,11.0,2560.0,27387.0,,,,0.0,4.0,4.0,4.0,4.0,4.0,4.0,4.0,4.0,4.0,4.0,4.0,4.0,4.0,4.0,4.0,4.0,4.0,4.0,4.0,4.0,4.0,4.0,4.0,4.0,4.0,4.0,4.0,4.0,4.0,4.0,4.0,4.0,100.0,,,,,,,,,,,,,,,,,,,,,,,,,,,,,,,,,,,,,,,,,,,,,,,,,,,,,,,,,,,,,,,,,,,,,,,,,,,,,,,,,,,,,,,,,,,,,,,,,,,,,,,,,,,,,,,,,,,,,,,,,,,,,,,,,,,,,,,,,,,,,,,,,,,,,,,,,,,,,,,,,,,,,,,,,,,,,,,,,,,,,,,,,,,,,,,,,,,,,,,,,,,,,,
1763976010.965315,21891.0,0.0,4400.0,4395.897461,4538.717773,4734.358887,4422.692383,4556.282227,4560.256348,4396.922852,4883.333496,4434.615234,4513.333496,4525.769043,4574.487305,4370.256348,4348.461426,4501.410156,4561.794922,4554.487305,4536.794922,4255.897461,4403.077148,4603.974121,4557.94873,4529.102539,4350.512695,4797.94873,4391.666504,4615.256348,4531.025879,4441.538574,4973.461426,4832.692383,2980.0,0.0,11.0,2560.0,27387.0,,,,0.0,4.0,4.0,4.0,4.0,4.0,4.0,4.0,4.0,4.0,4.0,4.0,4.0,4.0,4.0,4.0,4.0,4.0,4.0,4.0,4.0,4.0,4.0,4.0,4.0,4.0,4.0,4.0,4.0,4.0,4.0,4.0,4.0,100.0,,,,,,,,,,,,,,,,,,,,,,,,,,,,,,,,,,,,,,,,,,,,,,,,,,,,,,,,,,,,,,,,,,,,,,,,,,,,,,,,,,,,,,,,,,,,,,,,,,,,,,,,,,,,,,,,,,,,,,,,,,,,,,,,,,,,,,,,,,,,,,,,,,,,,,,,,,,,,,,,,,,,,,,,,,,,,,,,,,,,,,,,,,,,,,,,,,,,,,,,,,,,,,
1763976010.969221,21892.0,0.0,4408.205078,4402.563965,4547.179688,4736.282227,4427.94873,4559.743652,4562.820313,4406.922852,4889.871582,4437.94873,4515.128418,4530.641113,4577.692383,4370.769043,4355.384766,4504.102539,4567.692383,4560.641113,4546.153809,4265.384766,4410.897461,4610.256348,4563.846191,4538.205078,4366.410156,4812.94873,4399.615234,4618.461426,4538.333496,4451.410156,4978.974121,4833.846191,2874.0,0.0,11.0,2561.0,27395.0,,,,0.0,4.0,4.0,4.0,4.0,4.0,4.0,4.0,4.0,4.0,4.0,4.0,4.0,4.0,4.0,4.0,4.0,4.0,4.0,4.0,4.0,4.0,4.0,4.0,4.0,4.0,4.0,4.0,4.0,4.0,4.0,4.0,4.0,100.0,,,,,,,,,,,,,,,,,,,,,,,,,,,,,,,,,,,,,,,,,,,,,,,,,,,,,,,,,,,,,,,,,,,,,,,,,,,,,,,,,,,,,,,,,,,,,,,,,,,,,,,,,,,,,,,,,,,,,,,,,,,,,,,,,,,,,,,,,,,,,,,,,,,,,,,,,,,,,,,,,,,,,,,,,,,,,,,,,,,,,,,,,,,,,,,,,,,,,,,,,,,,,,
1763976010.973127,21893.0,0.0,4394.487305,4388.333496,4532.820313,4722.563965,4416.666504,4544.871582,4543.077148,4396.538574,4876.153809,4409.358887,4490.769043,4514.743652,4558.077148,4365.769043,4349.358887,4497.692383,4552.820313,4549.871582,4535.641113,4250.256348,4401.282227,4595.256348,4548.205078,4527.692383,4374.358887,4810.769043,4391.922852,4598.333496,4523.589844,4441.025879,4967.820313,4818.205078,2375.0,0.0,11.0,2561.0,27395.0,,,,0.0,4.0,4.0,4.0,4.0,4.0,4.0,4.0,4.0,4.0,4.0,4.0,4.0,4.0,4.0,4.0,4.0,4.0,4.0,4.0,4.0,4.0,4.0,4.0,4.0,4.0,4.0,4.0,4.0,4.0,4.0,4.0,4.0,100.0,,,,,,,,,,,,,,,,,,,,,,,,,,,,,,,,,,,5473.0,0.0,0.285221,0.778442,0.532654,0.170166,0.937614,-0.280796,-0.31205,23.5,-20.833334,37.666668,,,,,,,,,,,,,,,,,,,,,,,,,,,,,,,,,,,,,,,,,,,,,,,,,,,,,,,,,,,,,,,,,,,,,,,,,,,,,,,,,,,,,,,,,,,,,,,,,,,,,,,,,,,,,,,,,,,,,,,,,,,,,,,,,,,,,,,,,,,,,,,,,,,,,,,,,,,,,,,,
1763976010.977033,21894.0,0.0,4368.333496,4363.846191,4509.102539,4703.077148,4397.436035,4521.666504,4513.461426,4372.307617,4853.461426,4368.846191,4455.641113,4489.358887,4528.589844,4360.641113,4336.153809,4487.94873,4526.410156,4531.666504,4514.487305,4221.922852,4378.846191,4567.563965,4520.128418,4507.05127,4376.025879,4791.794922,4371.538574,4564.615234,4496.153809,4417.820313,4947.820313,4801.538574,2977.0,0.0,11.0,2561.0,27403.0,,,,0.0,4.0,4.0,4.0,4.0,4.0,4.0,4.0,4.0,4.0,4.0,4.0,4.0,4.0,4.0,4.0,4.0,4.0,4.0,4.0,4.0,4.0,4.0,4.0,4.0,4.0,4.0,4.0,4.0,4.0,4.0,4.0,4.0,100.0,,,,,,,,,,,,,,,,,,,,,,,,,,,,,,,,,,,,,,,,,,,,,,,,,,,,,,,,,,,,,,,,,,,,,,,,,,,,,,,,,,,,,,,,,,,,,,,,,,,,,,,,,,,,,,,,,,,,,,,,,,,,,,,,,,,,,,,,,,,,,,,,,,,,,,,,,,,,,,,,,,,,,,,,,,,,,,,,,,,,,,,,,,,,,,,,,,,,,,,,,,,,,,
1763976010.980939,21895.0,0.0,4350.0,4348.205078,4495.256348,4692.563965,4385.0,4507.307617,4496.282227,4350.256348,4838.205078,4342.820313,4433.846191,4473.974121,4511.282227,4361.922852,4329.358887,4485.512695,4507.820313,4523.846191,4502.563965,4205.384766,4357.820313,4546.025879,4498.717773,4494.230957,4384.615234,4772.436035,4353.974121,4537.94873,4475.0,4400.128418,4936.153809,4799.102539,2961.0,0.0,11.0,2561.0,27403.0,,,,0.0,4.0,4.0,4.0,4.0,4.0,4.0,4.0,4.0,4.0,4.0,4.0,4.0,4.0,4.0,4.0,4.0,4.0,4.0,4.0,4.0,4.0,4.0,4.0,4.0,4.0,4.0,4.0,4.0,4.0,4.0,4.0,4.0,100.0,,,,,,,,,,,,,,,,,,,,,,,,,,,,,,,,,,,,,,,,,,,,,,,,,,,,,,,,,,,,,,,,,,,,,,,,,,,,,,,,,,,,,,,,,,,,,,,,,,,,,,,,,,,,,,,,,,,,,,,,,,,,,,,,,,,,,,,,,,,,,,,,,,,,,,,,,,,,,,,,,,,,,,,,,,,,,,,,,,,,,,,,,,,,,,,,,,,,,,,,,,,,,,
1763976010.984845,21896.0,0.0,4352.307617,4351.153809,4497.692383,4697.05127,4386.410156,4511.025879,4504.102539,4343.077148,4838.974121,4342.179688,4437.563965,4479.230957,4517.307617,4369.743652,4335.897461,4493.846191,4509.230957,4534.871582,4509.487305,4215.897461,4348.589844,4542.692383,4496.538574,4497.692383,4403.333496,4767.94873,4352.436035,4532.94873,4471.666504,4399.871582,4941.282227,4810.897461,2666.0,0.0,11.0,2560.0,27410.0,,,,0.0,4.0,4.0,4.0,4.0,4.0,4.0,4.0,4.0,4.0,4.0,4.0,4.0,4.0,4.0,4.0,4.0,4.0,4.0,4.0,4.0,4.0,4.0,4.0,4.0,4.0,4.0,4.0,4.0,4.0,4.0,4.0,4.0,100.0,,,,,,,,,,,,,,,,,,,,,,,,,,,,,,,,,,,,,,,,,,,,,,,4.948416,9.295974,7.031013,8.704325,8.809786,4.134236,11.57989,8.591135,8.966556,8.661463,6.192795,12.233062,11.563845,9.905606,9.516559,4.002579,12.171721,9.359392,10.09077,11.109296,4.299124,8.464366,6.526908,6.236669,6.128681,3.350137,9.713936,4.218814,4.96734,6.158054,4.197549,10.706889,7.271485,8.620852,10.514222,5.833413,12.986747,9.128989,11.595795,10.671036,14.29453,11.945232,8.077725,9.470813,13.277845,2.413431,10.128553,10.952743,22.788874,38.332333,4.117085,8.810901,7.948732,9.722344,12.56547,3.981941,9.364704,6.464053,8.625593,9.077508,4.603435,13.431491,12.999134,10.405231,11.373139,5.990758,8.216259,5.113396,7.599357,11.269469,3.228013,5.216065,5.864461,6.399643,10.032115,9.39471,12.236397,11.092384,12.556223,10.789481,3.742245,10.871463,12.395912,8.987562,8.622105,1.635864,8.732566,13.289309,14.961281,10.243881,3.823206,16.938265,22.265949,18.843515,13.797276,12.242845,8.217391,10.281911,9.723139,11.532847,2.981359,26.455269,29.095289,12.981652,10.272927,2.811734,20.674269,14.412605,11.57333,10.940557,3.579211,12.909602,7.734589,11.951009,10.48216,3.083774,16.74143,15.094979,10.312736,12.613573,5.334728,16.405615,21.053858,17.323923,23.069384,10.739132,14.523877,16.710949,10.887059,10.582047,5.077025,14.523149,13.951106,9.657789,11.342823,4.343567,12.585598,10.141967,12.852846,10.60482,3.966552,9.812704,9.132962,9.471446,9.430401,4.498825,11.57588,13.380194,8.756367,10.711994,9.188531,12.834562,16.15398,9.68222,11.677833,3.826199,11.184376,13.253691,9.01004,9.959797
1763976010.988751,21897.0,0.0,4369.743652,4366.282227,4506.538574,4708.974121,4395.897461,4526.666504,4528.333496,4351.410156,4850.641113,4355.128418,4459.358887,4497.436035,4537.692383,4376.794922,4350.256348,4506.794922,4525.384766,4555.512695,4526.922852,4245.384766,4350.384766,4553.846191,4509.358887,4510.0,4416.922852,4777.307617,4366.025879,4547.05127,4482.436035,4413.461426,4954.487305,4823.205078,2867.0,0.0,11.0,2560.0,27410.0,,,,0.0,4.0,4.0,4.0,4.0,4.0,4.0,4.0,4.0,4.0,4.0,4.0,4.0,4.0,4.0,4.0,4.0,4.0,4.0,4.0,4.0,4.0,4.0,4.0,4.0,4.0,4.0,4.0,4.0,4.0,4.0,4.0,4.0,100.0,,,,,,,,,,,,,,,,,,,,,,,,,,,,,,,,,,,5474.0,0.0,0.281638,0.777405,0.536316,0.169373,0.934684,-0.287633,-0.264681,25.5,-20.0,38.0,,,,,,,,,,,,,,,,,,,,,,,,,,,,,,,,,,,,,,,,,,,,,,,,,,,,,,,,,,,,,,,,,,,,,,,,,,,,,,,,,,,,,,,,,,,,,,,,,,,,,,,,,,,,,,,,,,,,,,,,,,,,,,,,,,,,,,,,,,,,,,,,,,,,,,,,,,,,,,,,
1763976010.992657,21898.0,0.0,4386.282227,4379.487305,4509.615234,4715.897461,4402.436035,4540.256348,4549.358887,4366.282227,4861.922852,4361.282227,4481.410156,4512.307617,4554.358887,4376.538574,4361.025879,4514.358887,4541.410156,4569.102539,4536.922852,4271.666504,4356.666504,4566.538574,4523.333496,4518.077148,4408.077148,4786.666504,4381.794922,4565.769043,4494.615234,4426.794922,4959.358887,4824.487305,2612.0,0.0,11.0,1792.0,27418.0,,,,0.0,4.0,4.0,4.0,4.0,4.0,4.0,4.0,4.0,4.0,4.0,4.0,4.0,4.0,4.0,4.0,4.0,4.0,4.0,4.0,4.0,4.0,4.0,4.0,4.0,4.0,4.0,4.0,4.0,4.0,4.0,4.0,4.0,100.0,,,,,,,,,,,,,,,,,,,,,,,,,,,,,,,,,,,,,,,,,,,,,,,,,,,,,,,,,,,,,,,,,,,,,,,,,,,,,,,,,,,,,,,,,,,,,,,,,,,,,,,,,,,,,,,,,,,,,,,,,,,,,,,,,,,,,,,,,,,,,,,,,,,,,,,,,,,,,,,,,,,,,,,,,,,,,,,,,,,,,,,,,,,,,,,,,,,,,,,,,,,,,,
1763976010.996563,21899.0,0.0,4390.769043,4383.077148,4506.282227,4712.94873,4401.538574,4543.974121,4554.102539,4378.333496,4867.179688,4352.05127,4491.025879,4515.128418,4557.692383,4370.384766,4362.692383,4513.717773,4547.307617,4567.563965,4530.897461,4278.461426,4362.94873,4571.922852,4528.846191,4516.666504,4379.230957,4786.153809,4388.717773,4576.538574,4500.128418,4430.384766,4950.384766,4817.05127,3010.0,0.0,11.0,1792.0,27418.0,,,,0.0,4.0,4.0,4.0,4.0,4.0,4.0,4.0,4.0,4.0,4.0,4.0,4.0,4.0,4.0,4.0,4.0,4.0,4.0,4.0,4.0,4.0,4.0,4.0,4.0,4.0,4.0,4.0,4.0,4.0,4.0,4.0,4.0,100.0,,,,,,,,,,,,,,,,,,,,,,,,,,,,,,,,,,,,,,,,,,,,,,,,,,,,,,,,,,,,,,,,,,,,,,,,,,,,,,,,,,,,,,,,,,,,,,,,,,,,,,,,,,,,,,,,,,,,,,,,,,,,,,,,,,,,,,,,,,,,,,,,,,,,,,,,,,,,,,,,,,,,,,,,,,,,,,,,,,,,,,,,,,,,,,,,,,,,,,,,,,,,,,
1763976011.000469,21900.0,0.0,4386.410156,4381.153809,4505.769043,4707.05127,4398.717773,4541.153809,4546.025879,4383.974121,4870.769043,4337.94873,4488.717773,4510.512695,4552.05127,4367.307617,4359.487305,4511.025879,4545.128418,4558.205078,4516.410156,4268.205078,4370.641113,4572.563965,4528.077148,4512.436035,4353.589844,4780.384766,4386.922852,4578.077148,4501.410156,4427.179688,4938.461426,4813.846191,2980.0,0.0,11.0,1280.0,27426.0,,,,0.0,4.0,4.0,4.0,4.0,4.0,4.0,4.0,4.0,4.0,4.0,4.0,4.0,4.0,4.0,4.0,4.0,4.0,4.0,4.0,4.0,4.0,4.0,4.0,4.0,4.0,4.0,4.0,4.0,4.0,4.0,4.0,4.0,100.0,,,,,,,,,,,,,,,,,,,,,,,,,,,,,,,,,,,,,,,,,,,,,,,,,,,,,,,,,,,,,,,,,,,,,,,,,,,,,,,,,,,,,,,,,,,,,,,,,,,,,,,,,,,,,,,,,,,,,,,,,,,,,,,,,,,,,,,,,,,,,,,,,,,,,,,,,,,,,,,,,,,,,,,,,,,,,,,,,,,,,,,,,,,,,,,,,,,,,,,,,,,,,,
1763976011.004375,21901.0,0.0,4383.717773,4382.436035,4514.871582,4708.205078,4401.922852,4540.769043,4538.333496,4385.0,4881.410156,4338.077148,4483.461426,4509.871582,4549.358887,4374.615234,4360.256348,4514.743652,4544.358887,4554.487305,4509.871582,4255.384766,4382.307617,4576.410156,4529.743652,4515.384766,4354.358887,4782.05127,4385.256348,4577.563965,4505.384766,4427.563965,4940.128418,4823.077148,2654.0,0.0,11.0,1280.0,27426.0,,,,0.0,4.0,4.0,4.0,4.0,4.0,4.0,4.0,4.0,4.0,4.0,4.0,4.0,4.0,4.0,4.0,4.0,4.0,4.0,4.0,4.0,4.0,4.0,4.0,4.0,4.0,4.0,4.0,4.0,4.0,4.0,4.0,4.0,100.0,,,,,,,,,,,,,,,,,,,,,,,,,,,,,,,,,,,5475.0,0.0,0.279755,0.777161,0.537903,0.168579,0.927848,-0.262239,-0.226102,24.166666,-20.0,39.333332,,,,,,,,,,,,,,,,,,,,,,,,,,,,,,,,,,,,,,,,,,,,,,,,,,,,,,,,,,,,,,,,,,,,,,,,,,,,,,,,,,,,,,,,,,,,,,,,,,,,,,,,,,,,,,,,,,,,,,,,,,,,,,,,,,,,,,,,,,,,,,,,,,,,,,,,,,,,,,,,
1763976011.008281,21902.0,0.0,4389.487305,4389.743652,4528.846191,4718.589844,4412.563965,4546.666504,4539.358887,4384.230957,4901.025879,4360.512695,4482.820313,4517.692383,4556.025879,4389.871582,4367.692383,4525.641113,4550.384766,4562.436035,4519.358887,4251.410156,4395.0,4586.666504,4538.077148,4526.666504,4383.461426,4796.153809,4389.743652,4581.025879,4514.230957,4435.769043,4958.333496,4839.102539,2736.0,0.0,11.0,1280.0,27434.0,,,,0.0,4.0,4.0,4.0,4.0,4.0,4.0,4.0,4.0,4.0,4.0,4.0,4.0,4.0,4.0,4.0,4.0,4.0,4.0,4.0,4.0,4.0,4.0,4.0,4.0,4.0,4.0,4.0,4.0,4.0,4.0,4.0,4.0,100.0,,,,,,,,,,,,,,,,,,,,,,,,,,,,,,,,,,,,,,,,,,,,,,,,,,,,,,,,,,,,,,,,,,,,,,,,,,,,,,,,,,,,,,,,,,,,,,,,,,,,,,,,,,,,,,,,,,,,,,,,,,,,,,,,,,,,,,,,,,,,,,,,,,,,,,,,,,,,,,,,,,,,,,,,,,,,,,,,,,,,,,,,,,,,,,,,,,,,,,,,,,,,,,
1763976011.012187,21903.0,0.0,4399.102539,4396.410156,4534.230957,4729.871582,4422.692383,4553.717773,4545.256348,4381.666504,4920.0,4392.563965,4486.025879,4527.820313,4567.179688,4400.897461,4374.487305,4534.615234,4559.102539,4573.974121,4537.436035,4254.743652,4400.769043,4596.538574,4547.436035,4537.05127,4419.230957,4812.692383,4396.282227,4585.769043,4521.410156,4444.615234,4977.692383,4845.641113,2906.0,0.0,11.0,1280.0,27434.0,,,,0.0,4.0,4.0,4.0,4.0,4.0,4.0,4.0,4.0,4.0,4.0,4.0,4.0,4.0,4.0,4.0,4.0,4.0,4.0,4.0,4.0,4.0,4.0,4.0,4.0,4.0,4.0,4.0,4.0,4.0,4.0,4.0,4.0,100.0,,,,,,,,,,,,,,,,,,,,,,,,,,,,,,,,,,,,,,,,,,,,,,,,,,,,,,,,,,,,,,,,,,,,,,,,,,,,,,,,,,,,,,,,,,,,,,,,,,,,,,,,,,,,,,,,,,,,,,,,,,,,,,,,,,,,,,,,,,,,,,,,,,,,,,,,,,,,,,,,,,,,,,,,,,,,,,,,,,,,,,,,,,,,,,,,,,,,,,,,,,,,,,
1763976011.016093,21904.0,0.0,4402.563965,4393.717773,4523.717773,4731.282227,4423.205078,4554.102539,4545.384766,4376.282227,4925.512695,4413.974121,4486.794922,4529.615234,4571.922852,4396.410156,4370.769043,4530.769043,4561.410156,4575.641113,4547.179688,4255.384766,4393.846191,4596.153809,4547.436035,4535.641113,4433.846191,4815.0,4394.358887,4584.102539,4518.205078,4442.436035,4978.333496,4832.820313,3000.0,0.0,11.0,1536.0,27442.0,,,,0.0,4.0,4.0,4.0,4.0,4.0,4.0,4.0,4.0,4.0,4.0,4.0,4.0,4.0,4.0,4.0,4.0,4.0,4.0,4.0,4.0,4.0,4.0,4.0,4.0,4.0,4.0,4.0,4.0,4.0,4.0,4.0,4.0,100.0,,,,,,,,,,,,,,,,,,,,,,,,,,,,,,,,,,,,,,,,,,,,,,,,,,,,,,,,,,,,,,,,,,,,,,,,,,,,,,,,,,,,,,,,,,,,,,,,,,,,,,,,,,,,,,,,,,,,,,,,,,,,,,,,,,,,,,,,,,,,,,,,,,,,,,,,,,,,,,,,,,,,,,,,,,,,,,,,,,,,,,,,,,,,,,,,,,,,,,,,,,,,,,
1763976011.019999,21905.0,0.0,4395.641113,4381.282227,4504.358887,4720.897461,4413.846191,4545.512695,4535.128418,4370.0,4915.256348,4415.128418,4481.538574,4519.743652,4564.487305,4377.307617,4355.769043,4514.102539,4553.589844,4563.333496,4539.487305,4248.077148,4379.487305,4583.974121,4535.256348,4521.666504,4417.436035,4797.563965,4380.769043,4572.692383,4504.487305,4427.436035,4955.256348,4810.512695,3088.0,0.0,11.0,1536.0,27442.0,,,,0.0,4.0,4.0,4.0,4.0,4.0,4.0,4.0,4.0,4.0,4.0,4.0,4.0,4.0,4.0,4.0,4.0,4.0,4.0,4.0,4.0,4.0,4.0,4.0,4.0,4.0,4.0,4.0,4.0,4.0,4.0,4.0,4.0,100.0,,,,,,,,,,,,,,,,,,,,,,,,,,,,,,,,,,,5476.0,0.0,0.278122,0.776917,0.539368,0.167725,0.927848,-0.262239,-0.226102,24.166666,-20.0,38.0,,,,,,,,,,,,,,,,,,,,,,,,,,,,,,,,,,,,,,,,,,,,,,,,,,,,,,,,,,,,,,,,,,,,,,,,,,,,,,,,,,,,,,,,,,,,,,,,,,,,,,,,,,,,,,,,,,,,,,,,,,,,,,,,,,,,,,,,,,,,,,,,,,,,,,,,,,,,,,,,
1763976011.023905,21906.0,0.0,4384.871582,4369.487305,4494.358887,4708.846191,4404.230957,4534.487305,4522.05127,4368.077148,4900.641113,4401.666504,4473.846191,4506.282227,4550.512695,4357.307617,4340.897461,4497.05127,4541.666504,4547.692383,4521.922852,4237.820313,4370.769043,4569.871582,4520.384766,4507.05127,4385.641113,4773.717773,4365.384766,4559.230957,4491.153809,4411.538574,4924.487305,4801.153809,2856.0,0.0,11.0,1792.0,27449.0,,,,0.0,4.0,4.0,4.0,4.0,4.0,4.0,4.0,4.0,4.0,4.0,4.0,4.0,4.0,4.0,4.0,4.0,4.0,4.0,4.0,4.0,4.0,4.0,4.0,4.0,4.0,4.0,4.0,4.0,4.0,4.0,4.0,4.0,100.0,,,,,,,,,,,,,,,,,,,,,,,,,,,,,,,,,,,,,,,,,,,,,,,,,,,,,,,,,,,,,,,,,,,,,,,,,,,,,,,,,,,,,,,,,,,,,,,,,,,,,,,,,,,,,,,,,,,,,,,,,,,,,,,,,,,,,,,,,,,,,,,,,,,,,,,,,,,,,,,,,,,,,,,,,,,,,,,,,,,,,,,,,,,,,,,,,,,,,,,,,,,,,,
1763976011.027811,21907.0,0.0,4381.666504,4369.487305,4504.743652,4707.179688,4404.615234,4530.256348,4519.487305,4373.974121,4896.794922,4383.077148,4471.282227,4501.025879,4542.179688,4350.769043,4338.846191,4493.333496,4536.153809,4543.333496,4511.794922,4233.974121,4376.794922,4566.538574,4516.025879,4504.230957,4365.256348,4763.589844,4363.205078,4555.897461,4489.487305,4409.871582,4909.102539,4816.794922,3010.0,0.0,11.0,1792.0,27449.0,,,,0.0,4.0,4.0,4.0,4.0,4.0,4.0,4.0,4.0,4.0,4.0,4.0,4.0,4.0,4.0,4.0,4.0,4.0,4.0,4.0,4.0,4.0,4.0,4.0,4.0,4.0,4.0,4.0,4.0,4.0,4.0,4.0,4.0,100.0,,,,,,,,,,,,,,,,,,,,,,,,,,,,,,,,,,,,,,,,,,,,,,,,,,,,,,,,,,,,,,,,,,,,,,,,,,,,,,,,,,,,,,,,,,,,,,,,,,,,,,,,,,,,,,,,,,,,,,,,,,,,,,,,,,,,,,,,,,,,,,,,,,,,,,,,,,,,,,,,,,,,,,,,,,,,,,,,,,,,,,,,,,,,,,,,,,,,,,,,,,,,,,
1763976011.031717,21908.0,0.0,4389.743652,4381.025879,4528.077148,4717.05127,4415.384766,4535.0,4532.436035,4384.487305,4907.94873,4362.05127,4476.538574,4508.077148,4545.128418,4359.871582,4350.769043,4504.487305,4541.153809,4553.333496,4518.077148,4238.717773,4392.692383,4576.410156,4526.025879,4514.230957,4370.0,4774.230957,4378.333496,4566.282227,4500.512695,4424.615234,4917.94873,4844.615234,2996.0,0.0,11.0,2048.0,27457.0,,,,0.0,4.0,4.0,4.0,4.0,4.0,4.0,4.0,4.0,4.0,4.0,4.0,4.0,4.0,4.0,4.0,4.0,4.0,4.0,4.0,4.0,4.0,4.0,4.0,4.0,4.0,4.0,4.0,4.0,4.0,4.0,4.0,4.0,100.0,,,,,,,,,,,,,,,,,,,,,,,,,,,,,,,,,,,,,,,,,,,,,,,,,,,,,,,,,,,,,,,,,,,,,,,,,,,,,,,,,,,,,,,,,,,,,,,,,,,,,,,,,,,,,,,,,,,,,,,,,,,,,,,,,,,,,,,,,,,,,,,,,,,,,,,,,,,,,,,,,,,,,,,,,,,,,,,,,,,,,,,,,,,,,,,,,,,,,,,,,,,,,,
